#Acq. time (s)=	45
#Accumulations=	2
#Range (cm-¹)=	200...3150
#Windows=	2
#Auto scanning=	Off
#Autofocus=	Off
#Macrospot=	Off
#AutoExposure=	Off
#Spike filter=	Multiple accum.
#Delay time (s)=	0
#Binning=	1
#Readout mode=	Signal
#DeNoise=	Off
#ICS correction=	On
#Dark correction=	Off
#Inst. Process=	Off
#Detector Gain=	Best Dynamic Range
#Detector ADC=	20 kHz       
#Detector temperature (°C)=	-69.85
#Instrument=	LabRAM HR Evol
#Detector=	Synapse
#Objective=	x100
#Grating=	600 gr/mm
#ND Filter=	100%
#Laser (nm)=	532 
#Hole=	100.021
#Range=	Auto
#Laser Pol.=	No
#Raman. Pol.=	No
#Laser Pol. (°)=	-0.0007625
#Raman Pol. (°)=	89.9995
#Collection=	Microscope
#StageXY=	Marzhauser
#StageZ=	Marzhauser
#X (µm)=	-1041.8
#Y (µm)=	-2886.7
#Z (µm)=	528.8
#Full time(mm:ss)=	3:18
#Project=	
#Sample=	
#Site=	
#Title=	Mb_00_13_42_2x_45s_532 nm_x100_100%_600 gr_mm
#Remark=	
#Date=	06.07.2022 13:05
#Acquired=	06.07.2022 13:05:50
#Base:Fit=	10.08.2022 10:16:56
#Base:Sub=	10.08.2022 10:17:24
#Filter:Polynom=	16.08.2022 10:36:38
#AxisType[0]=Intens
#AxisUnit[0]=Cnt
#AxisType[1]=Spectr
#AxisUnit[1]=1/cm
200.398	20.2072
202.213	18.6839
204.027	16.055
205.843	12.9727
207.657	10.1184
209.47	8.28413
211.283	6.89812
213.097	8.02596
214.909	10.6429
216.721	14.8959
218.533	19.966
220.344	28.0109
222.157	37.4103
223.967	45.4168
225.777	57.0275
227.587	66.2524
229.396	76.7566
231.205	88.6421
233.016	99.3028
234.824	106.51
236.632	115.542
238.439	122.887
240.247	129.333
242.053	135.346
243.86	140.13
245.666	145.376
247.474	151.087
249.279	156.835
251.085	161.5
252.889	164.374
254.694	166.474
256.498	169.734
258.301	171.33
260.105	171.877
261.908	172.27
263.71	171.6
265.513	170.496
267.315	168.082
269.116	165.14
270.918	161.253
272.718	154.84
274.519	148.258
276.319	142.344
278.119	135.553
279.918	127.011
281.718	118.135
283.516	108.621
285.315	99.9167
287.113	92.9629
288.911	83.7903
290.708	75.5579
292.505	67.8002
294.302	61.2058
296.098	54.8875
297.894	49.6086
299.69	44.871
301.485	40.4574
303.278	37.2405
305.073	35.0185
306.867	33.7006
308.661	31.7946
310.454	30.8895
312.247	28.895
314.04	27.1091
315.833	26.906
317.623	25.0784
319.415	25.4121
321.206	25.0205
322.997	23.3311
324.788	21.5113
326.579	21.4406
328.367	19.9981
330.156	18.97
331.946	17.6578
333.735	16.4935
335.523	15.5159
337.31	13.5249
339.098	12.2569
340.885	10.7803
342.673	9.47126
344.458	8.50984
346.244	7.25442
348.03	5.56405
349.816	3.97278
351.6	1.97168
353.385	2.19489
355.17	1.44208
356.953	-0.78962
358.737	-1.77667
360.521	-3.08031
362.304	-3.54091
364.085	-1.55538
365.868	1.85443
367.65	3.77291
369.431	6.81271
371.212	10.8023
372.994	15.5575
374.773	19.7701
376.554	25.2083
378.332	29.1427
380.112	35.4451
381.892	43.9741
383.669	52.0942
385.448	61.0413
387.225	71.0578
389.003	81.9813
390.781	91.5585
392.557	100.925
394.334	111.331
396.109	119.294
397.885	125.866
399.66	133.43
401.436	139.829
403.211	144.9
404.984	149.487
406.759	153.179
408.532	155.77
410.306	157.777
412.078	158.122
413.851	157.223
415.623	155.693
417.395	153.142
419.166	150.474
420.938	147.355
422.708	143.94
424.477	139.701
426.248	134.407
428.017	128.628
429.788	122.58
431.556	115.449
433.326	107.809
435.093	98.4865
436.86	90.3076
438.629	81.2327
440.395	72.6145
442.163	63.5913
443.929	54.2999
445.694	46.3171
447.461	39.0043
449.226	32.5115
450.99	27.9917
452.756	22.6482
454.52	16.9849
456.285	10.7058
458.048	6.30708
459.811	2.64728
461.573	-0.888096
463.337	-4.06506
465.099	-2.87093
466.86	-3.98222
468.623	-2.73361
470.384	-0.582161
472.144	0.884509
473.906	3.37686
475.666	5.25145
477.425	7.77089
479.184	8.44866
480.944	10.5149
482.703	12.6946
484.461	14.5866
486.218	16.0947
487.975	17.7293
489.734	18.1539
491.491	19.0828
493.247	21.3151
495.003	22.2622
496.759	23.1396
498.516	25.6545
500.271	26.6577
502.025	29.1228
503.779	31.9221
505.533	33.9809
507.287	37.7609
509.042	39.8778
510.795	41.5181
512.547	43.5105
514.299	43.8312
516.051	45.1641
517.803	46.9751
519.554	47.435
521.305	49.2062
523.055	51.2089
524.805	52.4283
526.555	51.9455
528.307	52.5355
530.056	52.2513
531.805	53.5538
533.553	52.7304
535.301	52.1366
537.049	50.9684
538.797	50.3947
540.544	48.0598
542.291	47.1059
544.037	45.2682
545.783	43.2332
547.529	40.8922
549.275	38.7325
551.02	36.7444
552.765	36.0908
554.509	32.4379
556.253	31.4307
557.997	30.3811
559.738	28.8384
561.482	27.3791
563.224	25.0658
564.967	23.4676
566.709	21.2052
568.451	19.6009
570.192	18.6995
571.933	16.4207
573.674	15.1215
575.415	13.1966
577.153	11.4326
578.893	10.6129
580.632	10.1886
582.371	8.55582
584.11	7.76424
585.849	8.20332
587.587	7.69731
589.323	7.44805
591.06	7.33052
592.797	5.73374
594.534	4.85803
596.271	3.99103
598.005	3.93861
599.741	5.09871
601.476	5.23035
603.211	6.9399
604.944	8.64825
606.679	8.30224
608.413	9.11462
610.147	9.02286
611.878	8.71939
613.611	7.72913
615.344	9.01405
617.077	8.502
618.807	10.2893
620.539	9.64701
622.27	10.3275
623.999	10.4791
625.73	11.9853
627.461	14.0795
629.189	16.2399
630.919	18.3106
632.648	20.0136
634.376	21.8282
636.105	24.1107
637.833	25.8656
639.559	28.3342
641.287	29.8324
643.013	31.954
644.74	31.1092
646.467	31.1813
648.192	31.6399
649.918	32.6901
651.642	33.2494
653.368	34.1815
655.091	34.9151
656.816	35.6237
658.538	34.3726
660.263	34.4881
661.987	33.0187
663.708	31.729
665.432	30.6796
667.153	29.7975
668.875	28.4355
670.596	27.6149
672.318	26.9827
674.037	25.6495
675.759	24.3683
677.478	23.47
679.196	20.5235
680.917	19.4186
682.635	18.9697
684.355	18.1475
686.072	16.6873
687.791	14.3047
689.508	12.0289
691.224	10.227
692.942	7.93675
694.658	7.10665
696.376	6.75889
698.091	5.80975
699.805	3.77288
701.522	4.69555
703.236	2.56932
704.95	2.40524
706.665	2.47299
708.379	2.59332
710.093	2.77745
711.806	4.17316
713.518	5.39044
715.23	5.03635
716.943	5.61883
718.655	6.31863
720.366	7.36955
722.078	8.50962
723.788	9.12405
725.498	9.12086
727.208	9.89892
728.919	8.73271
730.628	8.58601
732.337	8.563
734.045	9.39168
735.755	10.6016
737.463	10.9088
739.17	11.6811
740.877	12.0076
742.584	11.9625
744.292	11.3964
745.998	12.3145
747.704	13.0876
749.409	15.0132
751.114	16.5143
752.819	19.0977
754.526	21.263
756.23	22.5925
757.934	23.3874
759.637	24.7796
761.34	24.673
763.043	24.481
764.746	24.2488
766.448	25.0121
768.152	25.3212
769.853	24.7902
771.554	24.1341
773.255	25.6878
774.956	26.6965
776.656	27.1765
778.356	28.0777
780.056	29.0709
781.755	27.9242
783.454	28.253
785.153	28.3745
786.851	30.0197
788.549	29.907
790.247	31.6839
791.944	32.6008
793.641	32.0747
795.338	32.4702
797.034	32.6563
798.73	32.5266
800.426	31.6989
802.121	31.8021
803.817	31.8375
805.511	30.0978
807.206	30.5952
808.9	30.8357
810.592	31.1346
812.286	31.6333
813.979	30.9714
815.672	31.53
817.364	31.2156
819.057	33.5102
820.748	33.7804
822.44	34.3016
824.129	34.3661
825.82	35.0227
827.511	36.2518
829.201	36.8394
830.891	38.4487
832.581	38.5455
834.269	38.8249
835.958	37.6928
837.646	37.3136
839.335	37.0698
841.023	35.0918
842.709	33.3884
844.396	32.7327
846.084	30.6474
847.77	29.9815
849.455	28.3585
851.141	27.6791
852.827	26.4983
854.513	24.4281
856.196	22.84
857.881	22.079
859.566	21.0341
861.248	19.4383
862.932	18.964
864.616	17.5893
866.297	15.442
867.98	16.2373
869.663	14.759
871.343	13.6019
873.026	11.8599
874.707	11.1644
876.387	9.15817
878.068	8.04716
879.747	7.71638
881.428	6.64627
883.108	6.78037
884.786	5.47649
886.465	6.15652
888.143	6.07314
889.822	6.2162
891.498	8.72591
893.177	8.51456
894.855	8.74991
896.53	8.3196
898.208	8.04892
899.883	7.99356
901.56	7.85321
903.234	8.14632
904.91	7.77322
906.584	7.24238
908.26	7.088
909.933	6.51076
911.608	6.30607
913.28	5.6772
914.955	5.4633
916.627	5.2423
918.298	4.91133
919.972	4.43626
921.643	5.37007
923.315	4.86584
924.986	4.63131
926.656	5.37161
928.328	6.30995
929.997	6.90457
931.668	5.76747
933.337	5.33071
935.006	5.40855
936.676	4.64326
938.344	3.85187
940.012	3.83947
941.681	4.91646
943.348	5.74182
945.014	4.67127
946.683	4.02182
948.349	4.15258
950.015	4.03565
951.682	3.93348
953.347	4.64179
955.012	4.29651
956.676	3.8451
958.343	3.30188
960.006	2.28359
961.67	2.70393
963.333	4.33013
964.998	5.93274
966.661	7.19061
968.323	9.23371
969.985	11.72
971.649	13.0502
973.31	15.1685
974.971	17.7298
976.632	20.3125
978.293	22.8691
979.953	23.7739
981.615	25.5031
983.274	26.2385
984.933	27.2027
986.592	29.3217
988.251	30.667
989.909	32.7448
991.567	35.197
993.225	37.0026
994.884	39.1428
996.541	42.1665
998.198	42.8312
999.855	43.0646
1001.51	42.839
1003.17	44.3038
1004.82	44.4195
1006.48	43.8736
1008.13	44.1432
1009.79	42.9724
1011.44	43.2118
1013.1	42.1805
1014.75	42.3585
1016.4	46.0238
1018.06	50.9883
1019.71	56.5819
1021.36	62.9313
1023.01	70.8486
1024.66	77.5556
1026.32	85.5818
1027.97	92.8992
1029.62	99.5241
1031.27	106.424
1032.92	112.313
1034.57	117.114
1036.22	123.321
1037.87	125.409
1039.52	128.666
1041.16	132.228
1042.81	135.072
1044.46	138.671
1046.11	140.644
1047.76	142.502
1049.4	143.275
1051.05	143.951
1052.7	142.849
1054.34	141.454
1055.99	139.773
1057.63	138.094
1059.28	136.42
1060.92	131.957
1062.57	127.643
1064.21	124.168
1065.85	118.119
1067.5	114.293
1069.14	108.21
1070.78	101.612
1072.43	95.5983
1074.07	88.6547
1075.71	81.1983
1077.35	72.4927
1078.99	64.116
1080.63	52.7258
1082.27	43.6154
1083.91	35.0603
1085.55	27.3579
1087.19	18.1366
1088.83	11.1638
1090.47	5.5367
1092.11	2.6284
1093.75	1.38879
1095.39	0.338392
1097.03	1.4343
1098.66	3.83932
1100.3	5.92895
1101.94	8.14273
1103.57	10.2117
1105.21	11.248
1106.84	11.1207
1108.48	13.3734
1110.11	13.5589
1111.75	12.9866
1113.38	11.4723
1115.02	11.4848
1116.65	10.4967
1118.29	9.6448
1119.92	9.05862
1121.55	8.1214
1123.19	7.80799
1124.82	7.2653
1126.45	7.37437
1128.08	7.67044
1129.71	8.27888
1131.34	7.55797
1132.97	6.76142
1134.6	5.88695
1136.23	6.26494
1137.86	7.55522
1139.49	9.89452
1141.12	10.3978
1142.75	9.75144
1144.38	10.1799
1146.01	10.3317
1147.64	9.78331
1149.26	9.52514
1150.89	9.1678
1152.52	9.75603
1154.15	10.2798
1155.77	9.58858
1157.4	7.84537
1159.02	6.85797
1160.65	6.61124
1162.27	5.5745
1163.9	5.65595
1165.52	5.09454
1167.15	5.37601
1168.77	6.42311
1170.39	7.17035
1172.02	8.50264
1173.64	10.6076
1175.26	10.8508
1176.89	12.4922
1178.51	12.8391
1180.13	14.3373
1181.75	15.5405
1183.37	16.2325
1184.99	16.6778
1186.61	17.1188
1188.23	18.5859
1189.85	19.0793
1191.47	19.17
1193.09	19.067
1194.71	19.8018
1196.33	21.3646
1197.94	22.1013
1199.56	23.6884
1201.18	26.6868
1202.8	27.7615
1204.41	30.8573
1206.03	33.1569
1207.65	35.6972
1209.26	39.172
1210.88	41.0662
1212.49	43.5755
1214.11	46.8967
1215.72	50.4524
1217.34	55.341
1218.95	59.06
1220.57	62.4023
1222.18	63.8731
1223.79	66.1891
1225.41	69.0673
1227.02	73.2664
1228.63	76.0048
1230.24	77.798
1231.85	81.3032
1233.47	82.45
1235.08	85.1682
1236.69	86.1909
1238.3	86.9655
1239.91	88.1168
1241.52	89.5132
1243.13	91.2007
1244.74	92.6579
1246.34	93.2612
1247.95	94.1099
1249.56	95.2378
1251.17	94.3388
1252.78	95.4556
1254.38	95.6608
1255.99	93.5566
1257.6	93.3992
1259.2	91.086
1260.81	89.695
1262.42	89.2013
1264.02	86.4466
1265.63	85.9588
1267.23	84.3674
1268.84	82.6184
1270.44	81.0549
1272.04	81.0121
1273.65	79.8196
1275.25	80.457
1276.85	80.3534
1278.46	82.1763
1280.06	82.8879
1281.66	84.0625
1283.26	85.2208
1284.86	85.9425
1286.46	87.4472
1288.07	89.0395
1289.67	90.6935
1291.27	92.5597
1292.87	96.2265
1294.47	99.469
1296.06	101.836
1297.66	104.266
1299.26	106.566
1300.86	108.901
1302.46	110.669
1304.06	113.476
1305.65	116.564
1307.25	119.801
1308.85	120.933
1310.44	123.776
1312.04	125.434
1313.64	127.07
1315.23	129.259
1316.83	129.348
1318.42	130.431
1320.02	131.571
1321.61	132.646
1323.2	133.738
1324.8	131.791
1326.39	131.993
1327.99	131.978
1329.58	131.599
1331.17	130.164
1332.76	130.077
1334.36	128.274
1335.95	127.734
1337.54	126.986
1339.13	124.559
1340.72	122.576
1342.31	121.378
1343.9	118.9
1345.49	117.058
1347.08	115.061
1348.67	113.068
1350.26	111.991
1351.85	110.886
1353.43	109.565
1355.02	107.464
1356.61	104.738
1358.2	102.16
1359.78	99.0944
1361.37	96.9249
1362.96	94.3249
1364.54	90.8795
1366.13	89.0621
1367.71	87.8684
1369.3	86.4621
1370.88	85.1615
1372.47	83.5843
1374.05	80.6034
1375.64	78.3821
1377.22	78.0737
1378.8	76.8561
1380.39	76.0899
1381.97	74.7126
1383.55	74.4339
1385.13	73.9109
1386.72	73.4403
1388.3	73.7754
1389.88	73.1418
1391.46	71.1947
1393.04	71.2833
1394.62	70.7816
1396.2	69.3073
1397.78	68.7839
1399.36	68.1859
1400.94	67.7287
1402.52	69.6155
1404.1	70.6592
1405.68	74.0276
1407.25	76.3664
1408.83	79.9148
1410.41	83.7863
1411.98	89.61
1413.56	94.8954
1415.14	100.014
1416.71	103.501
1418.29	109.184
1419.87	116.203
1421.44	123.169
1423.02	130.253
1424.59	137.234
1426.16	144.881
1427.74	150.321
1429.31	156.847
1430.89	163.606
1432.46	169.789
1434.03	173.586
1435.6	180.582
1437.18	185.805
1438.75	190.336
1440.32	194.131
1441.89	197.639
1443.46	200.402
1445.03	204.679
1446.6	207.384
1448.17	207.734
1449.74	208.685
1451.31	208.873
1452.88	207.588
1454.45	206.885
1456.02	204.648
1457.59	201.432
1459.16	198.58
1460.72	193.267
1462.29	189.248
1463.86	183.558
1465.43	177.564
1466.99	171.524
1468.56	162.951
1470.13	155.808
1471.69	147.518
1473.26	140.456
1474.82	132.377
1476.38	125.453
1477.95	118.988
1479.51	112.672
1481.08	107.331
1482.64	100.426
1484.2	95.9231
1485.77	90.3375
1487.33	85.2805
1488.89	80.486
1490.46	76.6218
1492.02	71.4174
1493.58	66.4335
1495.14	62.9443
1496.7	61.0417
1498.26	58.0383
1499.82	55.6082
1501.38	52.8834
1502.94	50.2863
1504.5	48.7852
1506.06	48.001
1507.62	47.6335
1509.18	48.0737
1510.73	47.9846
1512.29	46.8916
1513.85	48.9021
1515.41	47.654
1516.96	46.6586
1518.52	47.1284
1520.08	47.1226
1521.63	47.2197
1523.19	48.6229
1524.75	47.8991
1526.3	47.9352
1527.85	48.3705
1529.41	48.4645
1530.96	48.071
1532.52	48.9007
1534.07	48.23
1535.62	49.7174
1537.18	50.3857
1538.73	51.4483
1540.28	53.8304
1541.84	53.5739
1543.39	54.7391
1544.94	56.9856
1546.49	57.2051
1548.04	59.571
1549.59	62.1507
1551.14	64.0573
1552.69	64.105
1554.25	65.9957
1555.79	67.471
1557.34	68.9229
1558.89	69.6114
1560.44	70.3534
1561.99	71.5254
1563.54	71.2179
1565.08	72.8112
1566.63	74.6566
1568.18	75.8743
1569.73	77.9778
1571.27	80.4647
1572.82	82.9592
1574.37	86.3677
1575.91	89.3435
1577.46	93.0084
1579	95.0926
1580.55	98.4885
1582.09	101.629
1583.64	103.37
1585.18	105.568
1586.73	108.277
1588.27	109.788
1589.81	110.903
1591.35	111.705
1592.9	111.661
1594.44	112.666
1595.98	114.306
1597.52	113.544
1599.06	113.142
1600.61	112.499
1602.15	111.248
1603.69	110.586
1605.23	109.824
1606.77	109.227
1608.31	107.558
1609.85	108.482
1611.39	107.306
1612.93	107.765
1614.46	107.374
1616	107.64
1617.54	105.644
1619.08	104.763
1620.61	107.416
1622.15	107.867
1623.69	107.729
1625.23	108.915
1626.76	108.243
1628.3	106.393
1629.83	107.233
1631.37	108.424
1632.9	107.835
1634.44	108.582
1635.97	108.97
1637.51	109.768
1639.04	110.868
1640.57	113.295
1642.11	115.275
1643.64	117.12
1645.17	118.771
1646.71	121.762
1648.24	123.172
1649.77	124.506
1651.3	126.345
1652.83	127.574
1654.36	128.884
1655.89	128.366
1657.42	128.667
1658.96	128.714
1660.48	126.085
1662.01	126.218
1663.54	125.298
1665.07	124.007
1666.6	122.073
1668.13	120.123
1669.66	119.235
1671.19	116.554
1672.71	112.275
1674.24	107.394
1675.77	103.477
1677.29	99.2253
1678.82	95.5531
1680.35	92.0637
1681.87	88.6619
1683.4	84.6287
1684.92	80.3099
1686.45	76.1315
1687.97	70.0928
1689.5	66.2678
1691.02	61.8127
1692.54	58.9717
1694.07	53.993
1695.59	51.3699
1697.11	47.9705
1698.64	42.7915
1700.16	40.3989
1701.68	36.7533
1703.2	33.5611
1704.72	30.9425
1706.25	28.5662
1707.77	26.1417
1709.29	23.7868
1710.81	22.7618
1712.33	20.547
1713.85	17.7172
1715.37	16.3143
1716.89	15.0615
1718.41	13.8533
1719.92	13.4318
1721.44	12.2614
1722.96	11.4722
1724.48	10.6444
1725.99	11.029
1727.51	11.3585
1729.03	10.9122
1730.55	9.56888
1732.06	8.36557
1733.58	9.06846
1735.09	9.16428
1736.61	8.31096
1738.13	9.87454
1739.64	10.0469
1741.15	9.70841
1742.67	9.10069
1744.18	8.53908
1745.7	8.64184
1747.21	8.33792
1748.72	7.66161
1750.24	8.87378
1751.75	9.00329
1753.26	9.21376
1754.77	10.3823
1756.29	10.0592
1757.8	10.8211
1759.31	10.4727
1760.82	10.6299
1762.33	9.84685
1763.84	9.93126
1765.35	10.2362
1766.86	10.5689
1768.37	11.0404
1769.88	9.25054
1771.39	9.36691
1772.9	8.67284
1774.4	8.8607
1775.91	8.51598
1777.42	6.88416
1778.93	6.28187
1780.44	5.48571
1781.94	5.12599
1783.45	5.25945
1784.96	5.18501
1786.46	5.05611
1787.97	4.71635
1789.47	5.19066
1790.98	5.28239
1792.48	5.57579
1793.99	5.67665
1795.49	5.00684
1797	4.98178
1798.5	4.8334
1800.01	5.68467
1801.51	5.47891
1803.01	4.34288
1804.51	4.52104
1806.02	4.10925
1807.52	5.02134
1809.02	5.71513
1810.52	5.13896
1812.02	4.5464
1813.52	4.21208
1815.02	4.4747
1816.53	4.0451
1818.03	3.94478
1819.52	4.00692
1821.02	5.13491
1822.52	5.79937
1824.02	5.54435
1825.52	6.19578
1827.02	6.25414
1828.52	6.52163
1830.02	6.26175
1831.51	6.08869
1833.01	7.38999
1834.51	7.10042
1836.01	6.96561
1837.5	6.44228
1839	6.7752
1840.49	7.11218
1841.99	6.78237
1843.49	5.79105
1844.98	4.31188
1846.48	3.48026
1847.97	3.01091
1849.47	3.38351
1850.96	2.25449
1852.45	2.48846
1853.95	2.92853
1855.44	2.82709
1856.93	3.16331
1858.42	2.74975
1859.92	3.40807
1861.41	3.89181
1862.9	3.85849
1864.39	4.41704
1865.88	4.27931
1867.38	4.40329
1868.87	4.95448
1870.36	5.00036
1871.85	6.18344
1873.34	5.87276
1874.83	6.42702
1876.32	6.39213
1877.81	6.37024
1879.29	7.54385
1880.78	6.90662
1882.27	7.27564
1882.53	7.01153
1884.03	6.70316
1885.52	5.80839
1887.01	5.55895
1888.51	5.89676
1890	6.24697
1891.5	5.86034
1892.99	5.85018
1894.48	6.24734
1895.97	5.98699
1897.47	6.06512
1898.96	6.25035
1900.45	5.18042
1901.94	5.11285
1903.43	4.66659
1904.92	6.09158
1906.41	6.19458
1907.9	5.13996
1909.39	5.33293
1910.88	5.56721
1912.37	5.50507
1913.86	5.18094
1915.35	3.79639
1916.84	3.19037
1918.33	3.34281
1919.81	3.24321
1921.3	3.11012
1922.79	3.33509
1924.28	2.28845
1925.76	3.07256
1927.25	3.21409
1928.73	3.77572
1930.22	3.63783
1931.71	3.71627
1933.19	4.1916
1934.68	4.4874
1936.16	4.89787
1937.65	5.86404
1939.13	6.42228
1940.62	6.95839
1942.1	7.7256
1943.58	7.41562
1945.07	7.79028
1946.55	7.51431
1948.03	8.42746
1949.51	8.56254
1951	8.71175
1952.48	9.17761
1953.96	9.25296
1955.44	9.80566
1956.92	9.54873
1958.4	9.28952
1959.88	8.97275
1961.36	9.41051
1962.84	9.66814
1964.32	8.99039
1965.8	8.19553
1967.28	9.20918
1968.76	8.3615
1970.24	8.826
1971.72	9.00604
1973.2	7.85233
1974.67	8.27546
1976.15	8.94746
1977.63	8.48492
1979.1	8.14888
1980.58	7.37038
1982.06	6.61571
1983.54	6.71952
1985.01	6.19413
1986.49	5.52526
1987.96	5.36215
1989.44	5.6039
1990.91	6.13954
1992.39	6.437
1993.86	5.98159
1995.33	6.19685
1996.81	6.0859
1998.28	6.29654
1999.75	7.08182
2001.23	7.18592
2002.7	7.28652
2004.17	7.76888
2005.65	8.24593
2007.12	8.77157
2008.59	10.1438
2010.06	10.6089
2011.53	10.3987
2013	10.0744
2014.47	9.5871
2015.94	8.94364
2017.41	8.9722
2018.88	8.592
2020.35	8.54011
2021.82	8.83205
2023.29	8.19912
2024.76	9.26735
2026.23	8.87347
2027.69	10.2444
2029.16	9.34681
2030.63	9.20188
2032.1	8.98698
2033.56	8.68987
2035.03	8.38348
2036.5	7.94456
2037.96	7.33195
2039.43	7.45728
2040.89	7.98814
2042.36	7.28099
2043.83	7.97348
2045.29	7.02016
2046.75	7.28262
2048.22	7.09922
2049.68	5.71169
2051.15	5.53746
2052.61	5.08322
2054.07	5.46628
2055.54	4.73371
2057	4.44153
2058.46	4.33673
2059.92	4.49311
2061.39	5.07245
2062.85	5.26639
2064.31	5.36702
2065.77	5.06321
2067.23	4.94428
2068.69	4.85622
2070.15	3.74167
2071.61	4.50198
2073.07	4.7725
2074.53	4.51182
2075.99	5.02921
2077.45	5.47545
2078.91	5.39956
2080.37	5.06294
2081.82	5.27829
2083.28	4.5665
2084.74	3.00451
2086.2	2.05654
2087.65	1.2833
2089.11	1.70654
2090.57	2.12586
2092.02	1.8327
2093.48	2.32533
2094.94	2.51288
2096.39	3.15318
2097.85	4.11174
2099.3	4.1905
2100.76	4.58382
2102.21	3.19461
2103.66	3.09195
2105.12	3.17417
2106.57	2.65201
2108.03	2.97904
2109.48	3.16463
2110.93	3.29947
2112.38	3.33196
2113.84	3.51388
2115.29	3.40099
2116.74	3.16077
2118.19	2.56776
2119.64	2.01989
2121.09	0.202526
2122.54	0.96105
2123.99	1.34668
2125.45	0.848191
2126.89	1.52619
2128.34	1.51734
2129.79	1.65656
2131.24	2.33868
2132.69	2.66807
2134.14	2.50316
