#Acq. time (s)=	45
#Accumulations=	2
#Range (cm-¹)=	200...3150
#Windows=	2
#Auto scanning=	Off
#Autofocus=	Off
#Macrospot=	Off
#AutoExposure=	Off
#Spike filter=	Multiple accum.
#Delay time (s)=	0
#Binning=	1
#Readout mode=	Signal
#DeNoise=	Off
#ICS correction=	On
#Dark correction=	Off
#Inst. Process=	Off
#Detector Gain=	Best Dynamic Range
#Detector ADC=	20 kHz       
#Detector temperature (°C)=	-69.85
#Instrument=	LabRAM HR Evol
#Detector=	Synapse
#Objective=	x100
#Grating=	600 gr/mm
#ND Filter=	100%
#Laser (nm)=	532 
#Hole=	100.021
#Range=	Auto
#Laser Pol.=	No
#Raman. Pol.=	No
#Laser Pol. (°)=	-0.0007625
#Raman Pol. (°)=	89.9995
#Collection=	Microscope
#StageXY=	Marzhauser
#StageZ=	Marzhauser
#X (µm)=	-1011
#Y (µm)=	-2947.9
#Z (µm)=	527.85
#Full time(mm:ss)=	3:18
#Project=	
#Sample=	
#Site=	
#Title=	Mb_00_13_10_2x_45s_532 nm_x100_100%_600 gr_mm
#Remark=	
#Date=	06.07.2022 10:21
#Acquired=	06.07.2022 10:21:41
#Base:Fit=	10.08.2022 10:16:56
#Base:Sub=	10.08.2022 10:17:24
#Filter:Polynom=	16.08.2022 10:36:38
#AxisType[0]=Intens
#AxisUnit[0]=Cnt
#AxisType[1]=Spectr
#AxisUnit[1]=1/cm
200.398	3.79615
202.213	4.10689
204.027	3.09487
205.843	1.4359
207.657	0.369764
209.47	-0.981089
211.283	-1.87699
213.097	-2.07179
214.909	-1.97289
216.721	-2.42212
218.533	-0.945231
220.344	1.3277
222.157	3.29646
223.967	5.71905
225.777	8.48393
227.587	10.9637
229.396	14.4478
231.205	17.2377
233.016	19.5195
234.824	21.3402
236.632	25.0667
238.439	26.2691
240.247	28.4772
242.053	29.5727
243.86	31.2337
245.666	32.2349
247.474	34.6406
249.279	36.6825
251.085	38.5493
252.889	39.0686
254.694	41.1281
256.498	42.1854
258.301	42.3373
260.105	42.8196
261.908	44.3616
263.71	44.3352
265.513	45.1769
267.315	44.9956
269.116	44.5716
270.918	44.0882
272.718	42.201
274.519	42.0807
276.319	41.2634
278.119	39.4284
279.918	37.4012
281.718	36.2547
283.516	34.5138
285.315	31.2791
287.113	28.7568
288.911	26.0723
290.708	23.7756
292.505	21.1629
294.302	19.3972
296.098	17.5475
297.894	15.8602
299.69	14.526
301.485	13.2128
303.278	12.7967
305.073	11.8729
306.867	10.571
308.661	11.3841
310.454	10.4189
312.247	10.0282
314.04	10.1926
315.833	9.94889
317.623	10.2152
319.415	10.2413
321.206	9.98843
322.997	9.90706
324.788	10.4069
326.579	10.5798
328.367	8.72167
330.156	9.19095
331.946	8.4239
333.735	9.1192
335.523	9.29886
337.31	9.94982
339.098	8.87878
340.885	7.97802
342.673	6.21348
344.458	7.46198
346.244	6.88281
348.03	5.78309
349.816	5.32888
351.6	5.13459
353.385	4.45297
355.17	5.29913
356.953	4.06167
358.737	4.24005
360.521	3.9473
362.304	5.55298
364.085	6.78773
365.868	6.50051
367.65	5.36786
369.431	6.33441
371.212	4.74247
372.994	5.19253
374.773	5.17757
376.554	6.40474
378.332	7.90759
380.112	9.72693
381.892	10.9701
383.669	12.9101
385.448	15.9548
387.225	18.8651
389.003	20.6277
390.781	23.3335
392.557	27.0305
394.334	28.8972
396.109	30.5165
397.885	32.6538
399.66	34.2964
401.436	36.5971
403.211	38.0229
404.984	39.0474
406.759	40.4717
408.532	41.7137
410.306	42.5956
412.078	43.3034
413.851	43.3101
415.623	42.4548
417.395	42.0965
419.166	41.8452
420.938	41.154
422.708	41.3687
424.477	39.9875
426.248	37.8653
428.017	36.3425
429.788	34.405
431.556	32.6637
433.326	30.7501
435.093	26.6717
436.86	23.6274
438.629	22.6352
440.395	20.5987
442.163	19.7735
443.929	17.8605
445.694	14.7526
447.461	13.3285
449.226	11.8661
450.99	10.8685
452.756	8.65519
454.52	7.01354
456.285	5.8184
458.048	4.93355
459.811	2.85437
461.573	3.371
463.337	2.44861
465.099	2.49264
466.86	2.73547
468.623	3.49647
470.384	3.6871
472.144	4.41028
473.906	4.80777
475.666	4.15542
477.425	4.79389
479.184	5.0925
480.944	4.66598
482.703	4.89283
484.461	4.7617
486.218	5.94513
487.975	7.52981
489.734	7.77589
491.491	8.50734
493.247	9.51536
495.003	10.9438
496.759	12.8878
498.516	14.543
500.271	15.5855
502.025	16.1161
503.779	17.4471
505.533	18.6626
507.287	19.2097
509.042	20.0344
510.795	20.5343
512.547	21.0796
514.299	21.5767
516.051	22.3702
517.803	22.5909
519.554	22.6755
521.305	22
523.055	22.9008
524.805	23.7817
526.555	25.2554
528.307	25.9195
530.056	26.4755
531.805	26.6349
533.553	27.0343
535.301	27.2775
537.049	27.5314
538.797	27.0188
540.544	26.4969
542.291	25.53
544.037	23.9955
545.783	23.0188
547.529	21.9291
549.275	20.8935
551.02	19.1469
552.765	17.968
554.509	16.8025
556.253	15.6395
557.997	13.7036
559.738	12.1834
561.482	10.9711
563.224	9.51314
564.967	9.24324
566.709	7.74281
568.451	7.23384
570.192	7.29743
571.933	6.71723
573.674	5.79783
575.415	4.52991
577.153	3.77594
578.893	3.31995
580.632	4.00956
582.371	4.18641
584.11	4.60027
585.849	3.19783
587.587	1.78122
589.323	1.13692
591.06	0.0422052
592.797	-0.582625
594.534	-1.11131
596.271	-0.0524796
598.005	0.0211547
599.741	0.0616302
601.476	-0.0637268
603.211	-0.400032
604.944	-0.0981348
606.679	-0.573989
608.413	-0.10611
610.147	0.982229
611.878	1.08706
613.611	2.14218
615.344	2.97722
617.077	2.56379
618.807	3.0793
620.539	3.07131
622.27	2.83485
623.999	2.90988
625.73	3.35072
627.461	3.45883
629.189	3.3937
630.919	3.29662
632.648	3.83637
634.376	4.10721
636.105	5.0146
637.833	4.35903
639.559	4.82473
641.287	5.47083
643.013	5.36113
644.74	5.0169
646.467	5.7054
648.192	5.42953
649.918	5.64623
651.642	5.91163
653.368	6.25503
655.091	6.04125
656.816	6.34623
658.538	6.60448
660.263	6.51368
661.987	7.5529
663.708	7.56564
665.432	8.4125
667.153	9.89849
668.875	9.5168
670.596	9.17123
672.318	9.59501
674.037	10.4482
675.759	10.8998
677.478	10.2576
679.196	11.5552
680.917	12.1239
682.635	12.4765
684.355	11.7449
686.072	11.7214
687.791	12.9136
689.508	12.9601
691.224	13.4158
692.942	13.5167
694.658	13.9589
696.376	15.3036
698.091	15.8255
699.805	16.8219
701.522	17.504
703.236	17.2632
704.95	18.6949
706.665	19.5755
708.379	20.2792
710.093	22.4241
711.806	23.3489
713.518	23.0507
715.23	23.8032
716.943	23.8765
718.655	23.8591
720.366	24.1638
722.078	23.7449
723.788	22.6826
725.498	23.2603
727.208	23.0406
728.919	21.6348
730.628	21.7397
732.337	22.1831
734.045	21.9838
735.755	22.8633
737.463	22.5632
739.17	22.7609
740.877	23.0972
742.584	24.934
744.292	26.3789
745.998	26.1141
747.704	28.0489
749.409	30.5582
751.114	33.605
752.819	35.9916
754.526	37.5405
756.23	39.4036
757.934	41.5921
759.637	42.6475
761.34	43.9857
763.043	45.3802
764.746	47.8467
766.448	49.9551
768.152	51.8774
769.853	53.5237
771.554	55.0924
773.255	57.3697
774.956	58.8668
776.656	60.5764
778.356	61.7996
780.056	62.5592
781.755	64.7259
783.454	66.1307
785.153	68.2935
786.851	69.6115
788.549	71.0972
790.247	72.2289
791.944	72.7388
793.641	74.0746
795.338	73.8809
797.034	73.5018
798.73	73.0092
800.426	72.9393
802.121	72.3337
803.817	71.8451
805.511	70.9332
807.206	69.2768
808.9	68.5606
810.592	67.5661
812.286	66.4038
813.979	65.3268
815.672	66.045
817.364	64.6328
819.057	63.5629
820.748	63.3805
822.44	62.8278
824.129	62.3882
825.82	62.9099
827.511	62.4345
829.201	61.6586
830.891	60.9561
832.581	62.2016
834.269	61.4379
835.958	61.4681
837.646	60.4029
839.335	60.2309
841.023	59.0678
842.709	58.1209
844.396	57.5111
846.084	56.6173
847.77	55.5159
849.455	54.3241
851.141	54.0533
852.827	53.3931
854.513	51.8937
856.196	50.6835
857.881	50.7344
859.566	49.1731
861.248	48.3054
862.932	47.0899
864.616	47.1808
866.297	48.5577
867.98	47.675
869.663	46.9348
871.343	45.7243
873.026	44.3318
874.707	43.2965
876.387	43.0338
878.068	41.9696
879.747	41.5027
881.428	41.6518
883.108	40.5364
884.786	40.4394
886.465	39.2681
888.143	38.0868
889.822	38.1083
891.498	37.9855
893.177	39.0816
894.855	38.6163
896.53	39.172
898.208	38.826
899.883	38.4424
901.56	38.2651
903.234	39.3531
904.91	38.9441
906.584	38.566
908.26	37.6143
909.933	37.3015
911.608	36.942
913.28	36.4091
914.955	36.1333
916.627	37.0049
918.298	36.9159
919.972	37.7779
921.643	37.4347
923.315	37.4503
924.986	36.8649
926.656	37.1299
928.328	37.5422
929.997	36.9999
931.668	36.8047
933.337	36.5346
935.006	36.129
936.676	34.6841
938.344	33.3751
940.012	33.2747
941.681	32.8374
943.348	32.1024
945.014	33.3542
946.683	32.6794
948.349	32.6321
950.015	32.0573
951.682	30.7316
953.347	31.3383
955.012	30.5213
956.676	29.7948
958.343	29.212
960.006	29.1667
961.67	30.3715
963.333	31.6957
964.998	32.8849
966.661	34.0723
968.323	34.6969
969.985	34.7998
971.649	36.4171
973.31	38.2472
974.971	38.8709
976.632	40.6688
978.293	40.5862
979.953	41.7415
981.615	41.2636
983.274	41.7195
984.933	42.325
986.592	42.7991
988.251	42.1625
989.909	43.7964
991.567	44.1822
993.225	44.53
994.884	43.9989
996.541	43.5658
998.198	45.3776
999.855	45.414
1001.51	45.3996
1003.17	45.4636
1004.82	44.7587
1006.48	44.3911
1008.13	44.1384
1009.79	43.6606
1011.44	42.2317
1013.1	41.7422
1014.75	41.5335
1016.4	40.9289
1018.06	42.0944
1019.71	42.9587
1021.36	46.3628
1023.01	48.7359
1024.66	50.404
1026.32	52.695
1027.97	54.7521
1029.62	55.2368
1031.27	57.2548
1032.92	58.0928
1034.57	58.8542
1036.22	59.2944
1037.87	59.1352
1039.52	59.016
1041.16	60.3155
1042.81	62.2148
1044.46	63.8534
1046.11	63.7099
1047.76	63.9105
1049.4	62.9258
1051.05	62.2487
1052.7	62.6331
1054.34	62.9377
1055.99	62.0864
1057.63	61.148
1059.28	60.2394
1060.92	58.4925
1062.57	58.2361
1064.21	57.0428
1065.85	56.2439
1067.5	55.4959
1069.14	54.7338
1070.78	52.8544
1072.43	51.9657
1074.07	49.7673
1075.71	46.7133
1077.35	44.8608
1078.99	43.4401
1080.63	41.2704
1082.27	38.7236
1083.91	36.562
1085.55	33.9293
1087.19	32.4789
1088.83	32.0787
1090.47	30.5673
1092.11	30.5547
1093.75	28.9632
1095.39	30.052
1097.03	29.8486
1098.66	29.7551
1100.3	30.727
1101.94	30.3078
1103.57	31.5795
1105.21	31.4079
1106.84	29.9182
1108.48	29.7889
1110.11	28.4935
1111.75	27.2967
1113.38	26.4309
1115.02	24.3974
1116.65	22.7574
1118.29	21.6376
1119.92	21.0468
1121.55	20.6966
1123.19	20.8314
1124.82	20.4087
1126.45	19.9629
1128.08	18.2837
1129.71	17.01
1131.34	15.873
1132.97	15.2483
1134.6	15.2232
1136.23	14.0276
1137.86	12.8802
1139.49	13.5137
1141.12	13.0203
1142.75	12.6884
1144.38	12.7295
1146.01	11.9038
1147.64	11.0788
1149.26	10.6553
1150.89	10.1053
1152.52	9.35044
1154.15	8.65592
1155.77	8.50996
1157.4	7.87906
1159.02	7.76349
1160.65	7.95663
1162.27	7.08679
1163.9	7.55133
1165.52	7.00376
1167.15	7.69074
1168.77	8.29499
1170.39	8.69677
1172.02	8.75107
1173.64	8.17997
1175.26	8.35268
1176.89	10.4994
1178.51	11.1713
1180.13	12.6868
1181.75	14.4681
1183.37	15.6292
1184.99	17.2704
1186.61	17.8526
1188.23	17.8598
1189.85	18.9779
1191.47	19.077
1193.09	19.6713
1194.71	21.0775
1196.33	21.719
1197.94	23.4164
1199.56	25.3066
1201.18	26.9493
1202.8	28.7845
1204.41	29.6698
1206.03	32.1772
1207.65	33.5822
1209.26	34.1236
1210.88	34.835
1212.49	35.3664
1214.11	37.7055
1215.72	39.0085
1217.34	40.3231
1218.95	43.138
1220.57	45.4701
1222.18	46.3017
1223.79	48.1633
1225.41	50.0792
1227.02	51.8011
1228.63	53.4036
1230.24	54.336
1231.85	54.9624
1233.47	55.6965
1235.08	56.339
1236.69	57.7148
1238.3	57.9936
1239.91	58.509
1241.52	59.5835
1243.13	58.4787
1244.74	58.2658
1246.34	58.4056
1247.95	58.6334
1249.56	58.1344
1251.17	58.2239
1252.78	58.008
1254.38	58.2493
1255.99	59.8861
1257.6	60.5443
1259.2	60.8942
1260.81	60.5879
1262.42	59.4845
1264.02	58.89
1265.63	58.0627
1267.23	58.5439
1268.84	59.0168
1270.44	58.7879
1272.04	59.3266
1273.65	59.9295
1275.25	61.0576
1276.85	60.9778
1278.46	62.1376
1280.06	61.945
1281.66	62.9765
1283.26	63.7224
1284.86	64.4909
1286.46	65.2904
1288.07	65.7047
1289.67	65.8088
1291.27	67.058
1292.87	69.1526
1294.47	70.8093
1296.06	71.4103
1297.66	73.9221
1299.26	76.0219
1300.86	76.7687
1302.46	76.9245
1304.06	78.7502
1305.65	80.3073
1307.25	81.1828
1308.85	81.9486
1310.44	82.1238
1312.04	83.3558
1313.64	85.6733
1315.23	86.5564
1316.83	87.5709
1318.42	87.9444
1320.02	87.8884
1321.61	88.7128
1323.2	87.8675
1324.8	88.991
1326.39	89.5956
1327.99	89.2635
1329.58	89.6726
1331.17	91.3375
1332.76	91.8973
1334.36	92.0869
1335.95	92.2848
1337.54	92.1444
1339.13	92.1412
1340.72	91.5185
1342.31	91.368
1343.9	91.9414
1345.49	92.8612
1347.08	93.1044
1348.67	92.2412
1350.26	91.1659
1351.85	91.5732
1353.43	91.0122
1355.02	90.2949
1356.61	90.1701
1358.2	88.6777
1359.78	87.7486
1361.37	87.0895
1362.96	86.0116
1364.54	85.587
1366.13	83.7545
1367.71	83.6086
1369.3	81.8529
1370.88	81.0085
1372.47	79.5097
1374.05	77.235
1375.64	76.0149
1377.22	74.5014
1378.8	73.3872
1380.39	72.0046
1381.97	69.9431
1383.55	70.1984
1385.13	68.8607
1386.72	68.1867
1388.3	67.4074
1389.88	66.0156
1391.46	64.6707
1393.04	64.2967
1394.62	62.8051
1396.2	60.9995
1397.78	59.8576
1399.36	59.2073
1400.94	59.5065
1402.52	59.4586
1404.1	60.456
1405.68	59.8304
1407.25	60.5848
1408.83	62.4979
1410.41	63.8162
1411.98	65.1214
1413.56	67.3315
1415.14	70.0045
1416.71	71.6541
1418.29	74.4843
1419.87	77.0435
1421.44	80.3925
1423.02	82.8121
1424.59	85.7448
1426.16	88.2419
1427.74	91.6155
1429.31	95.7363
1430.89	99.2631
1432.46	101.884
1434.03	104.806
1435.6	106.602
1437.18	107.964
1438.75	110.168
1440.32	111.489
1441.89	113.771
1443.46	114.992
1445.03	115.152
1446.6	116.416
1448.17	116.243
1449.74	116.489
1451.31	115.745
1452.88	114.953
1454.45	114.339
1456.02	112.94
1457.59	111.799
1459.16	109.595
1460.72	106.986
1462.29	105.308
1463.86	102.204
1465.43	99.5302
1466.99	95.0594
1468.56	91.4758
1470.13	87.9397
1471.69	84.3435
1473.26	80.6534
1474.82	76.3377
1476.38	73.9697
1477.95	71.3223
1479.51	68.2376
1481.08	65.9045
1482.64	62.6773
1484.2	59.8553
1485.77	57.9644
1487.33	55.3041
1488.89	53.7047
1490.46	51.5904
1492.02	49.4928
1493.58	48.0032
1495.14	46.4624
1496.7	45.5925
1498.26	43.9242
1499.82	43.8099
1501.38	40.6867
1502.94	41.1261
1504.5	40.5789
1506.06	40.5803
1507.62	40.5584
1509.18	39.2979
1510.73	38.087
1512.29	37.8369
1513.85	37.5396
1515.41	37.511
1516.96	38.6934
1518.52	39.6654
1520.08	40.3548
1521.63	40.2283
1523.19	40.9093
1524.75	41.0448
1526.3	41.7697
1527.85	42.5638
1529.41	43.4469
1530.96	44.2719
1532.52	45.2144
1534.07	45.1221
1535.62	45.098
1537.18	46.5043
1538.73	46.4252
1540.28	46.7506
1541.84	47.5973
1543.39	48.394
1544.94	49.0341
1546.49	50.6369
1548.04	51.0299
1549.59	51.3543
1551.14	52.5565
1552.69	53.4283
1554.25	54.6468
1555.79	55.2991
1557.34	56.4454
1558.89	58.1737
1560.44	58.9362
1561.99	59.7377
1563.54	60.5458
1565.08	61.0026
1566.63	63.6418
1568.18	64.7318
1569.73	66.2758
1571.27	67.8083
1572.82	68.7076
1574.37	69.06
1575.91	68.4666
1577.46	69.1301
1579	69.4376
1580.55	71.9709
1582.09	71.9501
1583.64	72.7002
1585.18	72.8707
1586.73	72.7606
1588.27	72.8736
1589.81	74.5361
1591.35	74.2456
1592.9	74.4354
1594.44	74.7091
1595.98	74.5517
1597.52	74.409
1599.06	74.2404
1600.61	74.7149
1602.15	74.7185
1603.69	75.0362
1605.23	73.9636
1606.77	72.84
1608.31	72.7269
1609.85	71.8175
1611.39	70.581
1612.93	70.2936
1614.46	70.9761
1616	70.2003
1617.54	71.0295
1619.08	70.9799
1620.61	71.5047
1622.15	71.7011
1623.69	70.5175
1625.23	69.4003
1626.76	69.8994
1628.3	70.6021
1629.83	71.5359
1631.37	71.991
1632.9	72.9397
1634.44	73.7571
1635.97	73.1564
1637.51	73.527
1639.04	74.0227
1640.57	75.473
1642.11	76.8966
1643.64	77.7759
1645.17	78.3034
1646.71	78.364
1648.24	79.4594
1649.77	80.1408
1651.3	79.9909
1652.83	80.3676
1654.36	81.6481
1655.89	81.9033
1657.42	81.401
1658.96	80.6064
1660.48	79.9683
1662.01	78.7038
1663.54	77.5405
1665.07	76.7908
1666.6	75.8945
1668.13	74.5691
1669.66	73.872
1671.19	72.1307
1672.71	70.373
1674.24	67.6209
1675.77	66.1055
1677.29	64.0932
1678.82	61.3625
1680.35	59.3762
1681.87	57.2609
1683.4	55.9414
1684.92	53.8766
1686.45	50.8245
1687.97	48.8719
1689.5	46.7073
1691.02	45.0948
1692.54	42.7621
1694.07	40.4809
1695.59	37.7452
1697.11	36.2983
1698.64	34.1434
1700.16	32.269
1701.68	31.0706
1703.2	31.2059
1704.72	29.0433
1706.25	26.8487
1707.77	24.8958
1709.29	22.7519
1710.81	20.8241
1712.33	19.3601
1713.85	19.1549
1715.37	19.125
1716.89	18.7749
1718.41	18.2227
1719.92	17.4163
1721.44	17.6107
1722.96	16.7897
1724.48	16.9765
1725.99	16.0155
1727.51	14.9515
1729.03	14.8676
1730.55	14.0141
1732.06	12.7042
1733.58	12.3623
1735.09	12.0446
1736.61	11.2639
1738.13	11.3645
1739.64	11.5947
1741.15	10.7989
1742.67	10.0272
1744.18	9.97792
1745.7	9.28494
1747.21	8.55692
1748.72	8.21424
1750.24	8.31713
1751.75	8.45454
1753.26	7.5235
1754.77	7.18191
1756.29	7.47718
1757.8	6.14381
1759.31	5.20408
1760.82	4.47855
1762.33	4.65186
1763.84	5.19436
1765.35	4.82234
1766.86	4.51458
1768.37	4.28618
1769.88	4.70204
1771.39	4.83851
1772.9	4.91225
1774.4	5.08057
1775.91	5.24836
1777.42	4.96594
1778.93	5.68285
1780.44	4.47194
1781.94	4.12009
1783.45	4.50982
1784.96	4.79188
1786.46	5.24358
1787.97	5.93472
1789.47	6.39143
1790.98	7.05396
1792.48	6.68387
1793.99	6.73503
1795.49	6.85454
1797	6.8968
1798.5	6.49645
1800.01	7.29432
1801.51	7.9591
1803.01	8.05693
1804.51	7.81987
1806.02	7.56881
1807.52	7.5873
1809.02	8.53804
1810.52	8.55493
1812.02	8.91055
1813.52	9.00352
1815.02	8.12447
1816.53	7.77041
1818.03	8.29953
1819.52	8.42908
1821.02	7.74992
1822.52	6.37577
1824.02	5.44934
1825.52	4.73331
1827.02	4.00746
1828.52	3.69366
1830.02	3.84062
1831.51	3.75635
1833.01	3.21982
1834.51	2.94833
1836.01	3.2013
1837.5	3.08393
1839	2.86253
1840.49	2.4213
1841.99	2.27908
1843.49	2.39945
1844.98	1.55382
1846.48	0.800784
1847.97	1.11367
1849.47	1.56011
1850.96	1.55744
1852.45	1.29862
1853.95	1.27433
1855.44	0.535607
1856.93	0.558213
1858.42	0.24676
1859.92	0.275281
1861.41	0.0300571
1862.9	0.347608
1864.39	0.588723
1865.88	0.952649
1867.38	1.37475
1868.87	1.98946
1870.36	3.00338
1871.85	3.19315
1873.34	2.77264
1874.83	3.47201
1876.32	3.40738
1877.81	2.7824
1879.29	2.90167
1880.78	3.67746
1882.27	4.50296
1882.53	4.97619
1884.03	4.82227
1885.52	4.77667
1887.01	4.71698
1888.51	4.81243
1890	5.44188
1891.5	4.92748
1892.99	4.78707
1894.48	4.26174
1895.97	4.06403
1897.47	4.58874
1898.96	4.97794
1900.45	5.20974
1901.94	4.84253
1903.43	5.36731
1904.92	5.61314
1906.41	5.35737
1907.9	5.93693
1909.39	6.25021
1910.88	6.34305
1912.37	6.25169
1913.86	6.2796
1915.35	5.73928
1916.84	6.48856
1918.33	6.32702
1919.81	6.64112
1921.3	7.38331
1922.79	7.99934
1924.28	7.35777
1925.76	6.94372
1927.25	6.52106
1928.73	6.34901
1930.22	6.17046
1931.71	7.03138
1933.19	7.19961
1934.68	7.03965
1936.16	7.82557
1937.65	7.88209
1939.13	7.70438
1940.62	7.71278
1942.1	7.34899
1943.58	7.30102
1945.07	6.3237
1946.55	5.9617
1948.03	7.09288
1949.51	7.53415
1951	7.22643
1952.48	7.31285
1953.96	6.80277
1955.44	7.28576
1956.92	6.77183
1958.4	5.6539
1959.88	5.77685
1961.36	5.91096
1962.84	5.25093
1964.32	4.48192
1965.8	4.1511
1967.28	3.83211
1968.76	3.04282
1970.24	2.62449
1971.72	2.77825
1973.2	3.01317
1974.67	2.81495
1976.15	3.06951
1977.63	3.74588
1979.1	3.81276
1980.58	3.26705
1982.06	3.88249
1983.54	3.08009
1985.01	3.35632
1986.49	2.89454
1987.96	3.39399
1989.44	3.45683
1990.91	3.65619
1992.39	3.09982
1993.86	3.52302
1995.33	3.4998
1996.81	3.64053
1998.28	2.27629
1999.75	3.01216
2001.23	3.17921
2002.7	3.2023
2004.17	3.35247
2005.65	3.98639
2007.12	3.07534
2008.59	3.25281
2010.06	3.52935
2011.53	3.2128
2013	3.50166
2014.47	4.16127
2015.94	4.11549
2017.41	4.4972
2018.88	4.25973
2020.35	5.30443
2021.82	5.37443
2023.29	4.5536
2024.76	4.56563
2026.23	3.90116
2027.69	3.26047
2029.16	3.77742
2030.63	3.02769
2032.1	2.75711
2033.56	2.93295
2035.03	3.05949
2036.5	2.457
2037.96	3.18254
2039.43	3.09465
2040.89	3.12137
2042.36	3.62849
2043.83	3.75472
2045.29	4.35799
2046.75	4.88478
2048.22	5.45144
2049.68	5.55789
2051.15	5.14197
2052.61	5.46735
2054.07	5.5633
2055.54	6.15557
2057	6.15171
2058.46	7.23322
2059.92	6.68095
2061.39	7.30516
2062.85	7.38831
2064.31	7.13843
2065.77	8.08793
2067.23	8.37823
2068.69	8.98637
2070.15	9.28448
2071.61	8.88999
2073.07	9.22717
2074.53	8.77398
2075.99	9.13443
2077.45	9.70863
2078.91	9.34126
2080.37	9.99417
2081.82	9.9916
2083.28	9.90301
2084.74	10.1297
2086.2	10.2377
2087.65	9.9345
2089.11	9.84017
2090.57	9.4528
2092.02	9.21596
2093.48	9.20652
2094.94	8.69044
2096.39	8.07342
2097.85	7.81106
2099.3	6.14787
2100.76	5.69497
2102.21	5.36039
2103.66	5.00071
2105.12	5.10773
2106.57	4.79422
2108.03	4.82731
2109.48	4.00947
2110.93	4.03586
2112.38	2.88744
2113.84	2.77978
2115.29	2.44976
2116.74	2.34925
2118.19	3.03422
2119.64	2.9334
2121.09	2.66909
2122.54	1.98689
2123.99	2.30793
2125.45	2.77771
2126.89	3.29151
2128.34	4.05508
2129.79	4.38076
