#Acq. time (s)=	45
#Accumulations=	2
#Range (cm-¹)=	200...3150
#Windows=	2
#Auto scanning=	Off
#Autofocus=	Off
#Macrospot=	Off
#AutoExposure=	Off
#Spike filter=	Multiple accum.
#Delay time (s)=	0
#Binning=	1
#Readout mode=	Signal
#DeNoise=	Off
#ICS correction=	On
#Dark correction=	Off
#Inst. Process=	Off
#Detector Gain=	Best Dynamic Range
#Detector ADC=	20 kHz       
#Detector temperature (°C)=	-69.85
#Instrument=	LabRAM HR Evol
#Detector=	Synapse
#Objective=	x100
#Grating=	600 gr/mm
#ND Filter=	100%
#Laser (nm)=	532 
#Hole=	100.021
#Range=	Auto
#Laser Pol.=	No
#Raman. Pol.=	No
#Laser Pol. (°)=	-0.0007625
#Raman Pol. (°)=	89.9995
#Collection=	Microscope
#StageXY=	Marzhauser
#StageZ=	Marzhauser
#X (µm)=	-1026.3
#Y (µm)=	-2896
#Z (µm)=	528.75
#Full time(mm:ss)=	3:18
#Project=	
#Sample=	
#Site=	
#Title=	Mb_00_13_35_2x_45s_532 nm_x100_100%_600 gr_mm
#Remark=	
#Date=	06.07.2022 12:33
#Acquired=	06.07.2022 12:33:38
#Base:Fit=	10.08.2022 10:16:56
#Base:Sub=	10.08.2022 10:17:24
#Filter:Polynom=	16.08.2022 10:36:38
#AxisType[0]=Intens
#AxisUnit[0]=Cnt
#AxisType[1]=Spectr
#AxisUnit[1]=1/cm
200.398	17.8525
202.213	12.8564
204.027	8.91959
205.843	5.52768
207.657	3.66874
209.47	2.18578
211.283	1.41356
213.097	1.08741
214.909	1.46806
216.721	2.07817
218.533	4.95803
220.344	7.26225
222.157	11.3409
223.967	13.1551
225.777	17.7023
227.587	23.1823
229.396	28.7765
231.205	33.4533
233.016	36.9581
234.824	41.519
236.632	45.0718
238.439	47.7886
240.247	50.814
242.053	53.0941
243.86	55.5911
245.666	57.4751
247.474	60.3411
249.279	62.3099
251.085	64.4333
252.889	66.2285
254.694	67.2764
256.498	69.2139
258.301	71.1323
260.105	72.3199
261.908	72.0914
263.71	71.8996
265.513	71.1427
267.315	69.2861
269.116	68.1488
270.918	66.3571
272.718	63.9112
274.519	62.0936
276.319	58.1697
278.119	53.6359
279.918	51.8513
281.718	49.4312
283.516	45.5146
285.315	42.6587
287.113	39.9594
288.911	37.6111
290.708	35.3187
292.505	33.2176
294.302	30.7303
296.098	28.2953
297.894	25.5489
299.69	23.3323
301.485	22.2966
303.278	20.6845
305.073	19.3785
306.867	18.7403
308.661	19.2318
310.454	18.6337
312.247	18.6881
314.04	17.3148
315.833	17.7829
317.623	18.4213
319.415	17.5187
321.206	16.2915
322.997	14.7337
324.788	13.9932
326.579	12.4203
328.367	11.5557
330.156	12.0773
331.946	12.0733
333.735	12.2673
335.523	11.426
337.31	10.7926
339.098	9.23513
340.885	8.12474
342.673	7.31735
344.458	7.34179
346.244	7.30596
348.03	6.66126
349.816	6.37517
351.6	5.85455
353.385	4.55782
355.17	4.15471
356.953	3.50866
358.737	3.80949
360.521	3.71425
362.304	3.79824
364.085	4.6885
365.868	4.94998
367.65	6.09659
369.431	10.0114
371.212	10.4724
372.994	11.3628
374.773	13.9402
376.554	17.2748
378.332	18.96
380.112	21.2585
381.892	25.4224
383.669	28.9069
385.448	32.3445
387.225	36.463
389.003	40.7929
390.781	45.1451
392.557	49.3909
394.334	52.8025
396.109	56.8702
397.885	59.1971
399.66	60.6701
401.436	62.0019
403.211	63.7815
404.984	66.2541
406.759	68.0302
408.532	68.6581
410.306	69.184
412.078	69.8631
413.851	70.387
415.623	71.3299
417.395	71.8725
419.166	71.7106
420.938	69.5193
422.708	67.0044
424.477	64.3793
426.248	62.2573
428.017	59.4693
429.788	56.4766
431.556	54.1211
433.326	50.6011
435.093	48.1986
436.86	44.7194
438.629	41.7467
440.395	37.9367
442.163	33.6838
443.929	30.5928
445.694	26.917
447.461	22.806
449.226	19.46
450.99	16.3164
452.756	12.9547
454.52	10.905
456.285	9.0566
458.048	7.99802
459.811	5.8735
461.573	6.12503
463.337	5.39383
465.099	5.20119
466.86	4.66071
468.623	6.17332
470.384	7.91551
472.144	8.49226
473.906	8.8921
475.666	10.0714
477.425	10.9919
479.184	12.1023
480.944	12.9299
482.703	13.0019
484.461	14.0123
486.218	14.4085
487.975	16.5245
489.734	17.8987
491.491	18.3899
493.247	19.1434
495.003	19.504
496.759	20.5477
498.516	22.0256
500.271	23.1593
502.025	23.7064
503.779	24.2676
505.533	24.9867
507.287	25.0409
509.042	25.949
510.795	27.3717
512.547	28.3416
514.299	29.2384
516.051	29.4419
517.803	29.3454
519.554	29.6772
521.305	30.6322
523.055	31.9435
524.805	31.2588
526.555	30.7264
528.307	30.3714
530.056	30.302
531.805	30.0953
533.553	30.2779
535.301	30.3604
537.049	29.9659
538.797	29.3767
540.544	29.8647
542.291	29.3745
544.037	29.1686
545.783	28.682
547.529	28.0781
549.275	26.1403
551.02	24.687
552.765	25.0173
554.509	24.5447
556.253	23.9774
557.997	23.2489
559.738	21.9014
561.482	21.2079
563.224	19.997
564.967	19.6706
566.709	18.8786
568.451	18.1865
570.192	17.1036
571.933	16.3654
573.674	15.4175
575.415	14.6095
577.153	12.9003
578.893	12.1005
580.632	12.1447
582.371	11.3343
584.11	11.0331
585.849	11.4676
587.587	10.5674
589.323	10.7502
591.06	11.1987
592.797	11.885
594.534	11.3082
596.271	10.4307
598.005	8.76227
599.741	8.75933
601.476	8.25588
603.211	8.19352
604.944	7.49946
606.679	6.9079
608.413	6.63736
610.147	5.44211
611.878	4.77266
613.611	4.70084
615.344	4.87975
617.077	4.53795
618.807	4.88219
620.539	4.71804
622.27	4.7698
623.999	4.46305
625.73	5.01948
627.461	4.63984
629.189	4.19251
630.919	5.36064
632.648	6.97526
634.376	6.82416
636.105	7.53243
637.833	10.0641
639.559	11.3585
641.287	11.7917
643.013	12.2975
644.74	13.2709
646.467	14.9765
648.192	15.3088
649.918	15.7511
651.642	16.3074
653.368	17.0799
655.091	17.5059
656.816	16.5875
658.538	18.2076
660.263	19.0984
661.987	19.1366
663.708	19.911
665.432	19.6552
667.153	20.8326
668.875	20.1239
670.596	21.1823
672.318	22.0196
674.037	21.7227
675.759	22.47
677.478	22.4004
679.196	21.1204
680.917	21.0544
682.635	20.0317
684.355	19.5792
686.072	20.2904
687.791	19.3847
689.508	18.7808
691.224	17.0602
692.942	15.9305
694.658	15.356
696.376	15.1184
698.091	15.2544
699.805	15.7879
701.522	16.6331
703.236	16.8731
704.95	16.7645
706.665	17.528
708.379	18.5843
710.093	18.8953
711.806	18.9314
713.518	19.9216
715.23	21.5595
716.943	23.1683
718.655	23.6013
720.366	23.6877
722.078	25.3189
723.788	27.0593
725.498	26.4578
727.208	26.616
728.919	26.8711
730.628	27.0201
732.337	27.4018
734.045	25.6082
735.755	25.603
737.463	25.7163
739.17	28.2832
740.877	28.9829
742.584	30.32
744.292	32.2311
745.998	32.3876
747.704	31.8188
749.409	33.5612
751.114	34.7396
752.819	36.1883
754.526	36.1619
756.23	38.6155
757.934	39.7006
759.637	40.8121
761.34	43.0419
763.043	44.3604
764.746	45.1433
766.448	47.2977
768.152	47.6862
769.853	48.4395
771.554	50.2014
773.255	50.7663
774.956	52.2027
776.656	53.8122
778.356	56.241
780.056	57.0929
781.755	58.1705
783.454	59.369
785.153	60.4457
786.851	61.2235
788.549	61.6068
790.247	63.0186
791.944	64.948
793.641	65.4481
795.338	66.4792
797.034	67.3316
798.73	68.9852
800.426	69.6736
802.121	69.5011
803.817	69.0559
805.511	69.3411
807.206	68.8121
808.9	67.8674
810.592	66.7248
812.286	66.053
813.979	65.419
815.672	64.8543
817.364	64.0157
819.057	62.8733
820.748	63.1082
822.44	63.3526
824.129	62.1925
825.82	60.0795
827.511	59.3916
829.201	57.6579
830.891	55.6618
832.581	54.9388
834.269	55.6095
835.958	54.2394
837.646	53.0245
839.335	51.8181
841.023	51.4125
842.709	50.1943
844.396	49.7991
846.084	49.9466
847.77	48.1364
849.455	45.651
851.141	43.8221
852.827	41.5674
854.513	40.3102
856.196	39.9414
857.881	38.5079
859.566	38.3384
861.248	36.8115
862.932	36.2654
864.616	33.6842
866.297	32.944
867.98	32.3036
869.663	32.043
871.343	31.6164
873.026	31.0058
874.707	30.5446
876.387	29.7225
878.068	29.7084
879.747	28.7491
881.428	27.629
883.108	26.9432
884.786	26.0886
886.465	24.7287
888.143	24.2092
889.822	22.8492
891.498	22.6233
893.177	21.8693
894.855	21.3312
896.53	20.7068
898.208	19.8836
899.883	18.6176
901.56	17.0335
903.234	18.6815
904.91	18.9865
906.584	19.2899
908.26	18.8019
909.933	19.7599
911.608	20.1112
913.28	19.1125
914.955	18.9198
916.627	19.7958
918.298	20.7426
919.972	20.5759
921.643	20.8668
923.315	20.175
924.986	20.9504
926.656	20.925
928.328	20.7134
929.997	21.1128
931.668	19.4424
933.337	20.113
935.006	20.469
936.676	21.5059
938.344	22.1784
940.012	22.0709
941.681	21.5359
943.348	22.6154
945.014	22.094
946.683	22.2778
948.349	21.1724
950.015	21.4374
951.682	20.1183
953.347	19.2123
955.012	18.5258
956.676	17.5186
958.343	16.7509
960.006	16.5731
961.67	17.4015
963.333	16.9716
964.998	18.3178
966.661	19.3844
968.323	19.7808
969.985	19.0392
971.649	19.0106
973.31	19.8172
974.971	20.6234
976.632	20.3523
978.293	20.8429
979.953	21.8249
981.615	21.8102
983.274	23.1312
984.933	24.888
986.592	25.9298
988.251	25.579
989.909	25.8238
991.567	25.182
993.225	25.8906
994.884	26.7705
996.541	26.7487
998.198	27.3173
999.855	27.8677
1001.51	28.9183
1003.17	27.0349
1004.82	25.9449
1006.48	25.9019
1008.13	26.1355
1009.79	26.1433
1011.44	25.847
1013.1	25.8887
1014.75	25.6068
1016.4	27.7483
1018.06	28.8595
1019.71	30.9646
1021.36	32.5398
1023.01	35.2254
1024.66	38.743
1026.32	41.541
1027.97	43.5697
1029.62	46.8568
1031.27	49.3357
1032.92	51.2038
1034.57	52.4415
1036.22	52.9481
1037.87	54.1101
1039.52	55.4407
1041.16	58.2587
1042.81	59.5282
1044.46	60.1688
1046.11	61.1777
1047.76	62.055
1049.4	62.2637
1051.05	61.1764
1052.7	61.2141
1054.34	61.6453
1055.99	61.6598
1057.63	59.7926
1059.28	58.6292
1060.92	56.7944
1062.57	54.9813
1064.21	53.8436
1065.85	51.7405
1067.5	48.7617
1069.14	45.628
1070.78	44.5071
1072.43	41.2068
1074.07	37.468
1075.71	35.231
1077.35	31.2775
1078.99	26.8274
1080.63	23.0934
1082.27	18.9979
1083.91	15.9368
1085.55	11.3054
1087.19	7.65432
1088.83	6.31121
1090.47	4.19126
1092.11	2.92763
1093.75	1.55487
1095.39	1.45148
1097.03	2.57882
1098.66	3.96394
1100.3	4.01809
1101.94	4.39004
1103.57	4.20418
1105.21	5.08372
1106.84	5.25223
1108.48	4.95645
1110.11	4.89273
1111.75	4.29553
1113.38	3.73608
1115.02	3.09244
1116.65	3.17506
1118.29	1.35284
1119.92	2.89293
1121.55	4.38586
1123.19	4.59117
1124.82	4.44631
1126.45	4.89989
1128.08	5.70704
1129.71	5.83823
1131.34	6.83323
1132.97	6.62871
1134.6	7.87001
1136.23	7.82122
1137.86	7.72423
1139.49	8.12178
1141.12	8.76207
1142.75	8.28258
1144.38	8.56023
1146.01	8.83778
1147.64	7.88464
1149.26	7.18409
1150.89	8.03446
1152.52	7.90457
1154.15	6.938
1155.77	7.09205
1157.4	6.61193
1159.02	5.80502
1160.65	5.89369
1162.27	6.91337
1163.9	7.50123
1165.52	6.19425
1167.15	5.50875
1168.77	5.99589
1170.39	7.08166
1172.02	6.82348
1173.64	6.74018
1175.26	7.22903
1176.89	5.51901
1178.51	5.31647
1180.13	4.65827
1181.75	3.69712
1183.37	2.61164
1184.99	1.35846
1186.61	2.21745
1188.23	3.17794
1189.85	3.25944
1191.47	2.46985
1193.09	3.1934
1194.71	3.8259
1196.33	3.95019
1197.94	5.10459
1199.56	4.77326
1201.18	6.64661
1202.8	7.87059
1204.41	8.61715
1206.03	10.9476
1207.65	11.5337
1209.26	13.1314
1210.88	16.0092
1212.49	17.2003
1214.11	18.7037
1215.72	21.3199
1217.34	24.0856
1218.95	26.5682
1220.57	27.6656
1222.18	28.2785
1223.79	29.8652
1225.41	31.0023
1227.02	32.8567
1228.63	33.9559
1230.24	35.2464
1231.85	37.1888
1233.47	38.2338
1235.08	39.0826
1236.69	40.1253
1238.3	40.3944
1239.91	42.4568
1241.52	43.0997
1243.13	44.176
1244.74	43.6522
1246.34	42.9242
1247.95	43.7089
1249.56	43.3638
1251.17	42.539
1252.78	42.4596
1254.38	41.3506
1255.99	42.2554
1257.6	40.7632
1259.2	40.9749
1260.81	39.9561
1262.42	39.08
1264.02	37.9202
1265.63	38.9356
1267.23	39.3188
1268.84	38.0358
1270.44	37.3912
1272.04	37.5767
1273.65	38.8424
1275.25	39.5583
1276.85	40.0922
1278.46	41.4042
1280.06	41.4454
1281.66	42.8605
1283.26	44.9097
1284.86	46.8916
1286.46	49.3929
1288.07	50.2904
1289.67	52.6407
1291.27	54.7374
1292.87	56.5312
1294.47	58.5549
1296.06	59.9434
1297.66	60.6161
1299.26	61.1671
1300.86	61.2694
1302.46	62.1278
1304.06	64.0279
1305.65	64.9374
1307.25	66.1405
1308.85	66.8514
1310.44	67.8637
1312.04	68.6176
1313.64	70.6999
1315.23	72.5835
1316.83	72.4053
1318.42	72.94
1320.02	72.2054
1321.61	71.3455
1323.2	71.2442
1324.8	71.1436
1326.39	70.7904
1327.99	69.8991
1329.58	69.8911
1331.17	69.8804
1332.76	69.6231
1334.36	68.5894
1335.95	69.3
1337.54	67.5066
1339.13	66.8679
1340.72	66.0876
1342.31	65.5971
1343.9	65.1073
1345.49	65.4889
1347.08	64.1201
1348.67	63.9705
1350.26	65.0704
1351.85	64.5799
1353.43	64.4769
1355.02	63.6664
1356.61	63.3606
1358.2	63.2324
1359.78	63.0481
1361.37	63.7521
1362.96	63.4634
1364.54	63.5173
1366.13	62.9583
1367.71	61.3731
1369.3	60.5476
1370.88	59.9286
1372.47	59.1542
1374.05	57.6094
1375.64	56.5553
1377.22	55.9102
1378.8	55.9434
1380.39	55.3351
1381.97	55.7455
1383.55	55.7525
1385.13	53.879
1386.72	52.6969
1388.3	51.2905
1389.88	50.8496
1391.46	50.4068
1393.04	49.9841
1394.62	47.6737
1396.2	44.2041
1397.78	43.7745
1399.36	43.3687
1400.94	44.3141
1402.52	45.094
1404.1	46.0148
1405.68	46.1309
1407.25	47.2874
1408.83	49.106
1410.41	50.4286
1411.98	51.6596
1413.56	53.7201
1415.14	56.9902
1416.71	58.3593
1418.29	59.882
1419.87	62.9721
1421.44	65.7217
1423.02	68.9521
1424.59	72.6408
1426.16	75.9462
1427.74	79.615
1429.31	81.6973
1430.89	84.0899
1432.46	87.8849
1434.03	91.4454
1435.6	94.0252
1437.18	95.6662
1438.75	98.0121
1440.32	100.292
1441.89	101.523
1443.46	103.29
1445.03	103.753
1446.6	104.393
1448.17	104.552
1449.74	103.776
1451.31	102.788
1452.88	100.768
1454.45	99.3442
1456.02	99.0373
1457.59	97.941
1459.16	95.6411
1460.72	93.0098
1462.29	89.9125
1463.86	87.1715
1465.43	84.8996
1466.99	81.3964
1468.56	78.8832
1470.13	76.5277
1471.69	73.3275
1473.26	70.741
1474.82	67.6997
1476.38	65.8488
1477.95	63.7839
1479.51	60.9162
1481.08	58.5193
1482.64	56.737
1484.2	54.633
1485.77	51.738
1487.33	49.8691
1488.89	47.4755
1490.46	45.2351
1492.02	43.5428
1493.58	41.678
1495.14	39.1141
1496.7	38.7925
1498.26	38.2355
1499.82	36.9666
1501.38	36.5972
1502.94	35.9564
1504.5	35.0099
1506.06	34.4211
1507.62	33.789
1509.18	35.141
1510.73	36.0041
1512.29	36.5585
1513.85	36.3261
1515.41	36.5362
1516.96	36.6954
1518.52	37.6889
1520.08	36.8556
1521.63	36.881
1523.19	36.5254
1524.75	35.7546
1526.3	35.8304
1527.85	35.7799
1529.41	36.5222
1530.96	36.7317
1532.52	38.2574
1534.07	40.5523
1535.62	40.9481
1537.18	41.6388
1538.73	43.3578
1540.28	43.7575
1541.84	44.7899
1543.39	45.698
1544.94	45.4817
1546.49	47.0088
1548.04	47.6286
1549.59	46.8812
1551.14	48.5592
1552.69	48.1483
1554.25	48.7383
1555.79	48.5264
1557.34	49.0897
1558.89	49.7781
1560.44	50.1125
1561.99	49.1904
1563.54	49.5775
1565.08	50.283
1566.63	50.1568
1568.18	50.224
1569.73	51.4374
1571.27	51.8599
1572.82	52.0867
1574.37	53.0427
1575.91	52.7547
1577.46	54.0106
1579	54.3545
1580.55	56.339
1582.09	57.0876
1583.64	58.3954
1585.18	59.6693
1586.73	61.1547
1588.27	61.9671
1589.81	63.7967
1591.35	64.2466
1592.9	64.1408
1594.44	64.7741
1595.98	65.2288
1597.52	63.0423
1599.06	62.7738
1600.61	62.9658
1602.15	62.8191
1603.69	62.8873
1605.23	62.4247
1606.77	62.6672
1608.31	62.9292
1609.85	64.7871
1611.39	65.2019
1612.93	64.3235
1614.46	63.7866
1616	63.3189
1617.54	62.2508
1619.08	62.1324
1620.61	60.9848
1622.15	59.546
1623.69	58.7341
1625.23	57.9135
1626.76	57.5142
1628.3	57.1811
1629.83	56.5561
1631.37	56.8906
1632.9	56.4624
1634.44	56.6233
1635.97	56.8404
1637.51	56.7827
1639.04	56.8669
1640.57	56.5483
1642.11	55.6376
1643.64	56.0231
1645.17	56.4121
1646.71	56.616
1648.24	54.959
1649.77	55.6724
1651.3	56.1125
1652.83	56.5007
1654.36	57.3045
1655.89	57.5641
1657.42	57.9838
1658.96	57.2151
1660.48	56.771
1662.01	56.517
1663.54	55.5796
1665.07	55.0308
1666.6	54.0457
1668.13	52.0709
1669.66	50.4769
1671.19	48.4472
1672.71	46.491
1674.24	43.7568
1675.77	43.5931
1677.29	42.1845
1678.82	40.9616
1680.35	39.3185
1681.87	38.8106
1683.4	37.4635
1684.92	36.4395
1686.45	34.9878
1687.97	32.2288
1689.5	30.0435
1691.02	27.9862
1692.54	26.0345
1694.07	24.2146
1695.59	22.7498
1697.11	20.8725
1698.64	18.8986
1700.16	17.3139
1701.68	16.8663
1703.2	15.3553
1704.72	13.4887
1706.25	12.4497
1707.77	10.7695
1709.29	8.73629
1710.81	8.27835
1712.33	6.71334
1713.85	5.91112
1715.37	4.57282
1716.89	3.60148
1718.41	4.27969
1719.92	4.46295
1721.44	4.35863
1722.96	4.25017
1724.48	4.6222
1725.99	5.71964
1727.51	5.45505
1729.03	5.93513
1730.55	5.82379
1732.06	5.1421
1733.58	5.40292
1735.09	5.15529
1736.61	5.00972
1738.13	4.93831
1739.64	5.09212
1741.15	5.33766
1742.67	5.5587
1744.18	5.77534
1745.7	5.45654
1747.21	5.26238
1748.72	5.77291
1750.24	5.82801
1751.75	6.5457
1753.26	6.8812
1754.77	7.83484
1756.29	7.4688
1757.8	8.11305
1759.31	7.72723
1760.82	8.45002
1762.33	8.41403
1763.84	8.84599
1765.35	8.69487
1766.86	9.10304
1768.37	8.97638
1769.88	8.83331
1771.39	9.01835
1772.9	7.86958
1774.4	7.13276
1775.91	7.16523
1777.42	7.07779
1778.93	6.16954
1780.44	5.74223
1781.94	6.69374
1783.45	6.59127
1784.96	6.26606
1786.46	6.83282
1787.97	6.41377
1789.47	7.2926
1790.98	6.85203
1792.48	7.2769
1793.99	7.21729
1795.49	6.98214
1797	7.42509
1798.5	7.82281
1800.01	7.48745
1801.51	6.83476
1803.01	6.67195
1804.51	7.07087
1806.02	6.27111
1807.52	6.63751
1809.02	7.28316
1810.52	6.9573
1812.02	7.09979
1813.52	7.03551
1815.02	7.42112
1816.53	7.52404
1818.03	8.08099
1819.52	7.87407
1821.02	8.35551
1822.52	8.98791
1824.02	8.49179
1825.52	8.09653
1827.02	7.15784
1828.52	6.92763
1830.02	6.75314
1831.51	6.6854
1833.01	6.718
1834.51	6.58239
1836.01	6.59913
1837.5	6.3944
1839	6.36005
1840.49	5.98026
1841.99	6.48051
1843.49	6.24602
1844.98	5.99934
1846.48	6.36022
1847.97	6.21832
1849.47	6.33658
1850.96	6.15667
1852.45	5.8522
1853.95	5.5286
1855.44	5.98106
1856.93	5.93417
1858.42	4.98977
1859.92	4.88309
1861.41	4.90292
1862.9	3.82146
1864.39	3.44267
1865.88	3.55748
1867.38	3.93767
1868.87	4.4058
1870.36	5.05243
1871.85	5.16967
1873.34	4.72677
1874.83	4.31131
1876.32	4.49595
1877.81	5.29392
1879.29	5.64314
1880.78	5.82466
1882.27	6.68343
1882.53	6.42482
1884.03	6.73149
1885.52	7.27801
1887.01	7.5286
1888.51	7.87854
1890	8.30859
1891.5	8.66078
1892.99	8.62736
1894.48	8.64685
1895.97	9.18911
1897.47	8.83498
1898.96	8.92306
1900.45	9.26864
1901.94	10.8637
1903.43	10.6125
1904.92	10.084
1906.41	9.11127
1907.9	8.03642
1909.39	8.28046
1910.88	8.82189
1912.37	9.04662
1913.86	8.97934
1915.35	8.95293
1916.84	8.68288
1918.33	7.62594
1919.81	7.2922
1921.3	6.86574
1922.79	7.03973
1924.28	7.09396
1925.76	7.0473
1927.25	7.05514
1928.73	6.95366
1930.22	6.86268
1931.71	7.23108
1933.19	7.74304
1934.68	8.30997
1936.16	8.36837
1937.65	9.8651
1939.13	9.81431
1940.62	9.12756
1942.1	9.37742
1943.58	8.58167
1945.07	8.5265
1946.55	8.5844
1948.03	8.85889
1949.51	9.1287
1951	9.38349
1952.48	8.59225
1953.96	8.35266
1955.44	8.08714
1956.92	7.83301
1958.4	7.9433
1959.88	7.89305
1961.36	7.20481
1962.84	7.70059
1964.32	7.88678
1965.8	8.47066
1967.28	8.81496
1968.76	9.09135
1970.24	9.2598
1971.72	9.15866
1973.2	8.81734
1974.67	8.49356
1976.15	8.5137
1977.63	6.96602
1979.1	7.0649
1980.58	6.7018
1982.06	7.22255
1983.54	7.66688
1985.01	7.03268
1986.49	6.80051
1987.96	6.49615
1989.44	7.03033
1990.91	6.91007
1992.39	6.74742
1993.86	7.62989
1995.33	8.34808
1996.81	8.92256
1998.28	9.20905
1999.75	9.08185
2001.23	8.74285
2002.7	8.64884
2004.17	9.1893
2005.65	9.51499
2007.12	9.41184
2008.59	9.01021
2010.06	9.94244
2011.53	9.68469
2013	8.49553
2014.47	8.38504
2015.94	8.79073
2017.41	7.94595
2018.88	8.82285
2020.35	8.46843
2021.82	7.88266
2023.29	7.85862
2024.76	7.45055
2026.23	7.00927
2027.69	7.49118
2029.16	7.85621
2030.63	8.29868
2032.1	7.71753
2033.56	8.20696
2035.03	8.58899
2036.5	9.01835
2037.96	9.10027
2039.43	8.97343
2040.89	9.18937
2042.36	8.57125
2043.83	8.54259
2045.29	8.72643
2046.75	8.3582
2048.22	8.89692
2049.68	8.84198
2051.15	8.30276
2052.61	8.33181
2054.07	7.80868
2055.54	7.25236
2057	7.28628
2058.46	7.97203
2059.92	8.7013
2061.39	8.58217
2062.85	8.73878
2064.31	8.60939
2065.77	8.71564
2067.23	8.54928
2068.69	8.32104
2070.15	7.74816
2071.61	7.67062
2073.07	7.52704
2074.53	7.3469
2075.99	8.41431
2077.45	8.96816
2078.91	9.7303
2080.37	9.01968
2081.82	9.09515
2083.28	9.13603
2084.74	8.24422
2086.2	8.58779
2087.65	8.73317
2089.11	9.4833
2090.57	9.4088
2092.02	9.73742
2093.48	9.37306
2094.94	8.65784
2096.39	9.37131
2097.85	9.49293
2099.3	9.35883
2100.76	9.30127
2102.21	8.74399
2103.66	7.6252
2105.12	6.59503
2106.57	7.40793
2108.03	7.33191
2109.48	6.62772
2110.93	6.50273
2112.38	5.79129
2113.84	6.32515
2115.29	5.38791
2116.74	5.52556
2118.19	5.92414
2119.64	5.5661
2121.09	5.40415
2122.54	5.07913
2123.99	5.17236
2125.45	4.56292
2126.89	4.85284
2128.34	5.08872
2129.79	5.74371
2131.24	6.33073
2132.69	6.56221
2134.14	6.78633
2135.59	7.34704
