#Acq. time (s)=	45
#Accumulations=	2
#Range (cm-¹)=	200...3150
#Windows=	2
#Auto scanning=	Off
#Autofocus=	Off
#Macrospot=	Off
#AutoExposure=	Off
#Spike filter=	Multiple accum.
#Delay time (s)=	0
#Binning=	1
#Readout mode=	Signal
#DeNoise=	Off
#ICS correction=	On
#Dark correction=	Off
#Inst. Process=	Off
#Detector Gain=	Best Dynamic Range
#Detector ADC=	20 kHz       
#Detector temperature (°C)=	-69.85
#Instrument=	LabRAM HR Evol
#Detector=	Synapse
#Objective=	x100
#Grating=	600 gr/mm
#ND Filter=	100%
#Laser (nm)=	532 
#Hole=	100.021
#Range=	Auto
#Laser Pol.=	No
#Raman. Pol.=	No
#Laser Pol. (°)=	-0.0007625
#Raman Pol. (°)=	89.9995
#Collection=	Microscope
#StageXY=	Marzhauser
#StageZ=	Marzhauser
#X (µm)=	-1019.8
#Y (µm)=	-2895.7
#Z (µm)=	528.75
#Full time(mm:ss)=	3:18
#Project=	
#Sample=	
#Site=	
#Title=	Mb_00_13_37_2x_45s_532 nm_x100_100%_600 gr_mm
#Remark=	
#Date=	06.07.2022 12:43
#Acquired=	06.07.2022 12:43:36
#Base:Fit=	10.08.2022 10:16:56
#Base:Sub=	10.08.2022 10:17:24
#Filter:Polynom=	16.08.2022 10:36:38
#AxisType[0]=Intens
#AxisUnit[0]=Cnt
#AxisType[1]=Spectr
#AxisUnit[1]=1/cm
200.398	14.2835
202.213	9.02238
204.027	5.17124
205.843	1.53812
207.657	-2.68265
209.47	-6.41136
211.283	-8.59238
213.097	-8.70415
214.909	-6.67549
216.721	-5.02387
218.533	0.393903
220.344	7.35861
222.157	15.704
223.967	25.8956
225.777	36.0691
227.587	46.5773
229.396	58.5112
231.205	70.6094
233.016	82.9715
234.824	96.2581
236.632	107.74
238.439	117.242
240.247	126.226
242.053	135.528
243.86	143.324
245.666	150.631
247.474	161.056
249.279	168.813
251.085	176.051
252.889	184.398
254.694	191.201
256.498	197.478
258.301	203.037
260.105	205.606
261.908	207.73
263.71	208.597
265.513	208.356
267.315	208.209
269.116	206.781
270.918	204.782
272.718	201.729
274.519	198.697
276.319	193.302
278.119	187.767
279.918	179.633
281.718	170.028
283.516	160.47
285.315	150.27
287.113	141.11
288.911	131.802
290.708	121.867
292.505	112.475
294.302	103.692
296.098	96.0081
297.894	87.5583
299.69	80.8925
301.485	76.4726
303.278	71.567
305.073	66.2534
306.867	61.0865
308.661	58.7343
310.454	54.9436
312.247	52.6553
314.04	50.6875
315.833	48.5887
317.623	46.5678
319.415	45.584
321.206	44.81
322.997	42.774
324.788	42.372
326.579	40.1824
328.367	38.1825
330.156	37.5387
331.946	37.2564
333.735	36.5571
335.523	35.7487
337.31	34.4624
339.098	31.22
340.885	30.0716
342.673	28.8403
344.458	26.2724
346.244	23.8874
348.03	21.584
349.816	19.0582
351.6	16.6675
353.385	14.7832
355.17	11.2731
356.953	8.54048
358.737	7.26384
360.521	3.97356
362.304	2.33777
364.085	0.78994
365.868	-0.678476
367.65	-0.209824
369.431	-0.782724
371.212	1.22731
372.994	4.20253
374.773	7.78916
376.554	10.2221
378.332	13.2514
380.112	16.5945
381.892	22.7988
383.669	30.5157
385.448	37.4351
387.225	45.6557
389.003	56.8289
390.781	67.8516
392.557	76.963
394.334	86.7811
396.109	96.3496
397.885	105.803
399.66	113.683
401.436	121.564
403.211	128.254
404.984	133.832
406.759	138.126
408.532	144.048
410.306	148.65
412.078	150.989
413.851	154.64
415.623	155.878
417.395	155.632
419.166	156.451
420.938	155.125
422.708	153.038
424.477	149.488
426.248	144.976
428.017	139.507
429.788	134.305
431.556	127.308
433.326	120.531
435.093	113.306
436.86	105.471
438.629	96.3353
440.395	87.5529
442.163	79.2382
443.929	70.1892
445.694	62.5077
447.461	55.61
449.226	48.1228
450.99	41.6711
452.756	34.9218
454.52	29.2687
456.285	23.2762
458.048	18.0854
459.811	13.1733
461.573	8.58641
463.337	5.29451
465.099	2.91795
466.86	2.93348
468.623	4.11296
470.384	5.65904
472.144	7.53126
473.906	9.12971
475.666	12.6806
477.425	15.2907
479.184	17.4029
480.944	17.9888
482.703	18.1853
484.461	18.4899
486.218	20.1741
487.975	21.3156
489.734	22.1679
491.491	23.2937
493.247	24.6226
495.003	25.8957
496.759	27.7774
498.516	27.9569
500.271	28.5758
502.025	30.1353
503.779	30.6091
505.533	31.3617
507.287	32.4858
509.042	32.0178
510.795	33.5605
512.547	34.4025
514.299	35.4529
516.051	36.0611
517.803	36.3116
519.554	36.8777
521.305	39.0205
523.055	39.2902
524.805	40.3117
526.555	40.2018
528.307	41.5231
530.056	41.6348
531.805	41.4575
533.553	40.7389
535.301	40.5316
537.049	38.842
538.797	36.9279
540.544	36.208
542.291	34.5146
544.037	32.2568
545.783	31.8754
547.529	30.1124
549.275	28.8231
551.02	28.4196
552.765	27.0879
554.509	25.2426
556.253	22.9542
557.997	21.6865
559.738	20.774
561.482	19.4917
563.224	18.5529
564.967	16.5564
566.709	14.9505
568.451	12.5104
570.192	12.3448
571.933	12.0802
573.674	11.1932
575.415	9.72382
577.153	7.11568
578.893	6.73534
580.632	5.47561
582.371	4.87718
584.11	3.57632
585.849	2.92472
587.587	3.68701
589.323	2.55711
591.06	1.84605
592.797	2.85484
594.534	1.50064
596.271	1.53469
598.005	2.7903
599.741	3.72378
601.476	3.04625
603.211	2.55624
604.944	2.77581
606.679	3.4273
608.413	4.21305
610.147	3.42516
611.878	3.73748
613.611	3.14785
615.344	3.91281
617.077	3.77881
618.807	3.87392
620.539	4.03925
622.27	4.52621
623.999	4.9885
625.73	5.44188
627.461	7.10186
629.189	8.37941
630.919	10.8627
632.648	13.7888
634.376	15.4151
636.105	17.7804
637.833	21.0382
639.559	23.1822
641.287	26.5236
643.013	29.0412
644.74	32.2948
646.467	34.8413
648.192	36.4869
649.918	38.5676
651.642	40.5443
653.368	41.3273
655.091	41.2313
656.816	41.4193
658.538	40.8336
660.263	41.1503
661.987	40.6809
663.708	40.7303
665.432	40.4095
667.153	40.0249
668.875	40.1677
670.596	38.844
672.318	38.8813
674.037	37.5924
675.759	35.0542
677.478	33.928
679.196	33.0397
680.917	30.3554
682.635	28.8401
684.355	28.9109
686.072	26.8051
687.791	24.9717
689.508	22.9824
691.224	21.023
692.942	18.7957
694.658	16.6679
696.376	14.2636
698.091	11.6742
699.805	10.8493
701.522	9.67197
703.236	7.99801
704.95	6.9208
706.665	5.831
708.379	5.75857
710.093	5.47601
711.806	4.15948
713.518	5.27625
715.23	5.70118
716.943	7.11138
718.655	7.50788
720.366	7.27934
722.078	8.01751
723.788	8.43724
725.498	8.64873
727.208	9.84732
728.919	9.63888
730.628	10.7623
732.337	11.749
734.045	11.105
735.755	11.2986
737.463	11.3699
739.17	11.8039
740.877	13.7074
742.584	15.0779
744.292	17.2466
745.998	18.9667
747.704	21.572
749.409	24.6587
751.114	26.0116
752.819	29.6067
754.526	31.1465
756.23	32.0397
757.934	34.4026
759.637	35.3164
761.34	37.7245
763.043	40.9541
764.746	43.3349
766.448	44.3405
768.152	46.9086
769.853	50.3002
771.554	51.4438
773.255	53.0924
774.956	53.8341
776.656	57.1786
778.356	58.7906
780.056	60.3036
781.755	62.5424
783.454	62.4587
785.153	63.8384
786.851	65.0989
788.549	66.1396
790.247	66.4741
791.944	66.6834
793.641	67.1652
795.338	66.1588
797.034	65.9255
798.73	66.4907
800.426	65.8476
802.121	66.0176
803.817	65.2446
805.511	64.5505
807.206	64.9945
808.9	63.0468
810.592	61.9748
812.286	62.8575
813.979	62.2494
815.672	60.964
817.364	60.4855
819.057	58.766
820.748	59.1066
822.44	58.8223
824.129	59.1271
825.82	58.7728
827.511	57.9312
829.201	57.0384
830.891	56.856
832.581	56.5387
834.269	54.9106
835.958	53.0046
837.646	51.4697
839.335	48.9342
841.023	47.8492
842.709	45.7555
844.396	43.9994
846.084	42.4639
847.77	41.3718
849.455	39.0033
851.141	38.3698
852.827	37.7069
854.513	35.7872
856.196	34.3834
857.881	33.2696
859.566	33.677
861.248	32.9729
862.932	31.1189
864.616	29.3694
866.297	27.6625
867.98	25.8792
869.663	26.1278
871.343	25.7966
873.026	25.3436
874.707	25.4038
876.387	23.883
878.068	23.568
879.747	23.3518
881.428	22.4421
883.108	22.715
884.786	23.6053
886.465	24.6874
888.143	24.8335
889.822	25.0728
891.498	25.5551
893.177	25.7547
894.855	27.1196
896.53	28.6236
898.208	27.8495
899.883	28.8207
901.56	30.0303
903.234	31.1277
904.91	33.1527
906.584	34.6677
908.26	35.341
909.933	36.2748
911.608	36.5693
913.28	37.524
914.955	38.5219
916.627	38.4448
918.298	36.7738
919.972	36.5182
921.643	35.6889
923.315	36.1558
924.986	36.41
926.656	36.3211
928.328	37.8188
929.997	37.4436
931.668	36.8954
933.337	36.0523
935.006	35.0478
936.676	32.983
938.344	31.9417
940.012	31.5387
941.681	30.762
943.348	30.0962
945.014	29.985
946.683	30.3891
948.349	29.1158
950.015	29.0562
951.682	28.0455
953.347	27.3456
955.012	26.7475
956.676	26.4118
958.343	26.2532
960.006	25.6832
961.67	27.7022
963.333	29.5845
964.998	31.049
966.661	33.0017
968.323	35.3908
969.985	36.2155
971.649	36.9954
973.31	37.9266
974.971	38.7163
976.632	39.6036
978.293	40.4146
979.953	41.8772
981.615	43.8694
983.274	45.6334
984.933	46.2053
986.592	48.8636
988.251	50.4679
989.909	51.5438
991.567	51.6887
993.225	53.507
994.884	54.4208
996.541	55.89
998.198	55.7979
999.855	55.7118
1001.51	55.3666
1003.17	56.8197
1004.82	57.4784
1006.48	58.6881
1008.13	58.2846
1009.79	56.4309
1011.44	54.9035
1013.1	52.6541
1014.75	50.7265
1016.4	52.4203
1018.06	52.8232
1019.71	55.6367
1021.36	60.374
1023.01	66.0997
1024.66	75.0711
1026.32	83.3193
1027.97	92.2833
1029.62	100.632
1031.27	108.068
1032.92	116.867
1034.57	124.744
1036.22	133.893
1037.87	141.962
1039.52	149.909
1041.16	157.398
1042.81	163.183
1044.46	168.661
1046.11	172.697
1047.76	175.712
1049.4	177.866
1051.05	179.492
1052.7	180.257
1054.34	181.245
1055.99	181.102
1057.63	182.09
1059.28	181.873
1060.92	180.79
1062.57	179.618
1064.21	177.018
1065.85	172.839
1067.5	168.662
1069.14	163.26
1070.78	156.586
1072.43	149.529
1074.07	141.754
1075.71	134.969
1077.35	125.227
1078.99	116.079
1080.63	105.495
1082.27	94.7337
1083.91	84.3817
1085.55	75.2082
1087.19	65.7648
1088.83	55.6427
1090.47	47.5849
1092.11	39.2535
1093.75	32.6449
1095.39	25.7007
1097.03	21.8797
1098.66	19.5404
1100.3	16.058
1101.94	15.9261
1103.57	16.7746
1105.21	17.7187
1106.84	18.9851
1108.48	17.9891
1110.11	17.5673
1111.75	16.3604
1113.38	16.0649
1115.02	14.7225
1116.65	14.3277
1118.29	13.8223
1119.92	12.1765
1121.55	12.0909
1123.19	10.2195
1124.82	8.57538
1126.45	8.24449
1128.08	7.95382
1129.71	6.61014
1131.34	6.31447
1132.97	6.29184
1134.6	6.26109
1136.23	6.26895
1137.86	6.52848
1139.49	7.44068
1141.12	7.04275
1142.75	7.14999
1144.38	7.53005
1146.01	6.15474
1147.64	5.9394
1149.26	6.62389
1150.89	6.56495
1152.52	6.63778
1154.15	6.47585
1155.77	7.07275
1157.4	8.06773
1159.02	7.09365
1160.65	8.05801
1162.27	8.07132
1163.9	9.48183
1165.52	11.0825
1167.15	11.4496
1168.77	12.6793
1170.39	12.5469
1172.02	14.1943
1173.64	13.3694
1175.26	13.0228
1176.89	12.8668
1178.51	13.2755
1180.13	12.8398
1181.75	12.9226
1183.37	14.366
1184.99	16.2067
1186.61	15.6155
1188.23	16.0014
1189.85	17.2709
1191.47	17.9637
1193.09	19.2088
1194.71	21.3565
1196.33	22.0368
1197.94	23.8575
1199.56	24.4945
1201.18	24.685
1202.8	27.4439
1204.41	28.3629
1206.03	29.5062
1207.65	31.0791
1209.26	31.3711
1210.88	32.5087
1212.49	34.5841
1214.11	34.6749
1215.72	36.2591
1217.34	38.1258
1218.95	38.7044
1220.57	39.4204
1222.18	41.4949
1223.79	42.9304
1225.41	45.1813
1227.02	46.0657
1228.63	48.093
1230.24	49.2961
1231.85	49.0704
1233.47	48.8702
1235.08	49.9244
1236.69	50.8613
1238.3	51.3363
1239.91	50.7754
1241.52	50.9881
1243.13	51.3405
1244.74	49.4043
1246.34	47.9568
1247.95	46.6832
1249.56	48.0607
1251.17	45.453
1252.78	45.146
1254.38	42.5949
1255.99	42.2144
1257.6	41.0338
1259.2	40.6234
1260.81	40.1454
1262.42	40.1948
1264.02	39.9499
1265.63	40.2065
1267.23	39.8007
1268.84	41.1215
1270.44	41.186
1272.04	41.596
1273.65	41.4572
1275.25	42.2637
1276.85	43.4092
1278.46	43.0784
1280.06	44.4933
1281.66	45.951
1283.26	46.7927
1284.86	46.4544
1286.46	46.7332
1288.07	47.6406
1289.67	49.9132
1291.27	51.0867
1292.87	51.0884
1294.47	53.3596
1296.06	55.7284
1297.66	56.3042
1299.26	57.285
1300.86	59.6229
1302.46	61.4196
1304.06	61.5507
1305.65	61.5643
1307.25	61.6129
1308.85	62.301
1310.44	61.9429
1312.04	62.7692
1313.64	62.3813
1315.23	62.081
1316.83	62.9275
1318.42	63.1927
1320.02	62.2847
1321.61	62.4463
1323.2	60.9075
1324.8	58.5698
1326.39	60.0065
1327.99	59.1467
1329.58	57.9923
1331.17	55.6158
1332.76	55.6463
1334.36	54.4492
1335.95	53.8414
1337.54	53.9236
1339.13	53.2538
1340.72	53.2598
1342.31	51.8611
1343.9	51.5955
1345.49	52.5886
1347.08	51.918
1348.67	51.6503
1350.26	51.8744
1351.85	52.8972
1353.43	51.8072
1355.02	51.339
1356.61	50.2046
1358.2	50.2085
1359.78	51.9208
1361.37	51.8088
1362.96	51.4805
1364.54	52.3745
1366.13	53.2302
1367.71	54.1705
1369.3	54.4696
1370.88	54.5876
1372.47	56.7368
1374.05	58.0038
1375.64	57.4181
1377.22	58.0941
1378.8	59.4887
1380.39	60.5283
1381.97	60.4775
1383.55	60.8251
1385.13	62.2343
1386.72	63.6456
1388.3	63.3881
1389.88	64.4335
1391.46	65.9987
1393.04	65.3223
1394.62	66.2271
1396.2	67.5704
1397.78	68.425
1399.36	68.6853
1400.94	70.0737
1402.52	70.1739
1404.1	72.2352
1405.68	73.7984
1407.25	74.1149
1408.83	76.4012
1410.41	78.3155
1411.98	79.8839
1413.56	82.029
1415.14	84.3859
1416.71	87.3614
1418.29	89.0133
1419.87	92.1643
1421.44	93.4357
1423.02	97.0824
1424.59	100.586
1426.16	101.62
1427.74	104.411
1429.31	107.375
1430.89	109.236
1432.46	110.819
1434.03	114.295
1435.6	117.055
1437.18	119.94
1438.75	121.945
1440.32	122.538
1441.89	123.33
1443.46	124.922
1445.03	125.277
1446.6	125.619
1448.17	125.166
1449.74	125.941
1451.31	125.082
1452.88	124.188
1454.45	123.985
1456.02	123.148
1457.59	120.801
1459.16	118.092
1460.72	115.405
1462.29	112.304
1463.86	108.961
1465.43	104.873
1466.99	101.198
1468.56	98.3134
1470.13	94.7493
1471.69	91.2198
1473.26	88.6833
1474.82	85.5408
1476.38	82.9971
1477.95	78.4497
1479.51	75.3753
1481.08	71.6782
1482.64	69.3119
1484.2	66.1654
1485.77	63.3096
1487.33	61.0567
1488.89	57.2118
1490.46	54.5209
1492.02	52.8104
1493.58	49.542
1495.14	48.5159
1496.7	47.7919
1498.26	45.9016
1499.82	43.9974
1501.38	43.2146
1502.94	42.7758
1504.5	41.2197
1506.06	42.9789
1507.62	43.0938
1509.18	43.2629
1510.73	43.8358
1512.29	44.245
1513.85	43.5663
1515.41	43.9393
1516.96	44.903
1518.52	44.6338
1520.08	45.3046
1521.63	46.5358
1523.19	45.9621
1524.75	45.5172
1526.3	46.4166
1527.85	46.5538
1529.41	47.8677
1530.96	49.4739
1532.52	50.1396
1534.07	50.222
1535.62	51.4623
1537.18	53.2615
1538.73	54.1777
1540.28	54.7867
1541.84	55.5379
1543.39	56.884
1544.94	57.7763
1546.49	58.874
1548.04	60.3919
1549.59	61.4179
1551.14	61.716
1552.69	62.7979
1554.25	64.3456
1555.79	64.4727
1557.34	66.6496
1558.89	67.6228
1560.44	68.6136
1561.99	69.9241
1563.54	69.7596
1565.08	70.3571
1566.63	69.9577
1568.18	71.6312
1569.73	73.2215
1571.27	73.2994
1572.82	75.052
1574.37	75.0765
1575.91	75.2871
1577.46	76.0133
1579	77.3254
1580.55	79.14
1582.09	79.7953
1583.64	79.9689
1585.18	78.5796
1586.73	79.0369
1588.27	78.7719
1589.81	78.9232
1591.35	78.1049
1592.9	78.3538
1594.44	77.0655
1595.98	75.9337
1597.52	75.1323
1599.06	74.1513
1600.61	71.9611
1602.15	71.0552
1603.69	70.6279
1605.23	69.5128
1606.77	69.4899
1608.31	67.6132
1609.85	65.8648
1611.39	63.6115
1612.93	61.5705
1614.46	60.0817
1616	57.8862
1617.54	55.3002
1619.08	53.5021
1620.61	51.4407
1622.15	49.3061
1623.69	47.9362
1625.23	45.5257
1626.76	43.8626
1628.3	41.692
1629.83	40.2704
1631.37	38.6948
1632.9	36.8447
1634.44	36.2884
1635.97	34.0626
1637.51	33.2866
1639.04	31.6426
1640.57	30.4987
1642.11	30.0203
1643.64	29.4963
1645.17	28.9717
1646.71	28.5491
1648.24	26.8613
1649.77	25.8401
1651.3	25.3675
1652.83	24.3758
1654.36	24.2461
1655.89	23.4829
1657.42	22.4631
1658.96	21.5438
1660.48	20.7261
1662.01	20.6939
1663.54	21.1365
1665.07	20.965
1666.6	20.0292
1668.13	19.2497
1669.66	18.2097
1671.19	16.336
1672.71	16.1266
1674.24	15.2153
1675.77	15.062
1677.29	14.099
1678.82	13.9688
1680.35	13.1303
1681.87	12.5187
1683.4	11.8504
1684.92	10.9613
1686.45	10.6301
1687.97	9.44758
1689.5	8.81532
1691.02	9.47749
1692.54	8.87983
1694.07	7.69375
1695.59	7.23577
1697.11	7.3409
1698.64	6.90345
1700.16	6.22427
1701.68	5.12519
1703.2	5.56801
1704.72	4.85234
1706.25	4.3048
1707.77	4.28339
1709.29	4.16903
1710.81	3.12934
1712.33	2.79551
1713.85	3.08229
1715.37	2.76327
1716.89	2.90337
1718.41	2.12133
1719.92	1.97551
1721.44	2.04267
1722.96	2.94971
1724.48	2.0482
1725.99	2.4939
1727.51	2.96081
1729.03	2.57362
1730.55	3.11423
1732.06	3.01169
1733.58	3.34581
1735.09	4.25133
1736.61	4.70002
1738.13	4.22646
1739.64	4.77834
1741.15	4.88946
1742.67	4.53518
1744.18	4.46262
1745.7	3.29881
1747.21	3.48206
1748.72	3.528
1750.24	3.55946
1751.75	3.97491
1753.26	3.40144
1754.77	3.70638
1756.29	3.52973
1757.8	3.49397
1759.31	3.16961
1760.82	2.45459
1762.33	2.3882
1763.84	2.63957
1765.35	3.61146
1766.86	3.96022
1768.37	4.02301
1769.88	3.45555
1771.39	3.96075
1772.9	3.79596
1774.4	2.70312
1775.91	2.36294
1777.42	2.22299
1778.93	1.94389
1780.44	1.57089
1781.94	1.73893
1783.45	2.02781
1784.96	2.4547
1786.46	2.07314
1787.97	2.7613
1789.47	2.31095
1790.98	2.10255
1792.48	1.88684
1793.99	1.98175
1795.49	2.18196
1797	2.35036
1798.5	2.67909
1800.01	1.73472
1801.51	2.16998
1803.01	2.0752
1804.51	1.93623
1806.02	2.43839
1807.52	3.18287
1809.02	3.27098
1810.52	4.24292
1812.02	3.88668
1813.52	3.84969
1815.02	4.11764
1816.53	4.14106
1818.03	3.43798
1819.52	3.00935
1821.02	2.60824
1822.52	2.26346
1824.02	2.255
1825.52	2.34172
1827.02	3.26034
1828.52	3.12172
1830.02	3.83425
1831.51	3.56117
1833.01	3.73285
1834.51	3.55087
1836.01	4.82632
1837.5	5.77563
1839	6.0333
1840.49	5.74749
1841.99	6.2233
1843.49	7.04823
1844.98	6.26058
1846.48	5.53953
1847.97	4.24012
1849.47	5.31037
1850.96	5.29172
1852.45	5.35837
1853.95	5.19055
1855.44	5.06816
1856.93	4.90095
1858.42	4.03153
1859.92	3.89212
1861.41	3.14027
1862.9	2.24756
1864.39	2.51913
1865.88	2.19884
1867.38	1.64243
1868.87	1.35973
1870.36	1.57047
1871.85	1.58824
1873.34	1.96606
1874.83	1.25163
1876.32	1.4116
1877.81	1.9824
1879.29	2.23284
1880.78	3.6393
1882.27	4.47566
1882.53	5.07749
1884.03	5.26333
1885.52	5.94324
1887.01	6.45644
1888.51	6.22098
1890	7.28044
1891.5	7.12625
1892.99	7.65992
1894.48	8.08711
1895.97	8.68286
1897.47	10.4539
1898.96	11.3821
1900.45	11.8365
1901.94	12.2136
1903.43	13.329
1904.92	12.6164
1906.41	12.4479
1907.9	12.4985
1909.39	14.1896
1910.88	13.1785
1912.37	12.7804
1913.86	13.1244
1915.35	12.6471
1916.84	11.6342
1918.33	10.2148
1919.81	10.6801
1921.3	10.1541
1922.79	10.7648
1924.28	9.1807
1925.76	8.72186
1927.25	8.66717
1928.73	8.48222
1930.22	7.69973
1931.71	7.10684
1933.19	6.39523
1934.68	6.84505
1936.16	6.82596
1937.65	6.24637
1939.13	4.91511
1940.62	6.0814
1942.1	6.39893
1943.58	6.90222
1945.07	6.76946
1946.55	7.52616
1948.03	7.62473
1949.51	8.64258
1951	10.3611
1952.48	10.8327
1953.96	11.1355
1955.44	12.2731
1956.92	11.7741
1958.4	10.9961
1959.88	11.2762
1961.36	11.9124
1962.84	12.5462
1964.32	13.0166
1965.8	13.1859
1967.28	13.4531
1968.76	13.9692
1970.24	13.4913
1971.72	13.1704
1973.2	12.2457
1974.67	11.0272
1976.15	10.9759
1977.63	9.84334
1979.1	8.74845
1980.58	8.36167
1982.06	9.45935
1983.54	8.73246
1985.01	8.19213
1986.49	8.13176
1987.96	8.66172
1989.44	8.24163
1990.91	8.39966
1992.39	8.29328
1993.86	8.30597
1995.33	6.97633
1996.81	7.3642
1998.28	7.11873
1999.75	7.36656
2001.23	7.01955
2002.7	6.41836
2004.17	5.48334
2005.65	6.37633
2007.12	6.58167
2008.59	7.49854
2010.06	7.76038
2011.53	7.64617
2013	8.28632
2014.47	9.39971
2015.94	9.07951
2017.41	8.51423
2018.88	8.44053
2020.35	10.5385
2021.82	10.7345
2023.29	11.15
2024.76	10.9725
2026.23	10.6886
2027.69	11.446
2029.16	11.664
2030.63	10.266
2032.1	10.8182
2033.56	10.8646
2035.03	11.1196
2036.5	10.1425
2037.96	9.89857
2039.43	10.0756
2040.89	9.06866
2042.36	8.83755
2043.83	8.85176
2045.29	9.15315
2046.75	9.11733
2048.22	8.69162
2049.68	9.26642
2051.15	10.3095
2052.61	10.5527
2054.07	11.0194
2055.54	11.3006
2057	10.2876
2058.46	12.0706
2059.92	11.0873
2061.39	10.4583
2062.85	9.97828
2064.31	8.94951
2065.77	7.1151
2067.23	6.40936
2068.69	6.09134
2070.15	6.26007
2071.61	6.30223
2073.07	6.11866
2074.53	6.27959
2075.99	6.60685
2077.45	6.56614
2078.91	7.2427
2080.37	7.03261
2081.82	6.86907
2083.28	7.00157
2084.74	6.11377
2086.2	5.50516
2087.65	5.44258
2089.11	6.23319
2090.57	5.97542
2092.02	7.68985
2093.48	7.19284
2094.94	6.74454
2096.39	6.74145
2097.85	6.41998
2099.3	6.9035
2100.76	7.45625
2102.21	6.86164
2103.66	7.46463
2105.12	8.07998
2106.57	8.37967
2108.03	8.90701
2109.48	9.69245
2110.93	9.95202
2112.38	10.0959
2113.84	10.6938
2115.29	12.0099
2116.74	13.203
2118.19	12.9035
2119.64	13.7583
2121.09	13.3451
2122.54	13.1678
2123.99	13.9222
2125.45	13.7301
2126.89	14.5341
2128.34	13.7565
2129.79	13.8654
2131.24	14.7207
2132.69	14.0066
