#Acq. time (s)=	45
#Accumulations=	2
#Range (cm-¹)=	200...3150
#Windows=	2
#Auto scanning=	Off
#Autofocus=	Off
#Macrospot=	Off
#AutoExposure=	Off
#Spike filter=	Multiple accum.
#Delay time (s)=	0
#Binning=	1
#Readout mode=	Signal
#DeNoise=	Off
#ICS correction=	On
#Dark correction=	Off
#Inst. Process=	Off
#Detector Gain=	Best Dynamic Range
#Detector ADC=	20 kHz       
#Detector temperature (°C)=	-69.85
#Instrument=	LabRAM HR Evol
#Detector=	Synapse
#Objective=	x100
#Grating=	600 gr/mm
#ND Filter=	100%
#Laser (nm)=	532 
#Hole=	100.021
#Range=	Auto
#Laser Pol.=	No
#Raman. Pol.=	No
#Laser Pol. (°)=	-0.0007625
#Raman Pol. (°)=	89.9995
#Collection=	Microscope
#StageXY=	Marzhauser
#StageZ=	Marzhauser
#X (µm)=	-968.1
#Y (µm)=	-2834.5
#Z (µm)=	528.2
#Full time(mm:ss)=	3:18
#Project=	
#Sample=	
#Site=	
#Title=	Mb_00_13_22_2x_45s_532 nm_x100_100%_600 gr_mm
#Remark=	
#Date=	06.07.2022 11:25
#Acquired=	06.07.2022 11:25:02
#Base:Fit=	10.08.2022 10:16:56
#Base:Sub=	10.08.2022 10:17:24
#Filter:Polynom=	16.08.2022 10:36:38
#AxisType[0]=Intens
#AxisUnit[0]=Cnt
#AxisType[1]=Spectr
#AxisUnit[1]=1/cm
200.398	21.241
202.213	21.3181
204.027	16.0264
205.843	11.6731
207.657	7.53319
209.47	4.65591
211.283	3.58827
213.097	4.21954
214.909	7.96207
216.721	14.929
218.533	21.9402
220.344	32.9797
222.157	44.3049
223.967	55.3033
225.777	66.9485
227.587	80.9004
229.396	92.7149
231.205	103.478
233.016	113.191
234.824	122.449
236.632	132.737
238.439	141.501
240.247	150.959
242.053	157.691
243.86	162.955
245.666	167.59
247.474	174.653
249.279	181.01
251.085	185.133
252.889	189.721
254.694	191.707
256.498	193.209
258.301	195.801
260.105	196.471
261.908	196.344
263.71	193.431
265.513	190.712
267.315	188.093
269.116	186.309
270.918	179.548
272.718	172.677
274.519	165.743
276.319	157.871
278.119	147.705
279.918	136.867
281.718	125.898
283.516	116.35
285.315	106.991
287.113	95.9239
288.911	86.0489
290.708	75.8036
292.505	68.3856
294.302	62.3248
296.098	57.1308
297.894	52.2206
299.69	47.7044
301.485	44.6124
303.278	41.2113
305.073	38.9609
306.867	37.7015
308.661	34.8984
310.454	35.2913
312.247	33.0694
314.04	31.4419
315.833	31.0742
317.623	30.8377
319.415	29.3131
321.206	27.3845
322.997	27.0045
324.788	27.1246
326.579	26.7771
328.367	25.6984
330.156	25.4067
331.946	23.4403
333.735	20.6279
335.523	20.1884
337.31	17.8415
339.098	15.7949
340.885	13.8754
342.673	13.8527
344.458	11.7313
346.244	9.50006
348.03	9.6516
349.816	7.90397
351.6	5.11732
353.385	2.80629
355.17	2.07428
356.953	0.64544
358.737	0.0833239
360.521	-0.514802
362.304	0.0397447
364.085	0.61823
365.868	3.57912
367.65	7.46578
369.431	12.9509
371.212	18.9716
372.994	24.8779
374.773	29.4912
376.554	34.4064
378.332	41.8917
380.112	50.5515
381.892	60.8971
383.669	72.0418
385.448	84.3994
387.225	94.6209
389.003	105.574
390.781	117.319
392.557	127.075
394.334	137.513
396.109	148.087
397.885	156.428
399.66	164.578
401.436	169.866
403.211	176.238
404.984	182.313
406.759	186.508
408.532	188.683
410.306	190.478
412.078	192.873
413.851	193.206
415.623	192.767
417.395	191.009
419.166	188.386
420.938	184.527
422.708	179.02
424.477	174.74
426.248	167.419
428.017	161.457
429.788	154.406
431.556	145.612
433.326	138.191
435.093	128.522
436.86	120.242
438.629	109.328
440.395	99.1933
442.163	90.921
443.929	82.6942
445.694	74.2116
447.461	68.636
449.226	62.948
450.99	57.7331
452.756	52.6441
454.52	49.26
456.285	45.9215
458.048	42.1342
459.811	38.5349
461.573	34.997
463.337	33.9074
465.099	34.6518
466.86	37.4533
468.623	40.5267
470.384	43.4147
472.144	47.0878
473.906	48.449
475.666	49.9125
477.425	52.2479
479.184	54.6952
480.944	56.6455
482.703	58.75
484.461	60.9369
486.218	62.809
487.975	65.0812
489.734	66.0747
491.491	69.0673
493.247	72.1484
495.003	74.9197
496.759	77.4891
498.516	80.8276
500.271	82.3042
502.025	83.4528
503.779	84.7715
505.533	84.9184
507.287	87.9584
509.042	89.6318
510.795	90.3157
512.547	92.0636
514.299	93.0429
516.051	94.8308
517.803	96.0887
519.554	97.4566
521.305	99.2369
523.055	98.1173
524.805	99.7805
526.555	99.9699
528.307	101.249
530.056	101.045
531.805	100.411
533.553	100.971
535.301	101.137
537.049	100.625
538.797	99.2139
540.544	96.4941
542.291	95.0909
544.037	92.7691
545.783	90.5333
547.529	87.4248
549.275	84.4105
551.02	81.7546
552.765	79.4321
554.509	76.5207
556.253	72.4614
557.997	69.6597
559.738	67.7034
561.482	63.5485
563.224	61.623
564.967	59.7974
566.709	56.0332
568.451	53.2931
570.192	50.4391
571.933	48.1621
573.674	44.0214
575.415	40.5419
577.153	37.5867
578.893	37.0403
580.632	36.8147
582.371	35.0423
584.11	32.3018
585.849	30.0362
587.587	27.6531
589.323	25.6772
591.06	24.8253
592.797	25.1705
594.534	26.1587
596.271	24.335
598.005	23.7415
599.741	24.054
601.476	25.8355
603.211	26.7432
604.944	27.5531
606.679	29.2203
608.413	29.5655
610.147	30.904
611.878	32.2032
613.611	32.0339
615.344	32.2387
617.077	31.8654
618.807	32.236
620.539	32.6832
622.27	33.6133
623.999	33.4931
625.73	34.1206
627.461	33.8132
629.189	35.4538
630.919	35.8293
632.648	37.5765
634.376	39.856
636.105	41.2728
637.833	42.7784
639.559	44.312
641.287	45.1059
643.013	46.9446
644.74	47.0989
646.467	45.8137
648.192	45.4202
649.918	45.3915
651.642	43.6681
653.368	41.6007
655.091	41.4851
656.816	40.2668
658.538	37.8531
660.263	34.3517
661.987	33.82
663.708	32.7927
665.432	32.0807
667.153	30.1797
668.875	27.9578
670.596	25.1652
672.318	23.3971
674.037	21.9496
675.759	21.3345
677.478	20.3307
679.196	19.8108
680.917	18.8197
682.635	16.3192
684.355	16.0629
686.072	16.5041
687.791	17.8544
689.508	16.6407
691.224	15.0788
692.942	14.2937
694.658	12.4153
696.376	10.522
698.091	9.02474
699.805	7.58376
701.522	7.61075
703.236	6.45852
704.95	5.21327
706.665	5.0491
708.379	5.05828
710.093	3.77697
711.806	4.40705
713.518	4.60267
715.23	6.84824
716.943	7.04542
718.655	8.11245
720.366	9.26486
722.078	8.13951
723.788	8.11967
725.498	7.95879
727.208	8.14925
728.919	8.53856
730.628	7.70763
732.337	6.87384
734.045	7.2292
735.755	5.30954
737.463	5.27409
739.17	6.35042
740.877	6.3767
742.584	6.31816
744.292	6.97864
745.998	7.91506
747.704	10.3974
749.409	11.2571
751.114	13.6532
752.819	15.7231
754.526	18.3157
756.23	19.1635
757.934	22.2974
759.637	23.7303
761.34	25.429
763.043	25.9843
764.746	28.2987
766.448	30.2401
768.152	31.1285
769.853	35.2837
771.554	37.922
773.255	40.2326
774.956	40.9753
776.656	40.9034
778.356	41.8023
780.056	43.2269
781.755	43.5224
783.454	45.0998
785.153	45.6176
786.851	47.0283
788.549	46.3448
790.247	48.2434
791.944	49.558
793.641	51.9089
795.338	52.1981
797.034	53.6186
798.73	54.6949
800.426	54.8073
802.121	53.4764
803.817	54.583
805.511	56.0466
807.206	54.8352
808.9	54.3943
810.592	55.9979
812.286	56.4171
813.979	56.9539
815.672	56.5332
817.364	55.633
819.057	55.8952
820.748	55.2589
822.44	57.23
824.129	57.0953
825.82	57.5154
827.511	56.9664
829.201	56.7026
830.891	55.4053
832.581	55.5528
834.269	55.0246
835.958	53.7718
837.646	52.2248
839.335	50.6082
841.023	49.2582
842.709	47.3121
844.396	44.7466
846.084	42.6722
847.77	40.3776
849.455	38.5251
851.141	36.8394
852.827	34.0028
854.513	32.6378
856.196	29.4522
857.881	27.8575
859.566	24.951
861.248	21.8011
862.932	20.2798
864.616	20.0344
866.297	17.8504
867.98	16.8755
869.663	17.4051
871.343	17.3738
873.026	15.3697
874.707	16.0816
876.387	15.32
878.068	14.2576
879.747	12.9718
881.428	13.2864
883.108	12.4578
884.786	10.7417
886.465	11.3412
888.143	11.468
889.822	11.1348
891.498	9.8247
893.177	9.45245
894.855	10.1276
896.53	9.66576
898.208	9.5559
899.883	8.21343
901.56	8.17089
903.234	8.11277
904.91	8.61667
906.584	9.46885
908.26	8.54484
909.933	8.7792
911.608	7.28847
913.28	8.19776
914.955	8.28319
916.627	8.90696
918.298	7.88406
919.972	6.7307
921.643	8.22736
923.315	8.85299
924.986	8.65106
926.656	7.64226
928.328	8.13312
929.997	8.66895
931.668	7.89005
933.337	6.85115
935.006	6.58681
936.676	6.58925
938.344	7.53673
940.012	7.42435
941.681	6.77365
943.348	5.96014
945.014	6.88337
946.683	8.70306
948.349	9.91157
950.015	10.7368
951.682	9.5738
953.347	10.1257
955.012	6.76884
956.676	3.19843
958.343	1.21619
960.006	-1.11902
961.67	-1.3197
963.333	1.37381
964.998	4.78922
966.661	8.19552
968.323	12.975
969.985	20.5985
971.649	26.6015
973.31	35.2271
974.971	43.4867
976.632	52.1608
978.293	61.9678
979.953	71.2622
981.615	78.5949
983.274	86.8276
984.933	94.9434
986.592	100.274
988.251	105.928
989.909	112.397
991.567	117.49
993.225	123.843
994.884	129.867
996.541	133.184
998.198	136.83
999.855	139.741
1001.51	142.082
1003.17	143.906
1004.82	145.623
1006.48	145.004
1008.13	143.201
1009.79	140.885
1011.44	141.103
1013.1	141.644
1014.75	141.122
1016.4	144.732
1018.06	149.085
1019.71	154.452
1021.36	159.498
1023.01	164.302
1024.66	169.298
1026.32	174.79
1027.97	179.087
1029.62	181.635
1031.27	183.919
1032.92	184.055
1034.57	182.618
1036.22	180.757
1037.87	178.048
1039.52	178.07
1041.16	178.496
1042.81	180.058
1044.46	182.613
1046.11	184.471
1047.76	184.964
1049.4	184.898
1051.05	186.755
1052.7	185.926
1054.34	184.184
1055.99	180.697
1057.63	176.867
1059.28	172.754
1060.92	167.254
1062.57	160.761
1064.21	152.98
1065.85	146.223
1067.5	138.911
1069.14	130.594
1070.78	123.365
1072.43	117.011
1074.07	107.616
1075.71	97.8377
1077.35	87.3308
1078.99	73.9689
1080.63	64.146
1082.27	53.7175
1083.91	44.3859
1085.55	33.7725
1087.19	26.047
1088.83	19.6646
1090.47	14.668
1092.11	14.3212
1093.75	15.6119
1095.39	18.0332
1097.03	20.0933
1098.66	24.1801
1100.3	26.7781
1101.94	29.9176
1103.57	31.0957
1105.21	32.2168
1106.84	32.7733
1108.48	33.6136
1110.11	33.042
1111.75	32.7576
1113.38	31.4856
1115.02	28.852
1116.65	27.4469
1118.29	26.1687
1119.92	25.6855
1121.55	23.9019
1123.19	21.3422
1124.82	20.2322
1126.45	19.8748
1128.08	19.2236
1129.71	17.8964
1131.34	15.9857
1132.97	15.0185
1134.6	13.9981
1136.23	14.0351
1137.86	12.8125
1139.49	13.6757
1141.12	13.5858
1142.75	12.7816
1144.38	12.9943
1146.01	12.7844
1147.64	11.9635
1149.26	11.0824
1150.89	8.89955
1152.52	8.08938
1154.15	7.89945
1155.77	6.51777
1157.4	5.40642
1159.02	4.57111
1160.65	2.74109
1162.27	1.46298
1163.9	1.09793
1165.52	0.22025
1167.15	-0.319665
1168.77	2.37473
1170.39	2.81453
1172.02	4.86129
1173.64	6.71921
1175.26	7.20291
1176.89	8.95005
1178.51	8.48476
1180.13	9.88964
1181.75	11.1576
1183.37	11.9951
1184.99	13.1996
1186.61	13.7428
1188.23	15.0604
1189.85	16.7067
1191.47	19.3466
1193.09	22.5062
1194.71	26.0343
1196.33	30.3125
1197.94	33.7084
1199.56	37.7739
1201.18	39.9454
1202.8	44.403
1204.41	50.4531
1206.03	55.9888
1207.65	61.9512
1209.26	67.4318
1210.88	72.2927
1212.49	79.3655
1214.11	87.6012
1215.72	94.4714
1217.34	100.317
1218.95	105.603
1220.57	113.442
1222.18	119.926
1223.79	127.192
1225.41	132.452
1227.02	136.987
1228.63	142.545
1230.24	148.329
1231.85	153.995
1233.47	159.454
1235.08	164.291
1236.69	167.339
1238.3	168.297
1239.91	168.479
1241.52	169.005
1243.13	169.727
1244.74	172.721
1246.34	174.253
1247.95	175.325
1249.56	176.223
1251.17	175.856
1252.78	176.142
1254.38	174.719
1255.99	173.562
1257.6	172.617
1259.2	170.889
1260.81	170.111
1262.42	169.223
1264.02	167.359
1265.63	165.627
1267.23	163.93
1268.84	163.932
1270.44	162.948
1272.04	163.322
1273.65	161.891
1275.25	162.252
1276.85	160.324
1278.46	159.075
1280.06	159.62
1281.66	162.081
1283.26	165.099
1284.86	168.389
1286.46	170.026
1288.07	173.773
1289.67	177.615
1291.27	180.335
1292.87	185.576
1294.47	188.452
1296.06	191.658
1297.66	196.355
1299.26	199.877
1300.86	204.683
1302.46	208.413
1304.06	213.347
1305.65	216.981
1307.25	221.084
1308.85	225.93
1310.44	229.224
1312.04	231.957
1313.64	234.494
1315.23	236.692
1316.83	236.957
1318.42	238.208
1320.02	240.615
1321.61	242.216
1323.2	244.786
1324.8	245.275
1326.39	245.115
1327.99	243.459
1329.58	243.474
1331.17	241.684
1332.76	239.696
1334.36	238.261
1335.95	236.721
1337.54	234.572
1339.13	231.047
1340.72	228.596
1342.31	224.718
1343.9	219.631
1345.49	215.008
1347.08	212.077
1348.67	208.312
1350.26	204.372
1351.85	200.134
1353.43	196.685
1355.02	191.597
1356.61	186.656
1358.2	183.235
1359.78	179.707
1361.37	177.132
1362.96	171.739
1364.54	168.593
1366.13	164.313
1367.71	160.303
1369.3	155.842
1370.88	151.44
1372.47	148.635
1374.05	144.175
1375.64	140.941
1377.22	138.125
1378.8	136.02
1380.39	133.518
1381.97	131.394
1383.55	132.13
1385.13	130.336
1386.72	128.26
1388.3	128.258
1389.88	125.77
1391.46	124.413
1393.04	123.75
1394.62	123.479
1396.2	122.852
1397.78	123.607
1399.36	124.896
1400.94	125.41
1402.52	126.544
1404.1	127.818
1405.68	131.041
1407.25	134.25
1408.83	139.111
1410.41	144.374
1411.98	151.482
1413.56	159.237
1415.14	166.63
1416.71	174.115
1418.29	182.912
1419.87	193.667
1421.44	203.364
1423.02	215.428
1424.59	227.966
1426.16	240.755
1427.74	252.945
1429.31	266.234
1430.89	277.865
1432.46	291.042
1434.03	300.759
1435.6	311.384
1437.18	320.086
1438.75	328.704
1440.32	336.023
1441.89	342.851
1443.46	348.568
1445.03	353.523
1446.6	355.52
1448.17	358.402
1449.74	358.824
1451.31	357.861
1452.88	355.697
1454.45	353.026
1456.02	348.363
1457.59	343.116
1459.16	336.156
1460.72	328.496
1462.29	320.558
1463.86	308.916
1465.43	298.245
1466.99	286.471
1468.56	273.289
1470.13	262.321
1471.69	249.732
1473.26	237.158
1474.82	223.841
1476.38	210.303
1477.95	197.306
1479.51	184.765
1481.08	171.291
1482.64	160.26
1484.2	148.617
1485.77	139.18
1487.33	129.551
1488.89	119.672
1490.46	111.266
1492.02	101.85
1493.58	93.9379
1495.14	88.0426
1496.7	82.1601
1498.26	77.8183
1499.82	74.5388
1501.38	72.447
1502.94	69.5225
1504.5	67.5861
1506.06	65.5304
1507.62	65.0552
1509.18	62.7271
1510.73	62.352
1512.29	60.163
1513.85	59.7514
1515.41	59.4883
1516.96	59.0037
1518.52	58.7414
1520.08	59.9858
1521.63	61.0794
1523.19	61.6897
1524.75	61.1509
1526.3	61.7195
1527.85	62.2286
1529.41	63.8879
1530.96	64.9678
1532.52	66.1743
1534.07	67.1184
1535.62	70.2013
1537.18	73.0161
1538.73	75.63
1540.28	79.2744
1541.84	82.6269
1543.39	86.1984
1544.94	90.0631
1546.49	93.4361
1548.04	97.3315
1549.59	100.035
1551.14	103.701
1552.69	106.393
1554.25	109.094
1555.79	111.449
1557.34	114.274
1558.89	115.335
1560.44	119.287
1561.99	121.05
1563.54	123.045
1565.08	123.65
1566.63	124.855
1568.18	127.948
1569.73	130.092
1571.27	134.859
1572.82	138.371
1574.37	141.992
1575.91	144.799
1577.46	148.376
1579	151.033
1580.55	155.88
1582.09	160.65
1583.64	165.541
1585.18	169.56
1586.73	171.93
1588.27	173.367
1589.81	174.425
1591.35	175.788
1592.9	177.905
1594.44	179.143
1595.98	180.727
1597.52	181.016
1599.06	181.528
1600.61	179.844
1602.15	177.824
1603.69	176.533
1605.23	175.421
1606.77	174.333
1608.31	173.735
1609.85	174.02
1611.39	173.794
1612.93	173.443
1614.46	173.145
1616	173.598
1617.54	173.755
1619.08	174.388
1620.61	177.005
1622.15	178.133
1623.69	177.744
1625.23	178.745
1626.76	178.606
1628.3	180.038
1629.83	180.031
1631.37	182.292
1632.9	184.548
1634.44	186.866
1635.97	189.976
1637.51	192.873
1639.04	194.649
1640.57	198.543
1642.11	202.679
1643.64	206.583
1645.17	210.49
1646.71	215.56
1648.24	219.598
1649.77	221.526
1651.3	224.628
1652.83	227.062
1654.36	230.64
1655.89	233.103
1657.42	236.058
1658.96	236.572
1660.48	235.49
1662.01	233.38
1663.54	232.035
1665.07	229.77
1666.6	226.878
1668.13	223.788
1669.66	220.409
1671.19	215.65
1672.71	208.218
1674.24	201.14
1675.77	193.603
1677.29	184.936
1678.82	177.992
1680.35	171.717
1681.87	163.121
1683.4	156.403
1684.92	149.547
1686.45	140.911
1687.97	132.948
1689.5	126.425
1691.02	119.743
1692.54	113.288
1694.07	105.348
1695.59	98.5243
1697.11	93.0933
1698.64	84.0383
1700.16	76.3495
1701.68	70.8132
1703.2	65.4734
1704.72	60.9589
1706.25	56.5374
1707.77	52.298
1709.29	46.6597
1710.81	41.4983
1712.33	37.346
1713.85	33.6928
1715.37	30.0794
1716.89	28.2259
1718.41	25.7356
1719.92	22.3102
1721.44	19.6887
1722.96	18.3134
1724.48	15.8034
1725.99	13.8197
1727.51	12.7321
1729.03	11.9406
1730.55	11.7012
1732.06	11.6783
1733.58	11.6926
1735.09	11.1433
1736.61	10.5144
1738.13	11.1045
1739.64	10.6873
1741.15	10.2783
1742.67	9.46267
1744.18	9.76795
1745.7	9.72855
1747.21	8.42727
1748.72	6.66576
1750.24	6.94567
1751.75	7.03069
1753.26	7.18492
1754.77	8.09154
1756.29	7.36505
1757.8	6.98903
1759.31	7.68189
1760.82	7.7096
1762.33	6.29483
1763.84	7.25926
1765.35	7.19936
1766.86	6.67159
1768.37	6.90186
1769.88	6.4221
1771.39	6.61017
1772.9	5.52045
1774.4	4.0011
1775.91	4.24148
1777.42	4.89972
1778.93	3.71936
1780.44	3.37858
1781.94	2.21239
1783.45	0.849736
1784.96	0.987194
1786.46	1.46444
1787.97	1.02242
1789.47	1.23302
1790.98	0.681031
1792.48	0.371786
1793.99	-0.937468
1795.49	-2.00383
1797	-2.56859
1798.5	-2.48373
1800.01	-1.80492
1801.51	-1.10036
1803.01	-0.854957
1804.51	-0.760228
1806.02	-0.931187
1807.52	-1.23825
1809.02	-1.43491
1810.52	-0.325015
1812.02	0.134759
1813.52	0.209031
1815.02	0.296176
1816.53	1.33417
1818.03	1.6367
1819.52	2.20006
1821.02	2.64294
1822.52	3.15447
1824.02	4.37865
1825.52	4.84342
1827.02	5.522
1828.52	4.89677
1830.02	5.96072
1831.51	5.65417
1833.01	6.48655
1834.51	6.36533
1836.01	6.07069
1837.5	5.69982
1839	6.7093
1840.49	7.2616
1841.99	8.08185
1843.49	7.45148
1844.98	6.7196
1846.48	6.05594
1847.97	6.2558
1849.47	6.49395
1850.96	6.72996
1852.45	6.81884
1853.95	5.23297
1855.44	5.27298
1856.93	4.42254
1858.42	5.094
1859.92	6.25941
1861.41	5.0194
1862.9	4.74344
1864.39	5.04457
1865.88	4.93156
1867.38	4.24213
1868.87	3.71621
1870.36	3.58452
1871.85	3.54359
1873.34	5.13399
1874.83	6.00763
1876.32	5.6614
1877.81	5.18941
1879.29	4.31083
1880.78	4.48575
1882.27	5.53723
1882.53	5.39486
1884.03	6.36579
1885.52	6.5499
1887.01	7.39626
1888.51	8.69357
1890	8.8406
1891.5	9.16213
1892.99	8.92975
1894.48	8.90754
1895.97	10.163
1897.47	10.323
1898.96	10.0053
1900.45	10.0854
1901.94	10.4082
1903.43	11.2504
1904.92	10.8027
1906.41	10.9524
1907.9	10.5281
1909.39	11.0449
1910.88	11.9206
1912.37	12.5431
1913.86	12.6246
1915.35	12.3854
1916.84	12.3137
1918.33	13.2168
1919.81	13.8071
1921.3	14.9567
1922.79	14.3994
1924.28	14.5554
1925.76	14.0204
1927.25	13.74
1928.73	15.1508
1930.22	15.0402
1931.71	15.5622
1933.19	15.9953
1934.68	14.969
1936.16	15.3765
1937.65	14.9943
1939.13	14.4607
1940.62	14.3423
1942.1	14.3348
1943.58	14.0021
1945.07	13.4181
1946.55	13.001
1948.03	12.7529
1949.51	12.2807
1951	11.7703
1952.48	10.4102
1953.96	9.84193
1955.44	9.17519
1956.92	7.9845
1958.4	8.04005
1959.88	6.6434
1961.36	5.17423
1962.84	5.42265
1964.32	4.84776
1965.8	4.79144
1967.28	3.52938
1968.76	4.08508
1970.24	3.50079
1971.72	3.19088
1973.2	3.43668
1974.67	3.72803
1976.15	3.14094
1977.63	4.21154
1979.1	4.92071
1980.58	5.36485
1982.06	6.19633
1983.54	5.21786
1985.01	4.35506
1986.49	4.46487
1987.96	4.52783
1989.44	5.13278
1990.91	6.03433
1992.39	7.32026
1993.86	6.62479
1995.33	6.63231
1996.81	6.16407
1998.28	7.1247
1999.75	8.00747
2001.23	8.16717
2002.7	9.109
2004.17	8.27209
2005.65	9.61472
2007.12	9.7547
2008.59	9.93844
2010.06	9.50513
2011.53	10.62
2013	9.99017
2014.47	10.2772
2015.94	9.63929
2017.41	9.49965
2018.88	10.1069
2020.35	10.8828
2021.82	11.5255
2023.29	11.4282
2024.76	11.762
2026.23	11.3286
2027.69	11.6717
2029.16	11.866
2030.63	12.1084
2032.1	11.2741
2033.56	11.1979
2035.03	11.4813
2036.5	12.7909
2037.96	11.8834
2039.43	12.2663
2040.89	11.788
2042.36	12.8343
2043.83	13.0542
2045.29	13.9873
2046.75	14.091
2048.22	13.034
2049.68	12.6635
2051.15	13.6381
2052.61	13.3661
2054.07	12.2903
2055.54	12.0823
2057	10.5359
2058.46	11.2721
2059.92	12.7517
2061.39	12.7374
2062.85	13.7491
2064.31	14.1099
2065.77	14.2461
2067.23	14.0759
2068.69	14.3618
2070.15	14.6049
2071.61	15.4867
2073.07	15.5146
2074.53	15.0703
2075.99	15.9671
2077.45	15.4054
2078.91	15.5719
2080.37	15.1148
2081.82	14.5168
2083.28	13.7064
2084.74	14.9489
2086.2	15.59
2087.65	16.0818
2089.11	15.9417
2090.57	16.8851
2092.02	17.1386
2093.48	18.6141
2094.94	19.0792
2096.39	18.6247
2097.85	18.3654
2099.3	17.6906
2100.76	16.9614
2102.21	16.8266
2103.66	16.2157
2105.12	15.2391
2106.57	15.1144
2108.03	14.9261
2109.48	15.7346
2110.93	15.9524
2112.38	16.0059
2113.84	14.3809
2115.29	14.8878
2116.74	14.2543
2118.19	13.0165
2119.64	12.4826
2121.09	11.1243
2122.54	10.9152
2123.99	10.4025
2125.45	10.1219
2126.89	8.6334
2128.34	9.24159
2129.79	8.19563
2131.24	8.50976
2132.69	9.01434
