#Acq. time (s)=	45
#Accumulations=	2
#Range (cm-¹)=	200...3150
#Windows=	2
#Auto scanning=	Off
#Autofocus=	Off
#Macrospot=	Off
#AutoExposure=	Off
#Spike filter=	Multiple accum.
#Delay time (s)=	0
#Binning=	1
#Readout mode=	Signal
#DeNoise=	Off
#ICS correction=	On
#Dark correction=	Off
#Inst. Process=	Off
#Detector Gain=	Best Dynamic Range
#Detector ADC=	20 kHz       
#Detector temperature (°C)=	-69.85
#Instrument=	LabRAM HR Evol
#Detector=	Synapse
#Objective=	x100
#Grating=	600 gr/mm
#ND Filter=	100%
#Laser (nm)=	532 
#Hole=	100.021
#Range=	Auto
#Laser Pol.=	No
#Raman. Pol.=	No
#Laser Pol. (°)=	-0.0007625
#Raman Pol. (°)=	89.9995
#Collection=	Microscope
#StageXY=	Marzhauser
#StageZ=	Marzhauser
#X (µm)=	-983.1
#Y (µm)=	-2933.7
#Z (µm)=	527.5
#Full time(mm:ss)=	3:18
#Project=	
#Sample=	
#Site=	
#Title=	Mb_00_13_03_2x_45s_532 nm_x100_100%_600 gr_mm
#Remark=	
#Date=	06.07.2022 09:54
#Acquired=	06.07.2022 09:54:28
#Base:Fit=	10.08.2022 10:16:36
#Base:Fit=	10.08.2022 10:16:56
#Base:Sub=	10.08.2022 10:17:24
#Filter:Polynom=	16.08.2022 10:36:38
#AxisType[0]=Intens
#AxisUnit[0]=Cnt
#AxisType[1]=Spectr
#AxisUnit[1]=1/cm
200.398	45.4575
202.213	35.793
204.027	27.6803
205.843	18.5089
207.657	10.951
209.47	5.5751
211.283	2.86217
213.097	1.97364
214.909	2.86989
216.721	6.78339
218.533	14.982
220.344	23.1197
222.157	32.313
223.967	41.9903
225.777	52.5164
227.587	63.5227
229.396	75.4856
231.205	86.8026
233.016	97.9152
234.824	107.871
236.632	116.438
238.439	125.736
240.247	133.083
242.053	139.834
243.86	146.23
245.666	151.11
247.474	158.875
249.279	166.503
251.085	172.69
252.889	178.783
254.694	182.681
256.498	185.384
258.301	187.119
260.105	188.869
261.908	189.315
263.71	187.435
265.513	185.569
267.315	183.569
269.116	180.382
270.918	176.005
272.718	170.098
274.519	162.907
276.319	156.761
278.119	148.498
279.918	139.327
281.718	129.644
283.516	120.016
285.315	108.116
287.113	98.8559
288.911	89.3105
290.708	81.2228
292.505	74.0953
294.302	65.8114
296.098	60.5451
297.894	55.6779
299.69	51.5333
301.485	46.8037
303.278	42.2756
305.073	39.6516
306.867	37.1109
308.661	35.3009
310.454	32.7996
312.247	29.316
314.04	27.0166
315.833	26.2049
317.623	25.2227
319.415	24.4568
321.206	23.7269
322.997	22.632
324.788	21.939
326.579	21.5813
328.367	20.7195
330.156	20.3887
331.946	19.3858
333.735	18.0351
335.523	17.0638
337.31	16.0721
339.098	14.7193
340.885	13.9746
342.673	12.6115
344.458	12.0982
346.244	9.47531
348.03	9.53193
349.816	10.0979
351.6	9.34669
353.385	8.45933
355.17	8.2202
356.953	8.6757
358.737	7.94787
360.521	11.125
362.304	13.844
364.085	17.2575
365.868	22.5096
367.65	25.7136
369.431	31.0891
371.212	35.7439
372.994	41.8042
374.773	46.5158
376.554	54.1485
378.332	61.71
380.112	70.4885
381.892	80.0205
383.669	89.5802
385.448	99.6759
387.225	110.345
389.003	120.34
390.781	130.154
392.557	138.053
394.334	147.6
396.109	155.382
397.885	164.385
399.66	169.982
401.436	174.571
403.211	181.104
404.984	185.937
406.759	188.646
408.532	191.002
410.306	192.592
412.078	192.191
413.851	191.366
415.623	188.407
417.395	184.687
419.166	182.108
420.938	175.487
422.708	169.299
424.477	162.825
426.248	155.524
428.017	147.715
429.788	139.298
431.556	129.69
433.326	120.121
435.093	108.95
436.86	99.4497
438.629	88.8771
440.395	76.6405
442.163	67.4414
443.929	58.8271
445.694	50.8878
447.461	43.104
449.226	36.3427
450.99	28.6977
452.756	20.9071
454.52	15.3111
456.285	9.26671
458.048	3.41949
459.811	-0.130937
461.573	-3.8237
463.337	-7.30057
465.099	-6.48752
466.86	-6.84663
468.623	-7.56969
470.384	-6.1048
472.144	-4.52652
473.906	-2.18985
475.666	0.200964
477.425	2.26307
479.184	3.32907
480.944	5.19176
482.703	9.71487
484.461	12.1764
486.218	15.5833
487.975	17.1953
489.734	20.8633
491.491	24.914
493.247	28.4552
495.003	31.6495
496.759	36.1573
498.516	38.5892
500.271	42.645
502.025	46.0305
503.779	49.9049
505.533	54.0382
507.287	57.3623
509.042	60.1476
510.795	63.1686
512.547	65.4949
514.299	68.2646
516.051	69.0276
517.803	70.7566
519.554	72.2657
521.305	72.6037
523.055	72.9969
524.805	72.0598
526.555	72.521
528.307	72.8037
530.056	74.526
531.805	73.9415
533.553	73.4187
535.301	73.8747
537.049	71.9208
538.797	70.5353
540.544	68.3713
542.291	66.0685
544.037	62.4
545.783	58.742
547.529	55.2404
549.275	51.9327
551.02	48.6981
552.765	46.5126
554.509	42.0944
556.253	40.54
557.997	39.2542
559.738	37.8024
561.482	35.9004
563.224	33.104
564.967	31.0543
566.709	29.6994
568.451	28.6536
570.192	27.6462
571.933	26.2463
573.674	24.4328
575.415	22.4989
577.153	21.7984
578.893	21.2536
580.632	19.3034
582.371	18.8151
584.11	17.777
585.849	16.0165
587.587	16.9836
589.323	16.6711
591.06	15.9244
592.797	14.6569
594.534	13.3791
596.271	12.1499
598.005	11.376
599.741	10.2806
601.476	11.5578
603.211	11.1581
604.944	10.1896
606.679	10.5616
608.413	10.9086
610.147	10.6427
611.878	10.9929
613.611	12.3413
615.344	11.898
617.077	12.3519
618.807	12.1667
620.539	13.5115
622.27	12.8811
623.999	12.4124
625.73	13.2839
627.461	15.3262
629.189	17.0096
630.919	19.0083
632.648	22.3682
634.376	23.5499
636.105	26.4594
637.833	28.6402
639.559	31.12
641.287	33.2393
643.013	35.4254
644.74	36.5436
646.467	39.3425
648.192	40.5475
649.918	41.1992
651.642	40.8202
653.368	43.21
655.091	42.3351
656.816	42.9639
658.538	41.9566
660.263	39.3229
661.987	38.6118
663.708	37.104
665.432	35.9368
667.153	34.7878
668.875	35.6418
670.596	33.4414
672.318	32.0916
674.037	30.9259
675.759	29.7185
677.478	27.2057
679.196	26.9712
680.917	27.0003
682.635	25.3353
684.355	25.301
686.072	23.673
687.791	23.5192
689.508	21.5924
691.224	18.9685
692.942	18.3992
694.658	15.9268
696.376	14.5927
698.091	13.2523
699.805	12.8791
701.522	12.7318
703.236	12.9731
704.95	12.7918
706.665	13.2592
708.379	12.8174
710.093	13.0036
711.806	13.823
713.518	14.4813
715.23	14.5647
716.943	14.8659
718.655	15.0216
720.366	15.6125
722.078	15.2872
723.788	15.4004
725.498	14.9351
727.208	15.4425
728.919	13.72
730.628	15.076
732.337	14.5612
734.045	12.8567
735.755	13.3303
737.463	14.4269
739.17	16.0253
740.877	15.972
742.584	17.4517
744.292	18.2938
745.998	20.08
747.704	23.4669
749.409	25.8781
751.114	28.9486
752.819	32.0357
754.526	34.6943
756.23	35.3018
757.934	37.9551
759.637	39.986
761.34	43.2679
763.043	45.9272
764.746	49.2926
766.448	51.5337
768.152	53.6675
769.853	56.0422
771.554	58.1324
773.255	61.4433
774.956	62.5163
776.656	63.5992
778.356	65.6662
780.056	68.063
781.755	69.7459
783.454	69.8826
785.153	71.1157
786.851	70.8689
788.549	71.3048
790.247	71.0089
791.944	69.6685
793.641	69.1814
795.338	68.0061
797.034	68.0537
798.73	67.2747
800.426	66.1426
802.121	64.7128
803.817	62.0278
805.511	60.0483
807.206	56.6392
808.9	55.8403
810.592	53.7087
812.286	53.0916
813.979	50.6516
815.672	50.7777
817.364	48.9724
819.057	48.6378
820.748	48.9524
822.44	48.9837
824.129	48.2457
825.82	47.0331
827.511	46.1189
829.201	44.3613
830.891	43.9275
832.581	43.0622
834.269	41.2887
835.958	40.0562
837.646	39.4722
839.335	38.0946
841.023	38.8297
842.709	38.5333
844.396	37.8329
846.084	38.3553
847.77	37.7462
849.455	37.2281
851.141	37.7007
852.827	36.6708
854.513	35.8251
856.196	36.2871
857.881	35.1572
859.566	32.0574
861.248	30.6351
862.932	29.6597
864.616	28.3061
866.297	26.2147
867.98	25.9655
869.663	25.1037
871.343	21.8295
873.026	20.4789
874.707	18.4069
876.387	17.99
878.068	18.1647
879.747	16.9308
881.428	15.4976
883.108	12.6906
884.786	12.1122
886.465	10.7254
888.143	8.86643
889.822	9.10815
891.498	8.30471
893.177	6.49484
894.855	7.11523
896.53	8.83499
898.208	7.73978
899.883	7.68547
901.56	7.7651
903.234	7.2772
904.91	7.76695
906.584	7.58098
908.26	7.34692
909.933	7.36649
911.608	8.16391
913.28	8.57645
914.955	10.6341
916.627	10.8936
918.298	12.722
919.972	14.843
921.643	16.7124
923.315	17.3312
924.986	19.9977
926.656	20.2622
928.328	22.0796
929.997	22.6551
931.668	24.6983
933.337	26.0863
935.006	27.6247
936.676	26.7739
938.344	27.667
940.012	27.9041
941.681	25.9737
943.348	26.2742
945.014	26.9079
946.683	27.6241
948.349	27.9988
950.015	28.9813
951.682	29.8781
953.347	28.9144
955.012	27.6865
956.676	28.0857
958.343	27.9417
960.006	28.1007
961.67	27.3831
963.333	28.7085
964.998	29.8361
966.661	31.0794
968.323	35.225
969.985	36.6378
971.649	38.8643
973.31	40.7767
974.971	42.7432
976.632	44.8825
978.293	48.3798
979.953	49.8418
981.615	49.9494
983.274	51.0305
984.933	51.9988
986.592	51.2671
988.251	52.9659
989.909	53.4209
991.567	54.0002
993.225	55.3883
994.884	57.0408
996.541	58.2264
998.198	59.7891
999.855	60.7215
1001.51	62.1619
1003.17	63.0473
1004.82	63.7708
1006.48	63.409
1008.13	64.6624
1009.79	61.866
1011.44	61.3091
1013.1	63.1617
1014.75	67.015
1016.4	69.249
1018.06	74.9393
1019.71	81.539
1021.36	91.3753
1023.01	101.132
1024.66	111.683
1026.32	123.446
1027.97	132.823
1029.62	144.076
1031.27	154.583
1032.92	162.366
1034.57	169.243
1036.22	175.748
1037.87	181.822
1039.52	188.605
1041.16	196.347
1042.81	201.331
1044.46	206.65
1046.11	211.789
1047.76	213.416
1049.4	215.229
1051.05	217.077
1052.7	215.983
1054.34	216.301
1055.99	215.287
1057.63	214.67
1059.28	211.507
1060.92	207.857
1062.57	203.484
1064.21	198.438
1065.85	191.94
1067.5	185.3
1069.14	177.663
1070.78	170.408
1072.43	161.717
1074.07	153.581
1075.71	144.508
1077.35	132.812
1078.99	121.615
1080.63	110.732
1082.27	99.6416
1083.91	88.9308
1085.55	78.5858
1087.19	67.5872
1088.83	57.193
1090.47	49.9706
1092.11	43.7949
1093.75	39.9409
1095.39	38.466
1097.03	36.1993
1098.66	35.2586
1100.3	36.8247
1101.94	36.4412
1103.57	36.0675
1105.21	35.1651
1106.84	34.2369
1108.48	31.9174
1110.11	30.1419
1111.75	29.4038
1113.38	25.7936
1115.02	22.4371
1116.65	20.7902
1118.29	18.0271
1119.92	16.9081
1121.55	15.4993
1123.19	12.991
1124.82	9.49187
1126.45	8.55272
1128.08	7.19385
1129.71	5.99503
1131.34	5.65071
1132.97	4.8786
1134.6	4.08045
1136.23	6.3078
1137.86	5.76173
1139.49	5.93574
1141.12	4.58737
1142.75	5.3637
1144.38	4.96185
1146.01	6.49937
1147.64	5.91862
1149.26	5.98186
1150.89	5.81707
1152.52	5.63854
1154.15	6.32605
1155.77	6.41509
1157.4	4.95103
1159.02	4.57055
1160.65	6.84408
1162.27	6.11683
1163.9	6.1645
1165.52	7.54942
1167.15	8.08965
1168.77	9.04809
1170.39	10.9615
1172.02	11.8943
1173.64	12.01
1175.26	11.5154
1176.89	13.4975
1178.51	14.6389
1180.13	15.9418
1181.75	16.9826
1183.37	17.0668
1184.99	20.1966
1186.61	22.9955
1188.23	25.3636
1189.85	27.3405
1191.47	29.0084
1193.09	31.3767
1194.71	33.6671
1196.33	36.751
1197.94	39.7438
1199.56	41.9219
1201.18	45.06
1202.8	46.8992
1204.41	49.7877
1206.03	53.0786
1207.65	57.4175
1209.26	60.9993
1210.88	64.5594
1212.49	67.9588
1214.11	71.4861
1215.72	74.8452
1217.34	80.3095
1218.95	83.5221
1220.57	87.7467
1222.18	91.6108
1223.79	94.9202
1225.41	98.5008
1227.02	102.036
1228.63	103.999
1230.24	107.533
1231.85	111.185
1233.47	112.959
1235.08	115.076
1236.69	116.93
1238.3	117.769
1239.91	118.499
1241.52	118.837
1243.13	119.478
1244.74	120.508
1246.34	122.347
1247.95	121.677
1249.56	121.371
1251.17	120.691
1252.78	118.358
1254.38	117.173
1255.99	116.121
1257.6	115.541
1259.2	114.948
1260.81	113.59
1262.42	111.593
1264.02	110.233
1265.63	110.564
1267.23	107.639
1268.84	105.901
1270.44	104.862
1272.04	103.091
1273.65	102.563
1275.25	101.963
1276.85	102.012
1278.46	101.394
1280.06	101.461
1281.66	101.51
1283.26	102.105
1284.86	102.925
1286.46	103.671
1288.07	103.984
1289.67	103.508
1291.27	104.215
1292.87	104.772
1294.47	107.149
1296.06	108.141
1297.66	110.074
1299.26	110.963
1300.86	112.088
1302.46	113.05
1304.06	114.658
1305.65	117.823
1307.25	120.053
1308.85	123.064
1310.44	124.915
1312.04	127.945
1313.64	129.115
1315.23	130.982
1316.83	131.857
1318.42	132.198
1320.02	132.684
1321.61	134.823
1323.2	136.398
1324.8	136.867
1326.39	137.738
1327.99	136.927
1329.58	136.868
1331.17	136.95
1332.76	136.024
1334.36	135.473
1335.95	134.96
1337.54	133.446
1339.13	131.945
1340.72	129.838
1342.31	127.024
1343.9	126.03
1345.49	124.529
1347.08	122.304
1348.67	122.075
1350.26	120.113
1351.85	118.333
1353.43	115.797
1355.02	115.266
1356.61	112.076
1358.2	107.729
1359.78	106.004
1361.37	101.806
1362.96	98.0878
1364.54	95.6274
1366.13	93.7715
1367.71	89.2292
1369.3	87.0258
1370.88	84.3297
1372.47	82.6476
1374.05	79.5464
1375.64	76.2654
1377.22	75.1026
1378.8	75.6574
1380.39	74.7191
1381.97	73.4455
1383.55	72.9358
1385.13	73.5367
1386.72	73.9793
1388.3	73.9044
1389.88	73.4111
1391.46	73.958
1393.04	72.9582
1394.62	72.0848
1396.2	70.5185
1397.78	71.5705
1399.36	72.7301
1400.94	75.4609
1402.52	76.7161
1404.1	79.9002
1405.68	82.3163
1407.25	85.5854
1408.83	87.446
1410.41	91.9092
1411.98	95.0394
1413.56	100.179
1415.14	106.117
1416.71	111.19
1418.29	118.177
1419.87	124.766
1421.44	131.758
1423.02	140.291
1424.59	147.679
1426.16	155.709
1427.74	163.711
1429.31	169.654
1430.89	177.439
1432.46	182.505
1434.03	189.465
1435.6	193.544
1437.18	197.988
1438.75	202.938
1440.32	205.666
1441.89	209.803
1443.46	212.779
1445.03	215.038
1446.6	214.729
1448.17	215.205
1449.74	214.588
1451.31	214.39
1452.88	212.181
1454.45	212.205
1456.02	210.309
1457.59	206.618
1459.16	200.457
1460.72	195.008
1462.29	190.402
1463.86	185.547
1465.43	178.463
1466.99	171.184
1468.56	163.694
1470.13	155.854
1471.69	148.963
1473.26	141.272
1474.82	134.167
1476.38	128.984
1477.95	120.845
1479.51	115.035
1481.08	107.557
1482.64	99.9712
1484.2	93.2437
1485.77	87.0797
1487.33	79.5035
1488.89	76.3213
1490.46	70.7986
1492.02	67.4856
1493.58	64.0059
1495.14	61.5524
1496.7	60.5507
1498.26	57.9816
1499.82	55.5278
1501.38	54.5028
1502.94	53.0685
1504.5	51.9922
1506.06	50.5423
1507.62	49.1529
1509.18	48.0249
1510.73	46.6931
1512.29	44.9587
1513.85	44.1658
1515.41	44.0993
1516.96	43.7215
1518.52	44.5132
1520.08	44.5651
1521.63	44.6611
1523.19	46.1513
1524.75	47.2173
1526.3	47.092
1527.85	48.4378
1529.41	49.5356
1530.96	50.105
1532.52	51.3005
1534.07	50.9763
1535.62	51.7147
1537.18	54.8611
1538.73	56.7378
1540.28	58.9339
1541.84	61.4252
1543.39	62.5583
1544.94	63.7978
1546.49	65.6679
1548.04	67.2056
1549.59	68.769
1551.14	69.2079
1552.69	69.8671
1554.25	70.7793
1555.79	71.4605
1557.34	73.8537
1558.89	73.8381
1560.44	74.3818
1561.99	75.7273
1563.54	76.1528
1565.08	76.3279
1566.63	78.7901
1568.18	80.4094
1569.73	83.1932
1571.27	85.7703
1572.82	87.7351
1574.37	89.5956
1575.91	91.6802
1577.46	93.4603
1579	96.7146
1580.55	98.7299
1582.09	100.287
1583.64	101.812
1585.18	104.543
1586.73	106.654
1588.27	108.289
1589.81	109.829
1591.35	112.691
1592.9	114.945
1594.44	116.72
1595.98	119.01
1597.52	119.896
1599.06	121.226
1600.61	121.653
1602.15	122.213
1603.69	121.151
1605.23	121.142
1606.77	121.391
1608.31	120.265
1609.85	121.055
1611.39	122.388
1612.93	123.494
1614.46	123.501
1616	122.411
1617.54	121.32
1619.08	120.752
1620.61	120.314
1622.15	120.134
1623.69	119.524
1625.23	119.197
1626.76	118.05
1628.3	118.345
1629.83	119.463
1631.37	120.292
1632.9	120.898
1634.44	121.982
1635.97	122.257
1637.51	123.198
1639.04	125.808
1640.57	127.813
1642.11	128.167
1643.64	131.083
1645.17	133.339
1646.71	134.797
1648.24	135.665
1649.77	137.761
1651.3	140.178
1652.83	140.816
1654.36	141.33
1655.89	142.559
1657.42	141.668
1658.96	141.45
1660.48	141.586
1662.01	141.59
1663.54	140.156
1665.07	139.14
1666.6	138.753
1668.13	136.654
1669.66	134.384
1671.19	130.796
1672.71	128.52
1674.24	126.03
1675.77	122.286
1677.29	118.543
1678.82	115.591
1680.35	110.172
1681.87	105.38
1683.4	101.268
1684.92	97.8203
1686.45	93.5806
1687.97	88.8395
1689.5	83.6967
1691.02	79.3393
1692.54	74.3162
1694.07	68.8789
1695.59	65.3237
1697.11	61.659
1698.64	57.3237
1700.16	53.1678
1701.68	48.9135
1703.2	46.3219
1704.72	43.9795
1706.25	41.7286
1707.77	38.8737
1709.29	35.8869
1710.81	34.2176
1712.33	31.8373
1713.85	31.1714
1715.37	29.3546
1716.89	26.6046
1718.41	23.8081
1719.92	23.7865
1721.44	21.0535
1722.96	19.6207
1724.48	18.5554
1725.99	18.1955
1727.51	17.8806
1729.03	16.0526
1730.55	15.2528
1732.06	15.5244
1733.58	14.9362
1735.09	15.5601
1736.61	15.4406
1738.13	15.7269
1739.64	16.2365
1741.15	16.6333
1742.67	15.7064
1744.18	15.3139
1745.7	15.4645
1747.21	15.6395
1748.72	17.9064
1750.24	16.1521
1751.75	15.8022
1753.26	16.0231
1754.77	16.3675
1756.29	15.2618
1757.8	16.0898
1759.31	16.3905
1760.82	16.7384
1762.33	15.4284
1763.84	16.1292
1765.35	15.8887
1766.86	15.4303
1768.37	14.2243
1769.88	13.3476
1771.39	13.3795
1772.9	12.9204
1774.4	13.1474
1775.91	11.8128
1777.42	11.0382
1778.93	12.1752
1780.44	10.1724
1781.94	9.55701
1783.45	9.53618
1784.96	9.14932
1786.46	9.11121
1787.97	9.34661
1789.47	9.47078
1790.98	8.3102
1792.48	8.49898
1793.99	8.45703
1795.49	8.347
1797	7.22848
1798.5	7.46349
1800.01	8.06777
1801.51	7.92124
1803.01	7.90117
1804.51	7.74949
1806.02	8.32577
1807.52	9.34828
1809.02	9.31453
1810.52	9.26179
1812.02	9.27546
1813.52	10.257
1815.02	9.66482
1816.53	9.68974
1818.03	9.63237
1819.52	9.57067
1821.02	8.79277
1822.52	8.98613
1824.02	9.78359
1825.52	8.50107
1827.02	9.28721
1828.52	8.66154
1830.02	8.57327
1831.51	8.05821
1833.01	8.94099
1834.51	8.30793
1836.01	7.65614
1837.5	7.75748
1839	8.26196
1840.49	8.56628
1841.99	8.306
1843.49	7.68967
1844.98	7.21597
1846.48	7.57887
1847.97	6.01823
1849.47	6.48409
1850.96	5.03642
1852.45	4.8877
1853.95	4.19
1855.44	4.46034
1856.93	5.14705
1858.42	4.92507
1859.92	5.14766
1861.41	4.76884
1862.9	5.06897
1864.39	4.34456
1865.88	4.76722
1867.38	4.98263
1868.87	4.75905
1870.36	4.11966
1871.85	4.11911
1873.34	5.44722
1874.83	6.26207
1876.32	5.26032
1877.81	5.32265
1879.29	5.53273
1880.78	6.0169
1882.27	6.15473
1882.53	6.91555
1884.03	7.1062
1885.52	7.80191
1887.01	7.98325
1888.51	7.66841
1890	7.86245
1891.5	7.91437
1892.99	8.34993
1894.48	8.92902
1895.97	10.294
1897.47	9.95273
1898.96	9.45817
1900.45	10.5594
1901.94	9.64144
1903.43	9.94847
1904.92	10.0089
1906.41	10.9378
1907.9	10.996
1909.39	11.7972
1910.88	12.8499
1912.37	12.2673
1913.86	11.2442
1915.35	9.71433
1916.84	9.52003
1918.33	8.72087
1919.81	7.8774
1921.3	6.20244
1922.79	7.55158
1924.28	7.12037
1925.76	5.89304
1927.25	6.17568
1928.73	7.53483
1930.22	6.07367
1931.71	6.037
1933.19	6.28392
1934.68	5.21978
1936.16	3.91553
1937.65	3.8026
1939.13	4.6676
1940.62	4.45857
1942.1	4.7878
1943.58	4.55274
1945.07	3.55424
1946.55	2.68
1948.03	1.63774
1949.51	0.381324
1951	0.452739
1952.48	1.52485
1953.96	2.54409
1955.44	1.8056
1956.92	2.86513
1958.4	2.98583
1959.88	2.87144
1961.36	1.94185
1962.84	2.32298
1964.32	2.31077
1965.8	3.11413
1967.28	2.84179
1968.76	3.12129
1970.24	3.76428
1971.72	3.70369
1973.2	3.7297
1974.67	4.23408
1976.15	3.02427
1977.63	4.06772
1979.1	3.79746
1980.58	4.33279
1982.06	4.71928
1983.54	3.556
1985.01	2.54477
1986.49	1.08692
1987.96	1.96727
1989.44	2.1451
1990.91	3.18212
1992.39	2.49801
1993.86	3.01846
1995.33	3.97567
1996.81	5.30481
1998.28	5.71449
1999.75	5.70004
2001.23	6.53236
2002.7	6.52321
2004.17	6.49746
2005.65	6.32098
2007.12	5.79441
2008.59	5.82441
2010.06	5.08231
2011.53	6.3307
2013	6.92113
2014.47	5.89789
2015.94	5.55728
2017.41	5.13794
2018.88	5.31598
2020.35	6.19688
2021.82	7.22922
2023.29	8.42215
2024.76	10.0643
2026.23	10.8131
2027.69	10.6222
2029.16	10.2378
2030.63	10.0001
2032.1	9.23093
2033.56	9.57454
2035.03	9.11431
2036.5	9.45921
2037.96	9.55529
2039.43	9.38831
2040.89	9.70504
2042.36	11.1633
2043.83	11.0465
2045.29	10.9457
2046.75	10.4386
2048.22	10.6258
2049.68	9.11344
2051.15	9.251
2052.61	9.65167
2054.07	10.9647
2055.54	11.1074
2057	10.6656
2058.46	11.4329
2059.92	11.5834
2061.39	12.1339
2062.85	12.9192
2064.31	13.442
2065.77	13.2852
2067.23	14.1328
2068.69	13.272
2070.15	12.3233
2071.61	13.9486
2073.07	12.7806
2074.53	12.188
2075.99	12.1041
2077.45	12.0921
2078.91	11.0153
2080.37	11.3142
2081.82	10.6372
2083.28	11.2171
2084.74	11.4973
2086.2	11.4688
2087.65	11.0437
2089.11	10.8282
2090.57	12.3752
2092.02	13.6671
2093.48	12.0964
2094.94	11.7642
2096.39	10.8707
2097.85	10.158
2099.3	8.85009
2100.76	8.56509
2102.21	8.30755
2103.66	7.07979
2105.12	6.3851
2106.57	6.9746
2108.03	4.9161
2109.48	4.58201
2110.93	4.34423
2112.38	4.44601
2113.84	5.22157
2115.29	4.29059
2116.74	3.5992
2118.19	4.6201
2119.64	4.69439
2121.09	5.03963
2122.54	6.24199
2123.99	7.95619
2125.45	8.79872
2126.89	8.92834
2128.34	9.33344
2129.79	9.02868
2131.24	9.90955
2132.69	9.42075
