#Acq. time (s)=	45
#Accumulations=	2
#Range (cm-¹)=	200...3150
#Windows=	2
#Auto scanning=	Off
#Autofocus=	Off
#Macrospot=	Off
#AutoExposure=	Off
#Spike filter=	Multiple accum.
#Delay time (s)=	0
#Binning=	1
#Readout mode=	Signal
#DeNoise=	Off
#ICS correction=	On
#Dark correction=	Off
#Inst. Process=	Off
#Detector Gain=	Best Dynamic Range
#Detector ADC=	20 kHz       
#Detector temperature (°C)=	-69.85
#Instrument=	LabRAM HR Evol
#Detector=	Synapse
#Objective=	x100
#Grating=	600 gr/mm
#ND Filter=	100%
#Laser (nm)=	532 
#Hole=	100.021
#Range=	Auto
#Laser Pol.=	No
#Raman. Pol.=	No
#Laser Pol. (°)=	-0.0007625
#Raman Pol. (°)=	89.9995
#Collection=	Microscope
#StageXY=	Marzhauser
#StageZ=	Marzhauser
#X (µm)=	-1015.4
#Y (µm)=	-2824.2
#Z (µm)=	528.6
#Full time(mm:ss)=	3:18
#Project=	
#Sample=	
#Site=	
#Title=	Mb_00_13_33_2x_45s_532 nm_x100_100%_600 gr_mm
#Remark=	
#Date=	06.07.2022 12:23
#Acquired=	06.07.2022 12:23:29
#Base:Fit=	10.08.2022 10:16:56
#Base:Sub=	10.08.2022 10:17:24
#Filter:Polynom=	16.08.2022 10:36:38
#AxisType[0]=Intens
#AxisUnit[0]=Cnt
#AxisType[1]=Spectr
#AxisUnit[1]=1/cm
200.398	10.369
202.213	8.1448
204.027	4.52788
205.843	2.5055
207.657	0.707799
209.47	-1.10903
211.283	-2.22524
213.097	-1.89935
214.909	-0.898743
216.721	1.01453
218.533	4.56174
220.344	9.39097
222.157	14.5017
223.967	22.0055
225.777	26.3776
227.587	30.4954
229.396	34.9982
231.205	39.1608
233.016	43.3288
234.824	47.4679
236.632	50.9931
238.439	54.2591
240.247	58.3306
242.053	61.2891
243.86	64.813
245.666	67.8314
247.474	72.541
249.279	76.1266
251.085	79.6838
252.889	81.6234
254.694	82.9351
256.498	83.9599
258.301	85.2832
260.105	86.8829
261.908	88.6682
263.71	88.8614
265.513	88.7865
267.315	87.869
269.116	85.4569
270.918	82.3258
272.718	80.5973
274.519	78.8844
276.319	77.2915
278.119	73.7502
279.918	70.1594
281.718	67.0333
283.516	61.7278
285.315	57.3913
287.113	52.5466
288.911	47.761
290.708	44.1321
292.505	41.3562
294.302	37.7258
296.098	32.7162
297.894	28.7746
299.69	27.05
301.485	25.0538
303.278	23.4631
305.073	21.6685
306.867	20.3057
308.661	18.8976
310.454	17.2633
312.247	16.5792
314.04	14.6755
315.833	11.4507
317.623	9.84629
319.415	8.37716
321.206	7.5006
322.997	7.13699
324.788	7.05773
326.579	7.134
328.367	6.07292
330.156	5.47683
331.946	5.03438
333.735	4.66693
335.523	4.04479
337.31	4.69208
339.098	3.31881
340.885	2.74942
342.673	2.24739
344.458	0.941377
346.244	0.238061
348.03	-0.444908
349.816	0.16209
351.6	-0.778353
353.385	-2.14975
355.17	-3.71672
356.953	-2.79224
358.737	-4.11887
360.521	-4.03565
362.304	-2.43241
364.085	-0.802804
365.868	1.51063
367.65	3.82574
369.431	7.26942
371.212	10.1132
372.994	11.7742
374.773	13.4152
376.554	15.3123
378.332	18.2343
380.112	22.1206
381.892	25.2079
383.669	29.2896
385.448	32.8771
387.225	39.3554
389.003	45.3089
390.781	50.2518
392.557	55.1397
394.334	59.5647
396.109	63.5125
397.885	66.8857
399.66	70.9402
401.436	73.8315
403.211	75.682
404.984	79.1601
406.759	80.7351
408.532	83.6139
410.306	85.0756
412.078	86.1875
413.851	86.2453
415.623	84.6861
417.395	82.7463
419.166	82.4822
420.938	81.683
422.708	79.8241
424.477	78.5617
426.248	76.2384
428.017	71.8314
429.788	68.4125
431.556	64.4669
433.326	59.546
435.093	55.4618
436.86	51.0202
438.629	45.741
440.395	39.6699
442.163	35.088
443.929	31.219
445.694	27.3099
447.461	22.3882
449.226	20.2611
450.99	16.7678
452.756	15.0481
454.52	12.6569
456.285	10.2696
458.048	6.899
459.811	3.29128
461.573	0.0102776
463.337	-0.581919
465.099	-0.942279
466.86	0.273856
468.623	0.474228
470.384	1.68286
472.144	3.7675
473.906	4.78809
475.666	7.67984
477.425	8.64297
479.184	8.93378
480.944	9.40936
482.703	10.3523
484.461	11.9628
486.218	13.78
487.975	15.7707
489.734	18.0292
491.491	20.8582
493.247	23.5712
495.003	23.2531
496.759	25.5672
498.516	26.5628
500.271	27.8414
502.025	28.3712
503.779	28.9222
505.533	30.7688
507.287	32.3157
509.042	32.6413
510.795	33.8802
512.547	35.259
514.299	35.3062
516.051	37.0601
517.803	37.9024
519.554	37.4343
521.305	37.7785
523.055	38.2974
524.805	37.2885
526.555	36.8739
528.307	35.9622
530.056	36.1908
531.805	35.1209
533.553	34.6267
535.301	33.9568
537.049	33.4236
538.797	32.2301
540.544	31.4536
542.291	30.0838
544.037	29.2281
545.783	27.4772
547.529	25.2709
549.275	23.7024
551.02	23.5723
552.765	22.308
554.509	21.9266
556.253	20.6152
557.997	21.4718
559.738	21.7007
561.482	21.0956
563.224	21.3268
564.967	20.0685
566.709	18.5774
568.451	17.9899
570.192	17.791
571.933	17.0016
573.674	16.5841
575.415	15.8002
577.153	15.2706
578.893	13.5118
580.632	12.7866
582.371	11.6575
584.11	11.6936
585.849	9.59433
587.587	8.24929
589.323	7.32072
591.06	7.25645
592.797	7.19538
594.534	7.48518
596.271	7.6302
598.005	9.18746
599.741	8.91581
601.476	9.19439
603.211	10.6069
604.944	10.0176
606.679	10.9968
608.413	11.5163
610.147	12.5471
611.878	12.2506
613.611	12.8806
615.344	12.6959
617.077	13.7868
618.807	12.5266
620.539	11.9713
622.27	12.6199
623.999	13.1608
625.73	14.1812
627.461	14.9296
629.189	16.6867
630.919	17.9036
632.648	18.6514
634.376	19.4996
636.105	22.2057
637.833	22.9942
639.559	24.5244
641.287	26.3431
643.013	27.3795
644.74	29.3567
646.467	29.8348
648.192	30.6517
649.918	30.8361
651.642	30.1993
653.368	29.1562
655.091	28.9065
656.816	29.4369
658.538	29.6456
660.263	29.865
661.987	29.1141
663.708	28.6636
665.432	28.9232
667.153	29.0074
668.875	27.9969
670.596	26.8266
672.318	26.1486
674.037	26.2067
675.759	26.0575
677.478	26.9222
679.196	26.5893
680.917	26.606
682.635	26.5034
684.355	26.4307
686.072	25.072
687.791	26.6007
689.508	26.7128
691.224	26.0293
692.942	25.8214
694.658	24.7603
696.376	25.2745
698.091	23.8687
699.805	22.9607
701.522	21.3368
703.236	20.8231
704.95	20.1234
706.665	20.7539
708.379	22.7887
710.093	21.7949
711.806	22.9316
713.518	23.3201
715.23	23.5388
716.943	22.539
718.655	22.1418
720.366	23.0993
722.078	23.6306
723.788	23.3154
725.498	23.99
727.208	23.6601
728.919	23.3059
730.628	23.7527
732.337	24.0439
734.045	24.1234
735.755	23.6398
737.463	24.7324
739.17	25.8299
740.877	27.1785
742.584	29.0855
744.292	30.8527
745.998	30.9659
747.704	32.9076
749.409	34.5216
751.114	36.3787
752.819	37.9193
754.526	40.3396
756.23	42.6173
757.934	44.5782
759.637	46.4408
761.34	48.4865
763.043	51.0922
764.746	52.1202
766.448	53.1261
768.152	54.6463
769.853	56.5811
771.554	57.6375
773.255	59.9066
774.956	60.563
776.656	60.0669
778.356	60.6993
780.056	61.3119
781.755	61.1301
783.454	62.1373
785.153	62.9463
786.851	63.6639
788.549	65.5929
790.247	66.5462
791.944	66.3378
793.641	67.0043
795.338	66.7736
797.034	67.545
798.73	67.0761
800.426	65.4561
802.121	63.9201
803.817	63.338
805.511	62.9698
807.206	61.9181
808.9	60.9153
810.592	59.1161
812.286	56.9937
813.979	57.0057
815.672	57.62
817.364	58.6532
819.057	57.1651
820.748	57.351
822.44	57.5297
824.129	57.496
825.82	55.5708
827.511	56.26
829.201	55.8207
830.891	55.3786
832.581	56.1314
834.269	54.7423
835.958	54.9616
837.646	53.8986
839.335	52.435
841.023	50.2436
842.709	48.4187
844.396	47.1606
846.084	46.3065
847.77	44.6638
849.455	43.1576
851.141	41.6025
852.827	40.7985
854.513	39.9537
856.196	38.1706
857.881	37.1912
859.566	35.3912
861.248	34.9804
862.932	34.7518
864.616	35.2097
866.297	35.0897
867.98	35.7969
869.663	34.3051
871.343	33.0242
873.026	32.4946
874.707	31.024
876.387	29.2005
878.068	28.261
879.747	27.2283
881.428	24.8991
883.108	23.5036
884.786	22.2041
886.465	20.4956
888.143	19.8161
889.822	18.1737
891.498	17.8454
893.177	16.1278
894.855	15.6623
896.53	15.8991
898.208	17.8729
899.883	18.0947
901.56	17.3164
903.234	16.9776
904.91	17.3565
906.584	16.7513
908.26	16.4079
909.933	15.4038
911.608	15.6691
913.28	14.8228
914.955	14.3737
916.627	13.5645
918.298	13.2757
919.972	13.2757
921.643	12.0614
923.315	12.8867
924.986	12.7819
926.656	12.4278
928.328	13.5729
929.997	13.9128
931.668	13.4525
933.337	15.0228
935.006	15.0103
936.676	16.3192
938.344	17.5479
940.012	18.6262
941.681	18.0193
943.348	17.8105
945.014	19.0125
946.683	18.105
948.349	19.7
950.015	18.0731
951.682	17.6664
953.347	16.7299
955.012	16.2978
956.676	15.7748
958.343	14.1966
960.006	12.572
961.67	12.3285
963.333	13.0323
964.998	12.2049
966.661	12.7501
968.323	12.7805
969.985	12.3479
971.649	11.9321
973.31	12.491
974.971	13.2416
976.632	12.9226
978.293	14.0786
979.953	15.052
981.615	15.5415
983.274	14.4926
984.933	13.8533
986.592	15.5275
988.251	15.7243
989.909	15.9881
991.567	15.9669
993.225	15.6789
994.884	16.505
996.541	16.7794
998.198	17.1477
999.855	17.6644
1001.51	16.9004
1003.17	17.0513
1004.82	18.197
1006.48	18.9536
1008.13	18.269
1009.79	19.5343
1011.44	22.018
1013.1	22.7445
1014.75	24.7938
1016.4	28.814
1018.06	32.3705
1019.71	36.4866
1021.36	40.7875
1023.01	44.9358
1024.66	48.9928
1026.32	54.8003
1027.97	59.9381
1029.62	65.2761
1031.27	68.5427
1032.92	71.1596
1034.57	75.5007
1036.22	78.3903
1037.87	80.8235
1039.52	82.5334
1041.16	84.3519
1042.81	88.1887
1044.46	90.7006
1046.11	91.8608
1047.76	91.2759
1049.4	90.7004
1051.05	90.5253
1052.7	89.0539
1054.34	87.3288
1055.99	87.2008
1057.63	85.3567
1059.28	84.1425
1060.92	80.9301
1062.57	78.4327
1064.21	74.2849
1065.85	70.3009
1067.5	67.4036
1069.14	64.9429
1070.78	59.7437
1072.43	54.2382
1074.07	49.5623
1075.71	44.7298
1077.35	38.784
1078.99	33.6941
1080.63	29.1805
1082.27	23.8197
1083.91	18.7113
1085.55	14.809
1087.19	10.6512
1088.83	6.62464
1090.47	3.66914
1092.11	2.41504
1093.75	1.96218
1095.39	1.53557
1097.03	2.91635
1098.66	3.90551
1100.3	4.59366
1101.94	6.3529
1103.57	7.77168
1105.21	7.93642
1106.84	8.28876
1108.48	9.45216
1110.11	9.15615
1111.75	10.078
1113.38	9.73298
1115.02	10.993
1116.65	10.8438
1118.29	10.1553
1119.92	9.9671
1121.55	9.29604
1123.19	9.69053
1124.82	9.37499
1126.45	8.73013
1128.08	8.87084
1129.71	9.66574
1131.34	9.50183
1132.97	10.7451
1134.6	11.0001
1136.23	11.6915
1137.86	11.5101
1139.49	11.7173
1141.12	11.4477
1142.75	11.2805
1144.38	11.7022
1146.01	11.4876
1147.64	11.4052
1149.26	10.7419
1150.89	10.2073
1152.52	9.22621
1154.15	8.9831
1155.77	8.03304
1157.4	5.24678
1159.02	4.46394
1160.65	5.51922
1162.27	4.6275
1163.9	2.75325
1165.52	1.74334
1167.15	1.67728
1168.77	0.777943
1170.39	1.85518
1172.02	1.97234
1173.64	2.6347
1175.26	3.82896
1176.89	4.63563
1178.51	4.6787
1180.13	4.75112
1181.75	5.71486
1183.37	4.95297
1184.99	4.65571
1186.61	5.27068
1188.23	5.60957
1189.85	6.14435
1191.47	6.02607
1193.09	7.73144
1194.71	7.37523
1196.33	6.97227
1197.94	6.8285
1199.56	6.63123
1201.18	8.91885
1202.8	10.6219
1204.41	12.2207
1206.03	13.5332
1207.65	17.5575
1209.26	18.1098
1210.88	20.9086
1212.49	22.5878
1214.11	25.1678
1215.72	26.8884
1217.34	28.6245
1218.95	30.4162
1220.57	33.5836
1222.18	35.0997
1223.79	35.8805
1225.41	36.7431
1227.02	37.6998
1228.63	38.9757
1230.24	40.8354
1231.85	43.3253
1233.47	43.4227
1235.08	44.0517
1236.69	43.1937
1238.3	44.0775
1239.91	45.321
1241.52	45.5614
1243.13	45.3806
1244.74	45.4697
1246.34	46.7305
1247.95	47.7969
1249.56	48.7709
1251.17	49.5845
1252.78	48.3989
1254.38	49.3172
1255.99	49.3199
1257.6	47.7256
1259.2	46.1818
1260.81	45.5236
1262.42	43.8754
1264.02	41.7745
1265.63	42.5228
1267.23	42.0042
1268.84	39.932
1270.44	40.2866
1272.04	39.6624
1273.65	38.6458
1275.25	37.9393
1276.85	38.4297
1278.46	39.1493
1280.06	41.3243
1281.66	42.9888
1283.26	42.6958
1284.86	41.474
1286.46	42.8181
1288.07	45.5198
1289.67	47.0685
1291.27	49.2145
1292.87	50.0474
1294.47	51.4
1296.06	53.2673
1297.66	54.8565
1299.26	56.856
1300.86	57.866
1302.46	58.7765
1304.06	59.7297
1305.65	61.8229
1307.25	62.8444
1308.85	65.592
1310.44	66.8234
1312.04	67.2927
1313.64	67.0836
1315.23	67.5773
1316.83	68.0675
1318.42	70.443
1320.02	71.4909
1321.61	71.3025
1323.2	72.494
1324.8	72.1421
1326.39	71.8509
1327.99	71.475
1329.58	71.3282
1331.17	69.0187
1332.76	68.7764
1334.36	69.6745
1335.95	68.3773
1337.54	66.9274
1339.13	67.215
1340.72	67.3298
1342.31	67.3453
1343.9	67.6594
1345.49	68.2003
1347.08	67.1237
1348.67	66.3199
1350.26	65.5977
1351.85	64.4709
1353.43	63.7136
1355.02	63.2593
1356.61	63.0299
1358.2	61.4987
1359.78	60.5676
1361.37	59.2015
1362.96	58.4379
1364.54	57.969
1366.13	58.8511
1367.71	59.2772
1369.3	59.0303
1370.88	57.7407
1372.47	57.5977
1374.05	56.8609
1375.64	56.1555
1377.22	54.1956
1378.8	53.7188
1380.39	54.2047
1381.97	53.4101
1383.55	53.6273
1385.13	53.406
1386.72	52.9195
1388.3	53.4941
1389.88	52.4373
1391.46	50.6925
1393.04	50.2228
1394.62	48.6158
1396.2	49.3671
1397.78	49.1146
1399.36	48.6586
1400.94	47.5597
1402.52	49.7977
1404.1	51.0007
1405.68	52.2784
1407.25	53.2455
1408.83	54.7835
1410.41	56.0487
1411.98	59.2628
1413.56	62.7988
1415.14	65.1224
1416.71	68.2756
1418.29	72.1044
1419.87	74.8319
1421.44	76.9637
1423.02	79.0997
1424.59	80.9869
1426.16	82.6771
1427.74	85.5845
1429.31	88.5113
1430.89	91.942
1432.46	95.6749
1434.03	98.5502
1435.6	101.47
1437.18	104.252
1438.75	107.995
1440.32	109.646
1441.89	110.446
1443.46	110.446
1445.03	111.832
1446.6	111.725
1448.17	112.072
1449.74	111.078
1451.31	110.236
1452.88	110.451
1454.45	109.379
1456.02	107.943
1457.59	107.406
1459.16	106.196
1460.72	102.718
1462.29	101.368
1463.86	98.1779
1465.43	94.543
1466.99	91.0989
1468.56	87.8456
1470.13	84.1584
1471.69	81.9821
1473.26	79.0499
1474.82	76.9168
1476.38	73.8798
1477.95	71.2372
1479.51	67.9395
1481.08	64.9009
1482.64	61.9514
1484.2	58.033
1485.77	54.7881
1487.33	52.3952
1488.89	48.9344
1490.46	46.7279
1492.02	44.8679
1493.58	42.373
1495.14	40.7621
1496.7	37.8785
1498.26	34.8176
1499.82	33.2787
1501.38	32.3509
1502.94	31.2577
1504.5	30.8361
1506.06	31.1415
1507.62	30.2369
1509.18	28.7541
1510.73	28.6598
1512.29	25.4181
1513.85	24.7916
1515.41	24.5748
1516.96	22.3077
1518.52	20.5073
1520.08	20.3881
1521.63	18.7989
1523.19	20.3958
1524.75	19.9915
1526.3	20.4993
1527.85	19.3931
1529.41	20.3442
1530.96	20.6096
1532.52	19.2243
1534.07	20.1648
1535.62	20.9757
1537.18	21.3333
1538.73	21.6539
1540.28	21.8977
1541.84	21.6632
1543.39	22.8692
1544.94	23.8588
1546.49	24.4888
1548.04	24.7345
1549.59	25.6686
1551.14	26.8579
1552.69	26.7936
1554.25	26.6271
1555.79	27.389
1557.34	29.6216
1558.89	30.7697
1560.44	31.6505
1561.99	33.2267
1563.54	33.5645
1565.08	36.4179
1566.63	37.7153
1568.18	40.7569
1569.73	43.4729
1571.27	45.857
1572.82	48.1267
1574.37	48.6084
1575.91	50.9011
1577.46	54.6553
1579	56.4087
1580.55	57.8003
1582.09	59.0369
1583.64	59.5742
1585.18	60.8017
1586.73	60.7853
1588.27	62.4979
1589.81	61.6536
1591.35	64.606
1592.9	65.4154
1594.44	65.9924
1595.98	67.2397
1597.52	67.3063
1599.06	67.5126
1600.61	68.41
1602.15	66.9628
1603.69	66.74
1605.23	66.267
1606.77	65.6578
1608.31	65.3109
1609.85	65.0937
1611.39	64.2335
1612.93	62.5005
1614.46	62.2889
1616	62.3746
1617.54	61.1209
1619.08	59.5438
1620.61	58.7847
1622.15	57.4472
1623.69	56.3659
1625.23	56.745
1626.76	55.6477
1628.3	55.6053
1629.83	55.5632
1631.37	56.1636
1632.9	56.425
1634.44	56.7704
1635.97	56.6299
1637.51	55.7685
1639.04	56.8638
1640.57	56.9058
1642.11	57.9441
1643.64	58.81
1645.17	60.7223
1646.71	61.4631
1648.24	62.0723
1649.77	63.3
1651.3	63.8333
1652.83	64.8367
1654.36	64.7515
1655.89	65.8281
1657.42	67.3073
1658.96	66.2669
1660.48	66.1259
1662.01	66.1844
1663.54	65.5945
1665.07	66.1401
1666.6	66.3598
1668.13	67.7425
1669.66	65.6668
1671.19	64.5558
1672.71	63.4342
1674.24	62.5268
1675.77	61.3109
1677.29	58.5568
1678.82	57.0014
1680.35	55.6818
1681.87	52.6229
1683.4	50.5773
1684.92	49.1646
1686.45	46.3991
1687.97	43.626
1689.5	41.9885
1691.02	39.8475
1692.54	36.5923
1694.07	33.3441
1695.59	30.1792
1697.11	26.965
1698.64	24.6349
1700.16	21.69
1701.68	20.2337
1703.2	17.2436
1704.72	15.92
1706.25	13.3852
1707.77	11.8342
1709.29	9.4909
1710.81	8.5708
1712.33	7.11029
1713.85	4.53238
1715.37	4.35296
1716.89	3.9864
1718.41	3.46127
1719.92	4.10828
1721.44	3.49592
1722.96	2.36612
1724.48	2.39511
1725.99	2.48546
1727.51	1.41753
1729.03	1.37901
1730.55	2.52988
1732.06	3.96931
1733.58	2.46512
1735.09	1.26454
1736.61	2.36915
1738.13	2.36958
1739.64	2.21409
1741.15	2.60123
1742.67	3.63736
1744.18	3.37743
1745.7	2.94856
1747.21	3.86949
1748.72	4.42526
1750.24	4.05279
1751.75	3.42454
1753.26	4.06551
1754.77	4.6922
1756.29	4.43089
1757.8	4.04054
1759.31	4.92888
1760.82	4.44267
1762.33	4.32358
1763.84	4.24424
1765.35	3.24776
1766.86	2.89001
1768.37	2.50382
1769.88	2.52261
1771.39	2.26278
1772.9	1.94656
1774.4	3.00085
1775.91	3.10577
1777.42	3.87705
1778.93	3.59674
1780.44	3.09287
1781.94	3.35725
1783.45	4.22281
1784.96	3.7683
1786.46	3.90514
1787.97	3.14492
1789.47	3.62746
1790.98	3.36409
1792.48	3.05195
1793.99	2.81424
1795.49	2.35523
1797	2.58646
1798.5	2.25377
1800.01	2.31895
1801.51	1.91178
1803.01	3.11047
1804.51	3.98389
1806.02	3.87239
1807.52	3.07729
1809.02	2.65676
1810.52	2.52217
1812.02	2.27671
1813.52	1.46026
1815.02	1.38412
1816.53	2.26967
1818.03	2.55596
1819.52	3.03657
1821.02	3.3363
1822.52	3.5588
1824.02	3.67162
1825.52	3.84919
1827.02	5.06852
1828.52	5.68351
1830.02	5.52368
1831.51	5.66678
1833.01	6.90619
1834.51	6.73045
1836.01	6.25652
1837.5	6.7932
1839	6.23295
1840.49	5.29618
1841.99	6.35473
1843.49	6.37321
1844.98	6.78123
1846.48	6.63357
1847.97	5.90984
1849.47	6.48134
1850.96	7.14368
1852.45	6.72053
1853.95	6.05994
1855.44	6.86785
1856.93	8.19151
1858.42	7.9217
1859.92	7.76391
1861.41	8.11009
1862.9	7.81905
1864.39	7.56199
1865.88	7.68449
1867.38	7.94988
1868.87	8.55087
1870.36	9.46602
1871.85	9.7049
1873.34	9.03564
1874.83	9.11825
1876.32	8.92849
1877.81	8.94146
1879.29	7.94636
1880.78	7.09769
1882.27	5.82965
1882.53	5.33178
1884.03	4.66228
1885.52	4.36267
1887.01	4.54939
1888.51	4.92327
1890	4.42996
1891.5	4.50032
1892.99	4.63032
1894.48	4.77577
1895.97	5.15427
1897.47	4.45073
1898.96	3.91044
1900.45	3.94876
1901.94	3.77302
1903.43	4.51257
1904.92	5.84805
1906.41	6.44793
1907.9	5.02238
1909.39	5.97239
1910.88	6.05436
1912.37	6.25846
1913.86	6.47315
1915.35	7.86195
1916.84	7.00841
1918.33	6.93922
1919.81	7.77196
1921.3	7.45289
1922.79	8.48493
1924.28	9.46851
1925.76	9.39884
1927.25	10.7945
1928.73	11.1442
1930.22	10.9078
1931.71	10.5846
1933.19	10.6617
1934.68	10.04
1936.16	10.7448
1937.65	10.8359
1939.13	10.986
1940.62	11.0597
1942.1	10.9023
1943.58	10.3633
1945.07	9.6574
1946.55	10.4305
1948.03	10.4203
1949.51	9.92831
1951	9.88101
1952.48	9.77641
1953.96	9.30795
1955.44	8.59934
1956.92	8.12231
1958.4	6.81189
1959.88	5.60185
1961.36	5.13014
1962.84	4.64335
1964.32	3.93489
1965.8	4.29006
1967.28	3.97442
1968.76	3.36862
1970.24	2.70849
1971.72	3.24016
1973.2	3.23919
1974.67	3.67244
1976.15	4.43063
1977.63	5.82672
1979.1	5.68535
1980.58	4.666
1982.06	5.04067
1983.54	5.41902
1985.01	5.08172
1986.49	5.82092
1987.96	5.43459
1989.44	6.77684
1990.91	5.90384
1992.39	7.69662
1993.86	8.47414
1995.33	8.95232
1996.81	9.48102
1998.28	10.0039
1999.75	10.3035
2001.23	8.86867
2002.7	9.12232
2004.17	10.2838
2005.65	10.3248
2007.12	10.3086
2008.59	10.4607
2010.06	12.2875
2011.53	11.9455
2013	12.0288
2014.47	13.4469
2015.94	13.2123
2017.41	14.1129
2018.88	14.7209
2020.35	14.6323
2021.82	14.2023
2023.29	13.5062
2024.76	13.0387
2026.23	12.5288
2027.69	11.1661
2029.16	9.62209
2030.63	8.86773
2032.1	8.32581
2033.56	8.53388
2035.03	7.65489
2036.5	6.78411
2037.96	6.0008
2039.43	4.87756
2040.89	3.77371
2042.36	4.50158
2043.83	4.37084
2045.29	4.46098
2046.75	2.10163
2048.22	2.77966
2049.68	3.31609
2051.15	3.02973
2052.61	1.83544
2054.07	3.4606
2055.54	3.72378
2057	3.40981
2058.46	4.18891
2059.92	3.97293
2061.39	3.50647
2062.85	4.39999
2064.31	4.10372
2065.77	4.78471
2067.23	5.08459
2068.69	4.91577
2070.15	4.76663
2071.61	6.18483
2073.07	6.45138
2074.53	5.49181
2075.99	7.69673
2077.45	7.6705
2078.91	7.30018
2080.37	8.45936
2081.82	9.14592
2083.28	9.72403
2084.74	8.99619
2086.2	9.44891
2087.65	9.42182
2089.11	9.83898
2090.57	9.16981
2092.02	8.3157
2093.48	7.90431
2094.94	8.36875
2096.39	7.91791
2097.85	7.14611
2099.3	6.35734
2100.76	6.14958
2102.21	5.88121
2103.66	6.45356
2105.12	5.30198
2106.57	4.55911
2108.03	4.04732
2109.48	3.875
2110.93	4.12653
2112.38	3.60475
2113.84	3.52295
2115.29	3.49705
2116.74	3.31024
2118.19	3.06659
2119.64	2.77122
2121.09	4.35944
2122.54	3.74765
2123.99	2.91598
2125.45	4.11686
2126.89	4.5653
2128.34	2.92973
2129.79	2.66149
2131.24	2.97048
2132.69	2.25946
