#Acq. time (s)=	45
#Accumulations=	2
#Range (cm-¹)=	200...3150
#Windows=	2
#Auto scanning=	Off
#Autofocus=	Off
#Macrospot=	Off
#AutoExposure=	Off
#Spike filter=	Multiple accum.
#Delay time (s)=	0
#Binning=	1
#Readout mode=	Signal
#DeNoise=	Off
#ICS correction=	On
#Dark correction=	Off
#Inst. Process=	Off
#Detector Gain=	Best Dynamic Range
#Detector ADC=	20 kHz       
#Detector temperature (°C)=	-69.85
#Instrument=	LabRAM HR Evol
#Detector=	Synapse
#Objective=	x100
#Grating=	600 gr/mm
#ND Filter=	100%
#Laser (nm)=	532 
#Hole=	100.021
#Range=	Auto
#Laser Pol.=	No
#Raman. Pol.=	No
#Laser Pol. (°)=	-0.0007625
#Raman Pol. (°)=	89.9995
#Collection=	Microscope
#StageXY=	Marzhauser
#StageZ=	Marzhauser
#X (µm)=	-1019.8
#Y (µm)=	-2910.4
#Z (µm)=	528.1
#Full time(mm:ss)=	3:18
#Project=	
#Sample=	
#Site=	
#Title=	Mb_00_13_16_2x_45s_532 nm_x100_100%_600 gr_mm
#Remark=	
#Date=	06.07.2022 10:45
#Acquired=	06.07.2022 10:45:35
#Base:Fit=	10.08.2022 10:16:56
#Base:Sub=	10.08.2022 10:17:24
#Filter:Polynom=	16.08.2022 10:36:38
#AxisType[0]=Intens
#AxisUnit[0]=Cnt
#AxisType[1]=Spectr
#AxisUnit[1]=1/cm
200.398	3.5494
202.213	8.19285
204.027	10.9633
205.843	10.7932
207.657	10.3168
209.47	10.2037
211.283	11.3934
213.097	12.1419
214.909	14.3185
216.721	16.7472
218.533	20.8294
220.344	25.7799
222.157	31.3723
223.967	37.1108
225.777	43.1926
227.587	48.7402
229.396	55.8294
231.205	61.6476
233.016	68.1684
234.824	73.6531
236.632	80.0526
238.439	86.5305
240.247	92.4856
242.053	95.5049
243.86	99.1602
245.666	102.805
247.474	106.29
249.279	109.259
251.085	110.818
252.889	113.989
254.694	118.134
256.498	120.365
258.301	120.705
260.105	120.803
261.908	120.869
263.71	120.16
265.513	119.969
267.315	118.414
269.116	117.47
270.918	114.243
272.718	112.116
274.519	110.249
276.319	105.901
278.119	102.806
279.918	98.5081
281.718	94.8166
283.516	89.9556
285.315	84.7719
287.113	79.0457
288.911	74.4721
290.708	68.5945
292.505	63.5807
294.302	59.22
296.098	56.7152
297.894	53.3809
299.69	51.929
301.485	49.3514
303.278	45.7084
305.073	44.9175
306.867	43.2937
308.661	42.3275
310.454	40.6089
312.247	38.522
314.04	36.1303
315.833	35.8785
317.623	34.688
319.415	35.1026
321.206	33.5339
322.997	33.1802
324.788	32.3875
326.579	32.0099
328.367	30.8214
330.156	29.1912
331.946	26.8696
333.735	26.3998
335.523	25.2972
337.31	23.8852
339.098	22.0165
340.885	20.647
342.673	20.5587
344.458	20.0975
346.244	19.0386
348.03	16.4297
349.816	16.2584
351.6	14.3765
353.385	13.9336
355.17	13.1876
356.953	12.8532
358.737	13.7722
360.521	13.6338
362.304	15.4139
364.085	16.7232
365.868	18.6283
367.65	21.1948
369.431	23.7809
371.212	26.7528
372.994	29.4149
374.773	33.2674
376.554	36.6822
378.332	41.3277
380.112	45.2537
381.892	51.9789
383.669	58.2585
385.448	65.7124
387.225	72.0523
389.003	80.0599
390.781	86.1522
392.557	92.2222
394.334	98.3189
396.109	103.874
397.885	109.121
399.66	113.328
401.436	117.351
403.211	120.986
404.984	124.517
406.759	126.698
408.532	129.517
410.306	131.025
412.078	131.809
413.851	131.629
415.623	131.399
417.395	130.595
419.166	128.692
420.938	126.099
422.708	123.336
424.477	121.159
426.248	117.47
428.017	113.104
429.788	109.156
431.556	103.331
433.326	97.3957
435.093	92.2013
436.86	85.6504
438.629	80.1295
440.395	74.08
442.163	68.4256
443.929	62.5579
445.694	57.0792
447.461	52.4923
449.226	47.2325
450.99	42.9622
452.756	39.3677
454.52	35.9404
456.285	33.1878
458.048	31.7034
459.811	29.3814
461.573	27.3336
463.337	25.8513
465.099	24.3547
466.86	24.8934
468.623	26.4305
470.384	28.0101
472.144	29.1433
473.906	30.5815
475.666	30.9936
477.425	32.0442
479.184	32.318
480.944	33.2463
482.703	34.2633
484.461	34.9247
486.218	34.1345
487.975	34.4648
489.734	34.9862
491.491	35.3075
493.247	36.4936
495.003	38.3104
496.759	39.905
498.516	40.0295
500.271	40.0468
502.025	40.2854
503.779	41.5034
505.533	41.6015
507.287	42.3353
509.042	43.2298
510.795	43.3481
512.547	44.3278
514.299	44.4439
516.051	44.8643
517.803	44.6243
519.554	44.7577
521.305	47.0291
523.055	47.4725
524.805	48.1265
526.555	47.4981
528.307	47.3182
530.056	46.7396
531.805	47.4523
533.553	48.6637
535.301	49.4863
537.049	48.9319
538.797	48.9925
540.544	48.1476
542.291	47.3901
544.037	47.2445
545.783	46.1647
547.529	43.8578
549.275	41.9537
551.02	41.6819
552.765	40.0283
554.509	40.0845
556.253	38.6589
557.997	37.6763
559.738	36.8944
561.482	35.7759
563.224	34.3523
564.967	32.6404
566.709	31.1737
568.451	30.3657
570.192	28.9956
571.933	26.0132
573.674	24.4526
575.415	23.6273
577.153	22.5316
578.893	21.2974
580.632	19.8372
582.371	19.0553
584.11	16.9231
585.849	15.3948
587.587	14.2799
589.323	14.1432
591.06	14.5438
592.797	13.6527
594.534	13.9571
596.271	13.6761
598.005	12.8669
599.741	12.3435
601.476	12.7364
603.211	11.9961
604.944	11.727
606.679	12.7169
608.413	12.8523
610.147	11.6198
611.878	12.2371
613.611	12.6272
615.344	13.2669
617.077	13.3338
618.807	13.9668
620.539	14.6221
622.27	13.7284
623.999	13.1573
625.73	13.1644
627.461	14.5286
629.189	16.6778
630.919	17.4607
632.648	18.8642
634.376	20.6475
636.105	21.8773
637.833	23.4455
639.559	23.9741
641.287	25.9026
643.013	26.7307
644.74	28.0133
646.467	28.5158
648.192	28.5226
649.918	27.2589
651.642	25.7311
653.368	25.5717
655.091	25.3015
656.816	24.2549
658.538	23.4885
660.263	22.4476
661.987	22.3001
663.708	21.7551
665.432	19.9016
667.153	19.1871
668.875	18.1176
670.596	17.9033
672.318	19.2223
674.037	18.6523
675.759	19.0093
677.478	18.1685
679.196	17.9239
680.917	16.9642
682.635	15.4872
684.355	14.9335
686.072	14.2502
687.791	15.8789
689.508	14.3417
691.224	14.31
692.942	14.5712
694.658	13.7769
696.376	12.8219
698.091	12.0335
699.805	11.3079
701.522	10.6403
703.236	10.7096
704.95	11.5754
706.665	10.3901
708.379	10.6659
710.093	11.6632
711.806	13.145
713.518	15.3329
715.23	16.4708
716.943	15.8422
718.655	16.3734
720.366	17.5915
722.078	17.9474
723.788	19.4454
725.498	20.825
727.208	21.9278
728.919	22.1826
730.628	22.5395
732.337	23.2247
734.045	23.557
735.755	22.5919
737.463	24.327
739.17	25.499
740.877	26.9079
742.584	27.4244
744.292	29.0699
745.998	29.2891
747.704	31.3187
749.409	31.629
751.114	32.8021
752.819	33.8518
754.526	34.5625
756.23	36.71
757.934	36.8519
759.637	36.9356
761.34	38.4869
763.043	39.3211
764.746	40.5744
766.448	40.4675
768.152	41.07
769.853	42.672
771.554	43.2682
773.255	44.0586
774.956	42.951
776.656	43.3505
778.356	44.1135
780.056	42.7127
781.755	41.4445
783.454	41.4143
785.153	41.9511
786.851	44.2552
788.549	44.2298
790.247	42.7709
791.944	41.7038
793.641	44.0654
795.338	44.8057
797.034	45.2159
798.73	45.6857
800.426	44.4719
802.121	44.289
803.817	46.0144
805.511	46.5926
807.206	46.8913
808.9	47.6427
810.592	47.4006
812.286	47.7294
813.979	47.2742
815.672	47.8748
817.364	49.5394
819.057	50.0141
820.748	50.2841
822.44	52.2409
824.129	52.0456
825.82	51.6463
827.511	51.8519
829.201	52.9574
830.891	52.9711
832.581	52.7792
834.269	52.3481
835.958	52.8288
837.646	50.9914
839.335	49.9016
841.023	49.2181
842.709	47.5683
844.396	47.4901
846.084	47.4869
847.77	46.3519
849.455	46.4884
851.141	45.9473
852.827	45.7227
854.513	44.7397
856.196	43.2769
857.881	41.6642
859.566	39.8999
861.248	39.4235
862.932	38.1587
864.616	35.3818
866.297	33.7485
867.98	32.7153
869.663	31.3217
871.343	29.7027
873.026	25.3956
874.707	22.572
876.387	23.4131
878.068	22.6199
879.747	20.1044
881.428	17.7729
883.108	15.5615
884.786	15.0904
886.465	15.1144
888.143	14.5311
889.822	12.7849
891.498	13.2322
893.177	12.9838
894.855	12.8769
896.53	13.2563
898.208	12.7571
899.883	13.0655
901.56	14.3155
903.234	13.4984
904.91	13.1382
906.584	12.3328
908.26	12.6738
909.933	13.9217
911.608	15.1825
913.28	16.6369
914.955	18.0311
916.627	18.4447
918.298	19.6028
919.972	20.7801
921.643	20.5771
923.315	21.2348
924.986	23.5392
926.656	25.4115
928.328	26.5677
929.997	27.3455
931.668	27.9228
933.337	27.902
935.006	28.145
936.676	26.728
938.344	25.314
940.012	25.2967
941.681	24.3657
943.348	23.0165
945.014	22.6038
946.683	20.1369
948.349	18.5163
950.015	16.8456
951.682	16.5612
953.347	14.6072
955.012	13.0887
956.676	10.7463
958.343	9.76001
960.006	8.69685
961.67	6.24588
963.333	6.87933
964.998	6.73556
966.661	7.99863
968.323	9.88999
969.985	12.4888
971.649	15.6081
973.31	19.7694
974.971	26.4085
976.632	33.0029
978.293	39.5973
979.953	46.599
981.615	52.9395
983.274	59.3788
984.933	66.9439
986.592	72.3582
988.251	79.3466
989.909	85.1901
991.567	91.9363
993.225	97.1583
994.884	100.225
996.541	105.014
998.198	108.993
999.855	111.629
1001.51	113.755
1003.17	114.931
1004.82	114.809
1006.48	114.497
1008.13	115.73
1009.79	114.298
1011.44	111.163
1013.1	110.118
1014.75	109.309
1016.4	108.491
1018.06	110.763
1019.71	111.667
1021.36	113.729
1023.01	116.599
1024.66	118.07
1026.32	119.253
1027.97	121.312
1029.62	122.896
1031.27	123.822
1032.92	123.609
1034.57	123.277
1036.22	121.823
1037.87	120.944
1039.52	120.167
1041.16	120.41
1042.81	120.3
1044.46	121.197
1046.11	121.355
1047.76	120.826
1049.4	122.289
1051.05	123.492
1052.7	125.239
1054.34	125.794
1055.99	126.789
1057.63	126.698
1059.28	125.326
1060.92	123.532
1062.57	120.441
1064.21	115.867
1065.85	112.978
1067.5	109.615
1069.14	104.148
1070.78	99.9971
1072.43	94.2567
1074.07	89.1305
1075.71	81.8221
1077.35	74.6898
1078.99	68.1506
1080.63	61.7074
1082.27	53.0743
1083.91	45.5452
1085.55	38.8515
1087.19	32.7608
1088.83	28.6638
1090.47	23.8168
1092.11	19.3411
1093.75	16.2014
1095.39	15.872
1097.03	16.2434
1098.66	16.9929
1100.3	18.4111
1101.94	18.9481
1103.57	19.4409
1105.21	20.1506
1106.84	19.2549
1108.48	21.2628
1110.11	22.4358
1111.75	22.3352
1113.38	21.4745
1115.02	21.8444
1116.65	22.772
1118.29	23.6966
1119.92	24.6182
1121.55	24.5175
1123.19	24.5345
1124.82	24.5043
1126.45	24.9694
1128.08	23.4468
1129.71	23.6165
1131.34	23.7482
1132.97	23.6999
1134.6	23.7485
1136.23	23.4902
1137.86	23.5413
1139.49	23.8303
1141.12	23.5105
1142.75	24.2783
1144.38	23.7731
1146.01	24.5399
1147.64	25.6691
1149.26	25.3366
1150.89	25.5446
1152.52	25.4463
1154.15	24.3577
1155.77	24.2553
1157.4	22.7435
1159.02	21.6978
1160.65	20.5338
1162.27	19.9783
1163.9	19.223
1165.52	18.7009
1167.15	19.8565
1168.77	20.8547
1170.39	20.248
1172.02	19.1779
1173.64	18.9838
1175.26	19.3676
1176.89	20.4823
1178.51	20.3216
1180.13	20.7014
1181.75	21.2209
1183.37	20.7007
1184.99	20.8933
1186.61	23.0939
1188.23	25.2197
1189.85	28.4374
1191.47	28.8055
1193.09	30.7257
1194.71	32.4828
1196.33	33.9595
1197.94	36.6937
1199.56	38.1473
1201.18	39.1984
1202.8	39.5154
1204.41	43.656
1206.03	44.2634
1207.65	46.7722
1209.26	48.5894
1210.88	51.8075
1212.49	54.8989
1214.11	56.0105
1215.72	57.9673
1217.34	60.335
1218.95	62.9393
1220.57	64.5998
1222.18	64.6089
1223.79	66.2345
1225.41	67.5509
1227.02	68.9909
1228.63	70.3469
1230.24	71.4004
1231.85	74.1463
1233.47	75.4382
1235.08	77.3461
1236.69	79.0651
1238.3	78.9705
1239.91	78.9345
1241.52	80.165
1243.13	81.4565
1244.74	82.6217
1246.34	82.5649
1247.95	83.8104
1249.56	82.2272
1251.17	79.7768
1252.78	79.6689
1254.38	79.3661
1255.99	78.8548
1257.6	77.9598
1259.2	76.5694
1260.81	75.6794
1262.42	74.7862
1264.02	74.4716
1265.63	75.4694
1267.23	76.8207
1268.84	76.664
1270.44	76.4456
1272.04	76.3002
1273.65	77.0144
1275.25	77.6295
1276.85	78.687
1278.46	80.514
1280.06	79.3939
1281.66	81.1617
1283.26	82.8502
1284.86	85.6884
1286.46	85.0448
1288.07	87.4521
1289.67	89.3927
1291.27	90.4699
1292.87	92.0756
1294.47	93.0796
1296.06	96.6214
1297.66	97.5099
1299.26	99.2071
1300.86	100.716
1302.46	103.179
1304.06	106.67
1305.65	109.455
1307.25	111.501
1308.85	113.366
1310.44	116.299
1312.04	118.999
1313.64	120.521
1315.23	121.08
1316.83	121.57
1318.42	121.873
1320.02	121.162
1321.61	122.45
1323.2	121.998
1324.8	121.84
1326.39	121.17
1327.99	120.341
1329.58	119.78
1331.17	119.285
1332.76	119.189
1334.36	118.904
1335.95	117.489
1337.54	116.95
1339.13	116.619
1340.72	116.079
1342.31	115.092
1343.9	113.89
1345.49	113.3
1347.08	111.384
1348.67	110.348
1350.26	109.492
1351.85	109.28
1353.43	108.677
1355.02	107.362
1356.61	105.427
1358.2	103.475
1359.78	101.694
1361.37	101.023
1362.96	99.2013
1364.54	97.9537
1366.13	96.6416
1367.71	95.5335
1369.3	95.2431
1370.88	93.4073
1372.47	92.0902
1374.05	90.4431
1375.64	89.3486
1377.22	87.8839
1378.8	88.1824
1380.39	87.3035
1381.97	87.577
1383.55	86.3191
1385.13	85.1292
1386.72	85.0695
1388.3	84.2708
1389.88	83.7091
1391.46	82.2712
1393.04	82.1973
1394.62	80.11
1396.2	80.0043
1397.78	79.1908
1399.36	79.2573
1400.94	81.9162
1402.52	83.0443
1404.1	84.8695
1405.68	86.4155
1407.25	88.8887
1408.83	91.0999
1410.41	93.3473
1411.98	97.023
1413.56	99.8864
1415.14	103.471
1416.71	107.649
1418.29	111.986
1419.87	115.046
1421.44	120.256
1423.02	124.223
1424.59	128.804
1426.16	132.2
1427.74	137.134
1429.31	141.611
1430.89	146.107
1432.46	149.789
1434.03	152.883
1435.6	156.667
1437.18	160.952
1438.75	163.661
1440.32	166.289
1441.89	169.574
1443.46	169.869
1445.03	169.951
1446.6	169.242
1448.17	169.936
1449.74	168.83
1451.31	168.128
1452.88	167.353
1454.45	166.764
1456.02	164.958
1457.59	161.378
1459.16	158.526
1460.72	155.696
1462.29	149.888
1463.86	144.49
1465.43	138.937
1466.99	132.869
1468.56	129.121
1470.13	123.903
1471.69	118.387
1473.26	112.935
1474.82	107.708
1476.38	103.815
1477.95	100.351
1479.51	96.4749
1481.08	91.1019
1482.64	86.3767
1484.2	82.5833
1485.77	79.4706
1487.33	76.9925
1488.89	74.8323
1490.46	72.4823
1492.02	69.6406
1493.58	67.9057
1495.14	66.0658
1496.7	64.0725
1498.26	62.8514
1499.82	62.0798
1501.38	59.5625
1502.94	58.9984
1504.5	58.3886
1506.06	57.6163
1507.62	57.7576
1509.18	57.3933
1510.73	57.2073
1512.29	57.6949
1513.85	58.4058
1515.41	58.5017
1516.96	57.8134
1518.52	58.0185
1520.08	57.5801
1521.63	55.7881
1523.19	56.9088
1524.75	56.7672
1526.3	58.1964
1527.85	57.4051
1529.41	58.5573
1530.96	58.484
1532.52	58.3075
1534.07	58.1712
1535.62	58.0211
1537.18	58.7961
1538.73	58.1195
1540.28	56.8998
1541.84	57.5781
1543.39	59.137
1544.94	60.3906
1546.49	62.4663
1548.04	61.6436
1549.59	62.8421
1551.14	64.9903
1552.69	66.8369
1554.25	68.918
1555.79	69.5407
1557.34	69.107
1558.89	69.5344
1560.44	71.851
1561.99	74.1728
1563.54	76.3421
1565.08	78.2528
1566.63	79.3463
1568.18	80.3954
1569.73	82.0859
1571.27	83.4437
1572.82	85.5914
1574.37	87.2083
1575.91	88.978
1577.46	90.8956
1579	92.6664
1580.55	94.2331
1582.09	96.1702
1583.64	97.4406
1585.18	98.2608
1586.73	99.8162
1588.27	101.483
1589.81	102.847
1591.35	103.228
1592.9	104.674
1594.44	104.325
1595.98	103.467
1597.52	105.146
1599.06	104.561
1600.61	105.601
1602.15	104.671
1603.69	105.658
1605.23	104.93
1606.77	105.082
1608.31	103.247
1609.85	102.563
1611.39	102.931
1612.93	101.83
1614.46	101.812
1616	101.322
1617.54	101.078
1619.08	101.057
1620.61	100.654
1622.15	100.539
1623.69	102.01
1625.23	101.768
1626.76	102.161
1628.3	103.089
1629.83	103.029
1631.37	101.445
1632.9	100.503
1634.44	100.601
1635.97	102.158
1637.51	103.442
1639.04	104.135
1640.57	105.593
1642.11	106.659
1643.64	106.416
1645.17	106.94
1646.71	107.495
1648.24	107.418
1649.77	108.119
1651.3	108.679
1652.83	109.131
1654.36	109.553
1655.89	109.561
1657.42	108.661
1658.96	107.458
1660.48	105.379
1662.01	104.144
1663.54	104.395
1665.07	102.837
1666.6	101.783
1668.13	99.2422
1669.66	97.2364
1671.19	93.6745
1672.71	92.7699
1674.24	91.3014
1675.77	87.398
1677.29	85.8575
1678.82	83.0905
1680.35	80.7355
1681.87	77.7449
1683.4	74.4994
1684.92	70.9789
1686.45	68.3956
1687.97	65.2569
1689.5	61.1926
1691.02	57.2175
1692.54	53.8801
1694.07	49.8238
1695.59	46.7035
1697.11	43.2577
1698.64	41.2594
1700.16	38.4802
1701.68	35.8114
1703.2	32.8858
1704.72	30.1165
1706.25	26.4366
1707.77	23.2444
1709.29	21.0242
1710.81	19.6163
1712.33	17.4352
1713.85	16.4179
1715.37	14.7871
1716.89	12.8216
1718.41	11.754
1719.92	10.0068
1721.44	9.44088
1722.96	8.29518
1724.48	8.29703
1725.99	7.74115
1727.51	7.3845
1729.03	7.5363
1730.55	7.14082
1732.06	7.2906
1733.58	6.68708
1735.09	6.8258
1736.61	7.95784
1738.13	8.83549
1739.64	9.68373
1741.15	9.10928
1742.67	9.41602
1744.18	9.04678
1745.7	9.67286
1747.21	10.4223
1748.72	11.2391
1750.24	10.6521
1751.75	11.3376
1753.26	12.2437
1754.77	11.5954
1756.29	10.9617
1757.8	10.3869
1759.31	9.52112
1760.82	8.30241
1762.33	7.7492
1763.84	6.48571
1765.35	6.41412
1766.86	6.26283
1768.37	6.73531
1769.88	5.41843
1771.39	5.09323
1772.9	4.28092
1774.4	4.4294
1775.91	4.714
1777.42	4.34971
1778.93	3.16884
1780.44	3.06418
1781.94	3.63731
1783.45	3.95791
1784.96	3.9698
1786.46	4.90211
1787.97	4.70004
1789.47	5.06218
1790.98	4.60646
1792.48	5.25182
1793.99	5.9503
1795.49	4.77186
1797	5.10339
1798.5	5.7159
1800.01	5.74861
1801.51	5.20215
1803.01	6.22952
1804.51	5.99556
1806.02	6.39457
1807.52	6.5748
1809.02	6.54861
1810.52	6.43075
1812.02	6.62809
1813.52	6.49529
1815.02	6.27645
1816.53	6.52074
1818.03	6.65905
1819.52	6.69455
1821.02	6.99004
1822.52	6.87491
1824.02	6.74938
1825.52	6.32644
1827.02	6.1888
1828.52	6.247
1830.02	5.1242
1831.51	4.63322
1833.01	3.88386
1834.51	3.69126
1836.01	3.33473
1837.5	3.25155
1839	2.71753
1840.49	3.26772
1841.99	3.50403
1843.49	3.08999
1844.98	3.64783
1846.48	4.49468
1847.97	4.9074
1849.47	6.24443
1850.96	5.7634
1852.45	6.22286
1853.95	7.05665
1855.44	7.64072
1856.93	7.69882
1858.42	8.02082
1859.92	7.70661
1861.41	7.73928
1862.9	7.85376
1864.39	6.82289
1865.88	7.59031
1867.38	7.22823
1868.87	6.89754
1870.36	6.47172
1871.85	6.48319
1873.34	6.83642
1874.83	6.91598
1876.32	7.15797
1877.81	8.17318
1879.29	7.91117
1880.78	8.57535
1882.27	7.68507
1882.53	8.23821
1884.03	7.36933
1885.52	6.71081
1887.01	7.03909
1888.51	7.21801
1890	7.98514
1891.5	7.56569
1892.99	7.00363
1894.48	6.00083
1895.97	4.73357
1897.47	3.69562
1898.96	3.2203
1900.45	2.37084
1901.94	2.05095
1903.43	1.83188
1904.92	1.57484
1906.41	1.77625
1907.9	1.9448
1909.39	1.64401
1910.88	2.04468
1912.37	1.44406
1913.86	1.75872
1915.35	2.00445
1916.84	1.47639
1918.33	2.15545
1919.81	1.35332
1921.3	0.729719
1922.79	1.54919
1924.28	0.720244
1925.76	0.892804
1927.25	0.357972
1928.73	0.160344
1930.22	-0.0419096
1931.71	0.53317
1933.19	0.096792
1934.68	0.226805
1936.16	0.612135
1937.65	0.243703
1939.13	1.1985
1940.62	0.473474
1942.1	1.50297
1943.58	1.54613
1945.07	1.55747
1946.55	2.25896
1948.03	3.15361
1949.51	3.36853
1951	3.77451
1952.48	3.36295
1953.96	3.28621
1955.44	2.82801
1956.92	2.95183
1958.4	2.4653
1959.88	3.01573
1961.36	4.12068
1962.84	4.09861
1964.32	3.29093
1965.8	1.99126
1967.28	1.54347
1968.76	0.900911
1970.24	1.57318
1971.72	2.16985
1973.2	3.23291
1974.67	2.78498
1976.15	3.06474
1977.63	2.36359
1979.1	1.19696
1980.58	1.23001
1982.06	1.04946
1983.54	0.922147
1985.01	0.627268
1986.49	0.0881659
1987.96	0.511374
1989.44	0.949425
1990.91	0.754449
1992.39	1.05934
1993.86	0.473068
1995.33	1.61146
1996.81	1.54534
1998.28	1.45793
1999.75	1.74259
2001.23	2.11825
2002.7	2.81084
2004.17	3.42858
2005.65	2.81764
2007.12	2.72218
2008.59	3.37255
2010.06	4.42407
2011.53	4.88025
2013	5.20987
2014.47	6.41369
2015.94	6.72319
2017.41	7.35933
2018.88	8.07439
2020.35	9.42329
2021.82	10.0155
2023.29	9.73291
2024.76	10.1086
2026.23	10.1456
2027.69	9.89207
2029.16	10.3045
2030.63	10.6693
2032.1	11.7167
2033.56	11.2862
2035.03	11.6863
2036.5	11.4693
2037.96	11.5035
2039.43	11.3669
2040.89	11.5271
2042.36	11.5886
2043.83	11.0543
2045.29	10.7222
2046.75	10.4529
2048.22	9.59428
2049.68	9.12615
2051.15	8.40285
2052.61	8.6876
2054.07	8.78848
2055.54	8.53321
2057	8.18507
2058.46	7.88916
2059.92	7.76287
2061.39	8.12746
2062.85	7.94651
2064.31	7.1205
2065.77	7.41073
2067.23	7.20217
2068.69	8.63582
2070.15	8.37155
2071.61	9.02684
2073.07	8.9822
2074.53	8.68092
2075.99	8.97751
2077.45	8.58291
2078.91	8.21463
2080.37	9.33796
2081.82	10.1703
2083.28	10.0795
2084.74	10.9
2086.2	10.9008
2087.65	10.8076
2089.11	10.2675
2090.57	11.5157
2092.02	11.5862
2093.48	10.8303
2094.94	11.1504
2096.39	10.985
2097.85	11.6365
2099.3	11.5346
2100.76	11.1178
2102.21	11.6284
2103.66	11.5342
2105.12	12.0575
2106.57	11.7493
2108.03	11.563
2109.48	10.2507
2110.93	9.26726
2112.38	8.38708
2113.84	7.95677
2115.29	8.39591
2116.74	8.18331
2118.19	7.90451
2119.64	7.04971
2121.09	6.11433
2122.54	5.26831
2123.99	4.95098
2125.45	4.61867
2126.89	4.26064
2128.34	4.42785
2129.79	3.90278
2131.24	4.00987
