#Acq. time (s)=	45
#Accumulations=	2
#Range (cm-¹)=	200...3150
#Windows=	2
#Auto scanning=	Off
#Autofocus=	Off
#Macrospot=	Off
#AutoExposure=	Off
#Spike filter=	Multiple accum.
#Delay time (s)=	0
#Binning=	1
#Readout mode=	Signal
#DeNoise=	Off
#ICS correction=	On
#Dark correction=	Off
#Inst. Process=	Off
#Detector Gain=	Best Dynamic Range
#Detector ADC=	20 kHz       
#Detector temperature (°C)=	-69.85
#Instrument=	LabRAM HR Evol
#Detector=	Synapse
#Objective=	x100
#Grating=	600 gr/mm
#ND Filter=	100%
#Laser (nm)=	532 
#Hole=	100.021
#Range=	Auto
#Laser Pol.=	No
#Raman. Pol.=	No
#Laser Pol. (°)=	-0.0007625
#Raman Pol. (°)=	89.9995
#Collection=	Microscope
#StageXY=	Marzhauser
#StageZ=	Marzhauser
#X (µm)=	-974.7
#Y (µm)=	-2924.1
#Z (µm)=	527.75
#Full time(mm:ss)=	3:18
#Project=	
#Sample=	
#Site=	
#Title=	Mb_00_13_05_2x_45s_532 nm_x100_100%_600 gr_mm
#Remark=	
#Date=	06.07.2022 10:02
#Acquired=	06.07.2022 10:02:08
#Base:Fit=	10.08.2022 10:16:36
#Base:Fit=	10.08.2022 10:16:56
#Base:Sub=	10.08.2022 10:17:24
#Filter:Polynom=	16.08.2022 10:36:38
#AxisType[0]=Intens
#AxisUnit[0]=Cnt
#AxisType[1]=Spectr
#AxisUnit[1]=1/cm
200.398	18.0346
202.213	21.9881
204.027	20.9573
205.843	21.2764
207.657	21.419
209.47	21.5671
211.283	22.4019
213.097	23.0549
214.909	23.5624
216.721	26.0644
218.533	30.757
220.344	34.589
222.157	40.2415
223.967	45.8576
225.777	51.9401
227.587	57.7743
229.396	63.7681
231.205	69.7685
233.016	74.4442
234.824	78.0643
236.632	83.4933
238.439	88.0387
240.247	91.7407
242.053	95.079
243.86	97.4985
245.666	100.31
247.474	102.332
249.279	105.081
251.085	106.252
252.889	108.693
254.694	111.517
256.498	112.958
258.301	114.987
260.105	116.182
261.908	117.057
263.71	117.043
265.513	117.363
267.315	115.824
269.116	114.131
270.918	111.898
272.718	109.404
274.519	107.213
276.319	103.941
278.119	100.102
279.918	96.0232
281.718	91.4184
283.516	84.943
285.315	78.8292
287.113	72.5266
288.911	68.3062
290.708	62.8915
292.505	58.9622
294.302	55.6736
296.098	50.7343
297.894	46.2099
299.69	42.4976
301.485	38.7139
303.278	34.3933
305.073	31.6564
306.867	30.3121
308.661	28.2996
310.454	25.8667
312.247	24.6472
314.04	21.2139
315.833	20.5192
317.623	18.5417
319.415	17.3773
321.206	15.9953
322.997	13.6032
324.788	13.2553
326.579	13.4513
328.367	12.7761
330.156	12.786
331.946	13.3602
333.735	12.7857
335.523	13.7011
337.31	12.6815
339.098	13.2228
340.885	12.1426
342.673	10.837
344.458	10.0309
346.244	9.25548
348.03	8.76204
349.816	7.98017
351.6	7.41541
353.385	6.05888
355.17	6.90331
356.953	6.15087
358.737	5.79692
360.521	5.91116
362.304	8.14273
364.085	9.91538
365.868	12.5244
367.65	14.2286
369.431	16.0796
371.212	18.098
372.994	19.9342
374.773	23.3475
376.554	26.4023
378.332	28.5829
380.112	32.4088
381.892	36.6418
383.669	39.9399
385.448	43.636
387.225	47.9577
389.003	53.1313
390.781	58.4936
392.557	62.7824
394.334	67.0014
396.109	71.8122
397.885	75.8231
399.66	78.4541
401.436	81.451
403.211	84.7575
404.984	89.1243
406.759	90.8379
408.532	92.4142
410.306	93.9457
412.078	94.0931
413.851	95.4013
415.623	94.7503
417.395	93.4339
419.166	92.0181
420.938	89.5001
422.708	87.0228
424.477	84.0791
426.248	79.9025
428.017	77.0299
429.788	72.8033
431.556	68.3561
433.326	64.6386
435.093	60.4342
436.86	54.149
438.629	48.13
440.395	42.8525
442.163	37.8334
443.929	33.8651
445.694	28.1793
447.461	24.3764
449.226	20.7371
450.99	17.7018
452.756	14.0383
454.52	9.9193
456.285	5.50348
458.048	3.20884
459.811	1.3945
461.573	-0.631703
463.337	-0.630565
465.099	-0.422271
466.86	-0.433546
468.623	1.15881
470.384	1.67954
472.144	2.08028
473.906	3.42521
475.666	5.30951
477.425	6.18444
479.184	5.69614
480.944	5.1976
482.703	6.54278
484.461	8.58829
486.218	10.0557
487.975	10.8246
489.734	13.3942
491.491	14.9104
493.247	16.7648
495.003	18.8127
496.759	19.5382
498.516	22.338
500.271	23.4079
502.025	25.8536
503.779	27.5624
505.533	28.8644
507.287	30.3178
509.042	33.202
510.795	35.9432
512.547	37.3409
514.299	40.0696
516.051	41.9538
517.803	42.4918
519.554	43.2793
521.305	43.8725
523.055	43.5782
524.805	44.1324
526.555	44.4887
528.307	44.3936
530.056	43.7822
531.805	42.7658
533.553	40.8826
535.301	39.8633
537.049	38.7972
538.797	38.8904
540.544	37.3508
542.291	36.123
544.037	35.7652
545.783	36.215
547.529	33.9123
549.275	32.5065
551.02	31.3542
552.765	29.5653
554.509	26.534
556.253	24.6804
557.997	22.6596
559.738	20.5627
561.482	20.0894
563.224	18.2581
564.967	16.0463
566.709	15.087
568.451	14.8691
570.192	14.1855
571.933	14.1777
573.674	12.8004
575.415	11.7489
577.153	12.3161
578.893	12.1885
580.632	11.1027
582.371	9.59362
584.11	9.00696
585.849	9.54105
587.587	8.28028
589.323	8.51686
591.06	8.37498
592.797	6.34539
594.534	7.37732
596.271	8.63649
598.005	7.64472
599.741	8.68994
601.476	9.01092
603.211	7.99645
604.944	8.26017
606.679	9.67909
608.413	9.50927
610.147	9.50979
611.878	9.17823
613.611	8.00946
615.344	6.04064
617.077	5.25717
618.807	4.43046
620.539	4.36958
622.27	5.14345
623.999	5.77743
625.73	6.50994
627.461	6.6938
629.189	9.34367
630.919	10.589
632.648	11.9768
634.376	12.8277
636.105	14.9703
637.833	15.6598
639.559	16.8249
641.287	17.8787
643.013	20.8972
644.74	21.6639
646.467	22.7716
648.192	23.8698
649.918	23.2493
651.642	23.2967
653.368	23.2153
655.091	22.8218
656.816	23.2864
658.538	23.6274
660.263	23.0642
661.987	23.0884
663.708	22.9423
665.432	22.2601
667.153	21.4222
668.875	21.656
670.596	22.4346
672.318	22.9334
674.037	22.6709
675.759	23.0749
677.478	22.058
679.196	21.5389
680.917	22.3013
682.635	21.6554
684.355	21.7507
686.072	22.5665
687.791	21.4096
689.508	20.8021
691.224	20.2031
692.942	19.9424
694.658	18.1197
696.376	17.827
698.091	16.0987
699.805	17.0339
701.522	16.9332
703.236	17.9342
704.95	18.7776
706.665	19.6571
708.379	22.2852
710.093	24.5009
711.806	26.4616
713.518	27.6766
715.23	28.5748
716.943	28.1872
718.655	29.3522
720.366	29.8305
722.078	30.3297
723.788	31.3457
725.498	31.8245
727.208	32.4157
728.919	32.9999
730.628	32.7782
732.337	33.8382
734.045	33.6701
735.755	32.7345
737.463	33.069
739.17	33.5442
740.877	34.9859
742.584	36.786
744.292	37.2817
745.998	37.0854
747.704	37.8924
749.409	38.8241
751.114	39.7012
752.819	40.2436
754.526	41.6815
756.23	42.98
757.934	43.5809
759.637	42.4269
761.34	41.7383
763.043	40.6147
764.746	40.9447
766.448	41.4067
768.152	42.4259
769.853	41.741
771.554	42.1598
773.255	42.5314
774.956	43.2771
776.656	43.9205
778.356	46.0209
780.056	45.997
781.755	45.6888
783.454	47.1715
785.153	49.7085
786.851	50.0434
788.549	50.8671
790.247	52.2448
791.944	53.5311
793.641	55.0484
795.338	54.5132
797.034	54.2117
798.73	54.5596
800.426	54.8139
802.121	56.9219
803.817	58.515
805.511	59.6276
807.206	61.1694
808.9	61.0303
810.592	61.1324
812.286	62.2299
813.979	61.876
815.672	63.0898
817.364	64.0741
819.057	64.252
820.748	65.1524
822.44	66.2182
824.129	67.9937
825.82	68.9866
827.511	69.6579
829.201	69.3367
830.891	70.0265
832.581	71.3671
834.269	70.8862
835.958	70.629
837.646	71.3189
839.335	70.5029
841.023	69.1057
842.709	67.6608
844.396	65.7301
846.084	64.7938
847.77	64.1615
849.455	64.8004
851.141	64.4973
852.827	61.8801
854.513	59.4073
856.196	58.0974
857.881	55.8132
859.566	55.5225
861.248	53.7033
862.932	51.7715
864.616	50.2557
866.297	49.6925
867.98	49.9672
869.663	48.5474
871.343	46.3391
873.026	45.3793
874.707	44.6095
876.387	42.617
878.068	40.4478
879.747	39.5374
881.428	39.2486
883.108	39.9561
884.786	40.2622
886.465	40.513
888.143	39.5394
889.822	38.9616
891.498	37.5166
893.177	36.8595
894.855	37.763
896.53	38.0195
898.208	38.8371
899.883	41.5908
901.56	41.9183
903.234	42.8552
904.91	43.9725
906.584	45.0837
908.26	46.718
909.933	46.6495
911.608	47.0121
913.28	47.8166
914.955	47.682
916.627	47.9325
918.298	48.2816
919.972	49.2132
921.643	49.6535
923.315	49.1951
924.986	49.482
926.656	49.1417
928.328	49.1783
929.997	49.8454
931.668	50.0684
933.337	50.0499
935.006	50.0349
936.676	49.1302
938.344	49.0552
940.012	48.7659
941.681	47.8599
943.348	48.084
945.014	46.6653
946.683	45.4794
948.349	45.1102
950.015	44.1181
951.682	43.2293
953.347	42.4677
955.012	41.4364
956.676	39.6487
958.343	38.0577
960.006	37.2443
961.67	38.9947
963.333	42.1185
964.998	43.9137
966.661	45.9971
968.323	47.9198
969.985	48.686
971.649	50.3471
973.31	52.1106
974.971	55.1653
976.632	57.0435
978.293	60.0213
979.953	60.7858
981.615	62.3511
983.274	62.887
984.933	64.2833
986.592	65.149
988.251	65.8112
989.909	66.6185
991.567	67.3476
993.225	68.8324
994.884	69.9507
996.541	71.197
998.198	71.8414
999.855	72.2877
1001.51	72.702
1003.17	72.8891
1004.82	72.2449
1006.48	72.7596
1008.13	73.0787
1009.79	73.1159
1011.44	72.7914
1013.1	73.0953
1014.75	74.5421
1016.4	76.7297
1018.06	78.9095
1019.71	81.5114
1021.36	83.7811
1023.01	86.5006
1024.66	88.8146
1026.32	91.7937
1027.97	94.9896
1029.62	96.8693
1031.27	100.389
1032.92	102.483
1034.57	103.927
1036.22	104.684
1037.87	105.86
1039.52	107.012
1041.16	110.075
1042.81	112.496
1044.46	115.252
1046.11	116.682
1047.76	116.23
1049.4	115.972
1051.05	114.922
1052.7	113.494
1054.34	112.764
1055.99	111.989
1057.63	110.419
1059.28	107.464
1060.92	106.221
1062.57	102.63
1064.21	99.585
1065.85	95.9645
1067.5	92.6264
1069.14	88.0833
1070.78	85.1081
1072.43	80.5881
1074.07	77.3817
1075.71	74.4671
1077.35	68.9911
1078.99	63.7527
1080.63	58.896
1082.27	53.6508
1083.91	50.2993
1085.55	46.3592
1087.19	42.0762
1088.83	39.6973
1090.47	37.4992
1092.11	35.4613
1093.75	35.3019
1095.39	36.2307
1097.03	37.429
1098.66	38.1541
1100.3	38.4706
1101.94	39.4852
1103.57	39.155
1105.21	38.7915
1106.84	36.2831
1108.48	35.4558
1110.11	35.3965
1111.75	34.0009
1113.38	32.1182
1115.02	29.2225
1116.65	26.8739
1118.29	25.9305
1119.92	24.2838
1121.55	23.8673
1123.19	21.6833
1124.82	20.0246
1126.45	17.8232
1128.08	16.8681
1129.71	15.1474
1131.34	14.3506
1132.97	13.3076
1134.6	14.0985
1136.23	13.6632
1137.86	12.8512
1139.49	11.6705
1141.12	11.4725
1142.75	10.2582
1144.38	8.97328
1146.01	8.29692
1147.64	8.6191
1149.26	7.42279
1150.89	7.4663
1152.52	7.5009
1154.15	8.01672
1155.77	8.7841
1157.4	8.44679
1159.02	8.12598
1160.65	8.08294
1162.27	8.36466
1163.9	8.10368
1165.52	9.57897
1167.15	11.4461
1168.77	12.8604
1170.39	15.2553
1172.02	17.8079
1173.64	19.9269
1175.26	22.3287
1176.89	24.1671
1178.51	24.4988
1180.13	26.5087
1181.75	28.3547
1183.37	30.406
1184.99	31.8939
1186.61	32.7759
1188.23	34.9781
1189.85	38.4361
1191.47	39.2948
1193.09	41.4333
1194.71	42.598
1196.33	45.3141
1197.94	48.382
1199.56	51.8907
1201.18	53.6516
1202.8	56.073
1204.41	57.5691
1206.03	60.4507
1207.65	63.1881
1209.26	66.3631
1210.88	68.2543
1212.49	71.3837
1214.11	73.9815
1215.72	76.9459
1217.34	78.4261
1218.95	80.3844
1220.57	82.6055
1222.18	85.8809
1223.79	87.9342
1225.41	89.3515
1227.02	91.9592
1228.63	92.0266
1230.24	93.2277
1231.85	96.0754
1233.47	97.8512
1235.08	100.137
1236.69	100.667
1238.3	101
1239.91	101.82
1241.52	101.991
1243.13	102.555
1244.74	103.948
1246.34	106.18
1247.95	106.856
1249.56	105.57
1251.17	105.37
1252.78	105.57
1254.38	104.684
1255.99	104.616
1257.6	103.779
1259.2	102.857
1260.81	104.045
1262.42	104.493
1264.02	104.763
1265.63	104.366
1267.23	104.158
1268.84	104.755
1270.44	103.978
1272.04	103.918
1273.65	105.438
1275.25	105.388
1276.85	106.44
1278.46	106.296
1280.06	107.535
1281.66	107.267
1283.26	107.608
1284.86	108.316
1286.46	109.155
1288.07	110.038
1289.67	111.033
1291.27	112.415
1292.87	114.407
1294.47	114.46
1296.06	115.388
1297.66	116.659
1299.26	118.983
1300.86	120.481
1302.46	121.098
1304.06	120.925
1305.65	122.625
1307.25	124.704
1308.85	125.761
1310.44	127.256
1312.04	128.346
1313.64	129.545
1315.23	129.649
1316.83	129.183
1318.42	128.94
1320.02	129.414
1321.61	129.519
1323.2	129.257
1324.8	129.266
1326.39	128.305
1327.99	127.294
1329.58	127.144
1331.17	127.93
1332.76	127.774
1334.36	127.531
1335.95	127.845
1337.54	126.851
1339.13	126.524
1340.72	125.922
1342.31	124.662
1343.9	122.094
1345.49	120.577
1347.08	119.606
1348.67	119.406
1350.26	118.052
1351.85	116.996
1353.43	115.226
1355.02	114.81
1356.61	112.435
1358.2	109.253
1359.78	108.171
1361.37	104.007
1362.96	102.459
1364.54	100.552
1366.13	99.4956
1367.71	97.4862
1369.3	95.4642
1370.88	93.7059
1372.47	91.6331
1374.05	89.966
1375.64	89.1685
1377.22	88.0429
1378.8	87.227
1380.39	84.1666
1381.97	82.5992
1383.55	82.1203
1385.13	82.8251
1386.72	81.8087
1388.3	81.3416
1389.88	80.2688
1391.46	79.7346
1393.04	78.3278
1394.62	76.7401
1396.2	75.8657
1397.78	75.3642
1399.36	75.3731
1400.94	75.0273
1402.52	76.5582
1404.1	78.3413
1405.68	80.1676
1407.25	82.1533
1408.83	86.8129
1410.41	89.1763
1411.98	93.1346
1413.56	97.932
1415.14	102.503
1416.71	106.239
1418.29	110.848
1419.87	115.8
1421.44	119.937
1423.02	125.383
1424.59	132.708
1426.16	138.323
1427.74	144.381
1429.31	148.914
1430.89	153.291
1432.46	157.7
1434.03	162.072
1435.6	164.856
1437.18	168.25
1438.75	172.401
1440.32	175.055
1441.89	178.319
1443.46	181.032
1445.03	184.284
1446.6	183.924
1448.17	184.101
1449.74	183.789
1451.31	182.007
1452.88	180.837
1454.45	178.184
1456.02	175.203
1457.59	171.091
1459.16	167.359
1460.72	164.116
1462.29	160.043
1463.86	156.138
1465.43	150.398
1466.99	143.935
1468.56	137.712
1470.13	130.342
1471.69	124.177
1473.26	118.835
1474.82	113.07
1476.38	106.815
1477.95	100.34
1479.51	95.0794
1481.08	90.1577
1482.64	85.4756
1484.2	80.6828
1485.77	77.0203
1487.33	73.8246
1488.89	68.2422
1490.46	66.0471
1492.02	62.5605
1493.58	59.0811
1495.14	56.2035
1496.7	55.167
1498.26	53.5772
1499.82	52.1036
1501.38	51.6185
1502.94	51.0333
1504.5	48.7502
1506.06	48.0093
1507.62	46.8321
1509.18	45.9823
1510.73	46.1242
1512.29	45.6776
1513.85	45.1912
1515.41	45.2672
1516.96	45.3641
1518.52	46.0668
1520.08	46.2775
1521.63	48.2524
1523.19	48.1109
1524.75	46.9832
1526.3	47.3397
1527.85	47.7501
1529.41	47.5529
1530.96	48.9339
1532.52	49.1918
1534.07	49.9192
1535.62	50.4987
1537.18	52.919
1538.73	54.5765
1540.28	55.4683
1541.84	56.5534
1543.39	56.3877
1544.94	58.2157
1546.49	59.0959
1548.04	59.8865
1549.59	61.5639
1551.14	62.7378
1552.69	63.3643
1554.25	63.3998
1555.79	64.1752
1557.34	65.6067
1558.89	66.1268
1560.44	67.5461
1561.99	67.3389
1563.54	67.5406
1565.08	67.4812
1566.63	69.488
1568.18	71.878
1569.73	74.2441
1571.27	76.7603
1572.82	78.4195
1574.37	80.2155
1575.91	81.2897
1577.46	82.8242
1579	84.316
1580.55	85.7129
1582.09	87.3774
1583.64	89.9604
1585.18	91.2191
1586.73	92.0823
1588.27	94.1547
1589.81	95.5075
1591.35	96.5991
1592.9	98.333
1594.44	99.5995
1595.98	101.644
1597.52	102.502
1599.06	103.68
1600.61	103.567
1602.15	104.623
1603.69	104.326
1605.23	103.776
1606.77	102.599
1608.31	103.082
1609.85	101.631
1611.39	101.305
1612.93	101.676
1614.46	103.319
1616	103.704
1617.54	103.952
1619.08	104.086
1620.61	104.996
1622.15	106.282
1623.69	106.112
1625.23	108.015
1626.76	109.561
1628.3	110.366
1629.83	111.435
1631.37	112.546
1632.9	114.147
1634.44	116.268
1635.97	117.803
1637.51	119.156
1639.04	121.02
1640.57	124.098
1642.11	126.716
1643.64	129.463
1645.17	131.681
1646.71	133.521
1648.24	134.75
1649.77	135.498
1651.3	137.884
1652.83	138.36
1654.36	138.837
1655.89	139.081
1657.42	139.024
1658.96	139.507
1660.48	138.989
1662.01	137.996
1663.54	136.831
1665.07	136.355
1666.6	134.798
1668.13	131.433
1669.66	128.724
1671.19	125.361
1672.71	121.76
1674.24	117.211
1675.77	112.314
1677.29	107.977
1678.82	102.39
1680.35	97.1223
1681.87	91.1186
1683.4	85.2785
1684.92	80.4465
1686.45	75.4411
1687.97	71.1119
1689.5	66.947
1691.02	62.6019
1692.54	57.9676
1694.07	52.1016
1695.59	47.2457
1697.11	43.9752
1698.64	39.7206
1700.16	37.331
1701.68	35.2449
1703.2	31.5703
1704.72	28.4617
1706.25	25.9281
1707.77	24.4835
1709.29	21.5222
1710.81	19.2945
1712.33	16.3796
1713.85	14.132
1715.37	12.8435
1716.89	11.5644
1718.41	9.743
1719.92	8.83007
1721.44	8.11055
1722.96	7.09387
1724.48	6.62228
1725.99	6.56472
1727.51	6.75758
1729.03	5.44671
1730.55	5.76132
1732.06	5.39876
1733.58	6.22537
1735.09	7.0077
1736.61	7.20642
1738.13	7.45505
1739.64	7.75004
1741.15	8.13781
1742.67	7.70894
1744.18	6.52702
1745.7	6.86884
1747.21	7.00007
1748.72	7.81015
1750.24	7.60097
1751.75	7.57321
1753.26	7.85787
1754.77	6.5468
1756.29	6.36964
1757.8	5.22674
1759.31	5.60751
1760.82	6.77332
1762.33	6.70136
1763.84	6.32772
1765.35	6.2659
1766.86	6.42698
1768.37	6.03213
1769.88	4.79089
1771.39	5.4174
1772.9	5.36087
1774.4	4.48221
1775.91	4.41422
1777.42	3.41969
1778.93	2.4218
1780.44	2.64085
1781.94	2.35286
1783.45	2.37691
1784.96	1.18885
1786.46	0.938478
1787.97	0.711112
1789.47	0.396256
1790.98	0.791386
1792.48	0.834667
1793.99	1.1508
1795.49	1.04486
1797	0.97491
1798.5	1.35358
1800.01	0.897198
1801.51	1.22622
1803.01	0.9207
1804.51	0.143995
1806.02	0.788115
1807.52	1.193
1809.02	1.74746
1810.52	1.83662
1812.02	2.004
1813.52	2.45975
1815.02	2.97065
1816.53	3.01469
1818.03	2.66346
1819.52	2.7151
1821.02	2.89625
1822.52	3.26245
1824.02	3.2957
1825.52	2.76823
1827.02	2.98554
1828.52	3.14217
1830.02	2.94985
1831.51	3.81606
1833.01	4.12159
1834.51	4.93188
1836.01	5.3535
1837.5	5.01596
1839	4.93439
1840.49	4.30592
1841.99	3.68645
1843.49	3.46088
1844.98	3.69786
1846.48	4.49141
1847.97	4.65817
1849.47	4.35395
1850.96	5.21626
1852.45	5.91796
1853.95	6.79443
1855.44	7.7556
1856.93	8.06567
1858.42	8.69422
1859.92	8.97019
1861.41	9.13976
1862.9	9.10593
1864.39	8.92069
1865.88	9.77842
1867.38	9.77712
1868.87	9.8216
1870.36	9.48673
1871.85	9.24579
1873.34	9.09191
1874.83	9.44577
1876.32	9.4403
1877.81	9.40435
1879.29	8.76095
1880.78	8.79978
1882.27	8.58999
1882.53	8.35919
1884.03	8.56647
1885.52	8.33474
1887.01	8.35181
1888.51	7.89025
1890	6.57388
1891.5	5.27623
1892.99	5.23658
1894.48	5.19479
1895.97	5.73295
1897.47	5.54609
1898.96	5.68719
1900.45	6.04926
1901.94	6.14934
1903.43	6.3813
1904.92	6.90794
1906.41	7.10043
1907.9	7.81105
1909.39	7.61857
1910.88	7.77524
1912.37	8.30076
1913.86	8.46404
1915.35	9.60816
1916.84	10.7321
1918.33	11.0723
1919.81	11.6966
1921.3	11.7194
1922.79	12.0521
1924.28	12.5953
1925.76	12.2735
1927.25	12.3093
1928.73	12.1253
1930.22	11.5126
1931.71	11.1402
1933.19	10.9397
1934.68	10.2525
1936.16	9.91791
1937.65	10.5561
1939.13	9.96055
1940.62	8.54105
1942.1	8.83962
1943.58	8.69649
1945.07	8.04766
1946.55	7.8293
1948.03	7.67247
1949.51	6.86076
1951	6.40344
1952.48	5.98198
1953.96	5.89407
1955.44	5.49846
1956.92	4.94931
1958.4	4.57628
1959.88	3.7462
1961.36	3.23607
1962.84	2.52161
1964.32	2.33183
1965.8	3.23836
1967.28	3.5501
1968.76	3.31659
1970.24	2.78076
1971.72	2.7599
1973.2	3.66264
1974.67	4.36105
1976.15	4.7983
1977.63	5.58846
1979.1	6.35562
1980.58	6.31631
1982.06	6.58652
1983.54	6.26253
1985.01	6.76465
1986.49	6.75411
1987.96	6.67909
1989.44	6.69599
1990.91	6.83447
1992.39	6.82514
1993.86	7.18326
1995.33	6.59361
1996.81	6.74974
1998.28	7.35464
1999.75	7.27634
2001.23	8.28487
2002.7	8.74327
2004.17	9.04581
2005.65	9.51486
2007.12	10.3683
2008.59	9.80424
2010.06	9.4727
2011.53	9.18221
2013	7.84261
2014.47	8.11852
2015.94	9.76417
2017.41	9.17026
2018.88	9.06896
2020.35	9.28745
2021.82	9.22074
2023.29	10.4022
2024.76	10.7158
2026.23	10.5038
2027.69	10.5064
2029.16	10.6754
2030.63	11.2089
2032.1	11.069
2033.56	11.2312
2035.03	10.95
2036.5	11.0558
2037.96	10.8644
2039.43	10.0605
2040.89	9.49562
2042.36	9.70087
2043.83	10.0728
2045.29	11.5937
2046.75	11.9533
2048.22	11.65
2049.68	11.3758
2051.15	11.9271
2052.61	11.6749
2054.07	11.0852
2055.54	10.9995
2057	11.3969
2058.46	12.3014
2059.92	12.0661
2061.39	12.4134
2062.85	12.6034
2064.31	13.4809
2065.77	12.8621
2067.23	13.4844
2068.69	13.9366
2070.15	15.7368
2071.61	16.3646
2073.07	15.8529
2074.53	15.9442
2075.99	15.8633
2077.45	15.0237
2078.91	14.7905
2080.37	14.2821
2081.82	12.8103
2083.28	12.1933
2084.74	12.6888
2086.2	12.6885
2087.65	12.6954
2089.11	12.6872
2090.57	12.0694
2092.02	12.0799
2093.48	11.3255
2094.94	11.294
2096.39	10.8994
2097.85	9.70321
2099.3	9.51764
2100.76	10.6853
2102.21	10.3339
2103.66	9.74947
2105.12	8.92529
2106.57	8.97076
2108.03	8.50561
2109.48	8.47744
2110.93	8.6599
2112.38	8.83482
2113.84	9.0881
2115.29	8.58192
2116.74	8.2586
2118.19	8.07819
2119.64	7.22717
2121.09	7.00808
2122.54	6.68038
2123.99	6.47614
2125.45	6.24443
2126.89	5.71266
2128.34	6.11851
2129.79	6.4604
2131.24	5.8527
