#Acq. time (s)=	45
#Accumulations=	2
#Range (cm-¹)=	200...3150
#Windows=	2
#Auto scanning=	Off
#Autofocus=	Off
#Macrospot=	Off
#AutoExposure=	Off
#Spike filter=	Multiple accum.
#Delay time (s)=	0
#Binning=	1
#Readout mode=	Signal
#DeNoise=	Off
#ICS correction=	On
#Dark correction=	Off
#Inst. Process=	Off
#Detector Gain=	Best Dynamic Range
#Detector ADC=	20 kHz       
#Detector temperature (°C)=	-69.85
#Instrument=	LabRAM HR Evol
#Detector=	Synapse
#Objective=	x100
#Grating=	600 gr/mm
#ND Filter=	100%
#Laser (nm)=	532 
#Hole=	100.021
#Range=	Auto
#Laser Pol.=	No
#Raman. Pol.=	No
#Laser Pol. (°)=	-0.0007625
#Raman Pol. (°)=	89.9995
#Collection=	Microscope
#StageXY=	Marzhauser
#StageZ=	Marzhauser
#X (µm)=	-986.9
#Y (µm)=	-2859.9
#Z (µm)=	528.65
#Full time(mm:ss)=	3:18
#Project=	
#Sample=	
#Site=	
#Title=	Mb_00_13_29_2x_45s_532 nm_x100_100%_600 gr_mm
#Remark=	
#Date=	06.07.2022 11:55
#Acquired=	06.07.2022 11:55:52
#Base:Fit=	10.08.2022 10:16:56
#Base:Sub=	10.08.2022 10:17:24
#Filter:Polynom=	16.08.2022 10:36:38
#AxisType[0]=Intens
#AxisUnit[0]=Cnt
#AxisType[1]=Spectr
#AxisUnit[1]=1/cm
200.398	4.97042
202.213	5.49046
204.027	4.35717
205.843	4.65406
207.657	4.64459
209.47	4.66999
211.283	5.76647
213.097	6.53389
214.909	7.99182
216.721	9.07427
218.533	10.8103
220.344	13.3925
222.157	16.3647
223.967	19.8261
225.777	22.4972
227.587	25.8523
229.396	28.6752
231.205	32.5977
233.016	35.2174
234.824	37.9447
236.632	39.3032
238.439	40.4554
240.247	41.8878
242.053	43.4248
243.86	45.2009
245.666	46.8396
247.474	48.5421
249.279	50.5053
251.085	51.6405
252.889	54.0511
254.694	54.7046
256.498	55.0321
258.301	56.6761
260.105	56.4566
261.908	54.3543
263.71	52.6553
265.513	51.5838
267.315	50.7897
269.116	49.553
270.918	47.1205
272.718	45.2092
274.519	43.8615
276.319	42.999
278.119	41.3145
279.918	39.1605
281.718	37.3702
283.516	35.1618
285.315	32.7653
287.113	30.8122
288.911	29.2572
290.708	27.0703
292.505	25.5379
294.302	23.6074
296.098	21.6749
297.894	20.7793
299.69	19.8201
301.485	19.7987
303.278	18.3461
305.073	18.7505
306.867	19.1128
308.661	19.8996
310.454	19.8943
312.247	19.8519
314.04	19.6914
315.833	19.5427
317.623	20.1601
319.415	20.115
321.206	20.6524
322.997	20.7953
324.788	22.2466
326.579	22.1523
328.367	22.4104
330.156	23.0469
331.946	24.2031
333.735	25.019
335.523	25.1363
337.31	24.3867
339.098	24.1767
340.885	23.2051
342.673	22.3694
344.458	21.7518
346.244	20.2067
348.03	18.4298
349.816	17.6745
351.6	16.3032
353.385	15.7415
355.17	15.1609
356.953	12.6195
358.737	11.226
360.521	10.7748
362.304	11.0231
364.085	10.797
365.868	10.7449
367.65	10.897
369.431	11.3897
371.212	11.7528
372.994	11.3398
374.773	12.0218
376.554	12.6602
378.332	13.53
380.112	14.0772
381.892	15.6115
383.669	16.5886
385.448	19.583
387.225	22.2274
389.003	24.5737
390.781	27.3084
392.557	29.9961
394.334	32.1967
396.109	33.8072
397.885	34.2095
399.66	35.3523
401.436	38.5719
403.211	40.4565
404.984	41.9608
406.759	43.5138
408.532	44.996
410.306	46.5946
412.078	48.2753
413.851	48.4668
415.623	46.9214
417.395	46.7759
419.166	45.9538
420.938	45.8635
422.708	44.7962
424.477	42.8712
426.248	41.1987
428.017	40.1335
429.788	38.9615
431.556	36.3158
433.326	35.3092
435.093	33.4355
436.86	31.8523
438.629	29.2303
440.395	26.3385
442.163	22.8767
443.929	19.4943
445.694	17.4315
447.461	17.0417
449.226	16.0688
450.99	14.4707
452.756	12.9344
454.52	10.9479
456.285	9.26922
458.048	7.16138
459.811	4.95939
461.573	3.75794
463.337	3.0728
465.099	3.18565
466.86	2.53
468.623	2.71156
470.384	2.83468
472.144	3.87624
473.906	5.02309
475.666	4.99428
477.425	4.89203
479.184	5.12197
480.944	5.71293
482.703	5.00422
484.461	5.56384
486.218	5.31594
487.975	6.36061
489.734	7.55671
491.491	6.83031
493.247	7.76813
495.003	8.47747
496.759	10.2408
498.516	11.4609
500.271	12.6048
502.025	13.4518
503.779	14.4042
505.533	16.8012
507.287	16.8853
509.042	18.4038
510.795	18.5146
512.547	18.7419
514.299	19.8265
516.051	20.1382
517.803	20.844
519.554	20.3054
521.305	21.0972
523.055	20.297
524.805	20.402
526.555	19.9828
528.307	20.6576
530.056	20.6508
531.805	22.0677
533.553	22.7326
535.301	22.3307
537.049	21.3232
538.797	21.2447
540.544	20.9061
542.291	19.8572
544.037	19.4292
545.783	18.4872
547.529	17.2734
549.275	17.1091
551.02	15.7914
552.765	15.2827
554.509	15.0792
556.253	15.2499
557.997	13.7996
559.738	13.7131
561.482	12.9844
563.224	10.9267
564.967	10.5501
566.709	8.98601
568.451	8.03056
570.192	7.54614
571.933	7.15486
573.674	5.98557
575.415	5.5632
577.153	5.56472
578.893	5.66032
580.632	5.74704
582.371	5.66078
584.11	6.91365
585.849	6.05697
587.587	4.24402
589.323	4.06298
591.06	2.90653
592.797	2.24182
594.534	0.785124
596.271	0.60461
598.005	0.399736
599.741	0.885376
601.476	0.939911
603.211	0.147315
604.944	0.0705148
606.679	-0.631445
608.413	-0.399902
610.147	-0.69355
611.878	0.263607
613.611	-0.490216
615.344	-0.857694
617.077	-1.19611
618.807	-1.2997
620.539	-1.42161
622.27	-1.36532
623.999	-1.3919
625.73	0.20191
627.461	0.99003
629.189	1.57023
630.919	2.45091
632.648	3.37857
634.376	4.55105
636.105	6.70532
637.833	8.4938
639.559	9.76712
641.287	11.7832
643.013	12.0942
644.74	12.4188
646.467	13.1491
648.192	13.5497
649.918	13.889
651.642	15.1455
653.368	15.37
655.091	16.8875
656.816	17.0026
658.538	17.2077
660.263	17.449
661.987	17.1645
663.708	17.6119
665.432	17.3514
667.153	16.2109
668.875	15.9351
670.596	16.2857
672.318	15.1875
674.037	14.117
675.759	14.1888
677.478	13.6754
679.196	13.7907
680.917	14.0844
682.635	13.1097
684.355	11.7957
686.072	11.3964
687.791	10.6044
689.508	9.93417
691.224	9.69161
692.942	9.01514
694.658	8.54037
696.376	7.99518
698.091	6.95996
699.805	6.93481
701.522	6.81471
703.236	7.4449
704.95	7.41233
706.665	7.95361
708.379	8.0562
710.093	9.50225
711.806	11.9223
713.518	12.2797
715.23	14.0458
716.943	15.9799
718.655	17.9397
720.366	19.1109
722.078	20.241
723.788	20.8847
725.498	21.7684
727.208	23.4326
728.919	23.9721
730.628	25.8044
732.337	26.9831
734.045	28.8057
735.755	29.7118
737.463	30.5212
739.17	30.9727
740.877	31.3962
742.584	31.7557
744.292	33.845
745.998	33.8085
747.704	34.2805
749.409	35.7136
751.114	36.8665
752.819	38.0858
754.526	39.947
756.23	42.0342
757.934	41.7513
759.637	42.9212
761.34	43.7173
763.043	46.4244
764.746	48.1508
766.448	49.4891
768.152	49.4669
769.853	50.5907
771.554	52.8913
773.255	54.315
774.956	55.8594
776.656	57.0536
778.356	56.8717
780.056	57.8357
781.755	57.5904
783.454	57.5195
785.153	58.385
786.851	57.0941
788.549	56.8509
790.247	56.3527
791.944	57.3291
793.641	58.2013
795.338	58.6767
797.034	58.948
798.73	59.5707
800.426	60.5901
802.121	60.375
803.817	59.5368
805.511	58.6084
807.206	58.1665
808.9	58.6636
810.592	58.152
812.286	58.5674
813.979	58.9522
815.672	58.5254
817.364	57.2613
819.057	57.1344
820.748	56.3027
822.44	55.2856
824.129	54.8349
825.82	55.1552
827.511	55.6027
829.201	55.9034
830.891	55.2105
832.581	55.5986
834.269	56.4065
835.958	56.3509
837.646	56.1118
839.335	56.3802
841.023	55.8905
842.709	56.3062
844.396	56.6393
846.084	56.1278
847.77	56.8634
849.455	55.4839
851.141	54.4061
852.827	53.451
854.513	54.1193
856.196	53.6211
857.881	53.415
859.566	52.3378
861.248	50.0228
862.932	47.8101
864.616	47.3444
866.297	46.3385
867.98	45.8555
869.663	43.8901
871.343	41.8641
873.026	40.9939
874.707	40.4603
876.387	39.773
878.068	39.3354
879.747	38.24
881.428	38.3679
883.108	37.5094
884.786	38.8168
886.465	40.5153
888.143	41.5552
889.822	43.3256
891.498	46.3764
893.177	48.4621
894.855	49.6045
896.53	51.7193
898.208	51.9
899.883	52.4418
901.56	53.504
903.234	54.7504
904.91	55.4746
906.584	56.0071
908.26	58.288
909.933	58.2289
911.608	59.8328
913.28	60.2129
914.955	60.1194
916.627	59.6435
918.298	59.9339
919.972	59.7578
921.643	59.9567
923.315	59.5918
924.986	58.645
926.656	57.615
928.328	55.3213
929.997	53.0873
931.668	52.1337
933.337	49.7103
935.006	47.6628
936.676	46.5003
938.344	45.198
940.012	42.9623
941.681	40.7703
943.348	38.4857
945.014	36.2826
946.683	34.8759
948.349	32.5687
950.015	29.9737
951.682	26.7187
953.347	24.1304
955.012	22.7718
956.676	21.9806
958.343	20.6278
960.006	20.0167
961.67	20.441
963.333	21.0661
964.998	22.6489
966.661	25.0854
968.323	29.2122
969.985	30.73
971.649	31.1733
973.31	33.8641
974.971	35.2751
976.632	35.3502
978.293	35.645
979.953	36.4417
981.615	37.3201
983.274	38.9784
984.933	39.2361
986.592	40.2942
988.251	41.0086
989.909	40.5751
991.567	41.6392
993.225	41.0349
994.884	40.8739
996.541	39.1565
998.198	38.5138
999.855	38.0405
1001.51	38.7639
1003.17	38.2669
1004.82	37.2099
1006.48	35.1007
1008.13	33.9288
1009.79	32.8117
1011.44	32.8452
1013.1	32.4206
1014.75	32.6216
1016.4	31.9479
1018.06	32.1999
1019.71	33.388
1021.36	34.3017
1023.01	35.4878
1024.66	36.5411
1026.32	38.2557
1027.97	38.7262
1029.62	38.9732
1031.27	39.0796
1032.92	39.9984
1034.57	41.6532
1036.22	43.4306
1037.87	44.9198
1039.52	46.535
1041.16	47.0102
1042.81	48.2561
1044.46	50.5234
1046.11	51.1902
1047.76	52.5952
1049.4	53.3512
1051.05	53.2283
1052.7	52.8803
1054.34	53.1428
1055.99	54.3838
1057.63	53.3767
1059.28	52.6638
1060.92	51.4953
1062.57	50.7579
1064.21	50.4024
1065.85	48.6825
1067.5	47.4896
1069.14	46.2244
1070.78	45.547
1072.43	42.9274
1074.07	40.6308
1075.71	38.8402
1077.35	35.8739
1078.99	34.8074
1080.63	33.3997
1082.27	30.8563
1083.91	29.0562
1085.55	27.0334
1087.19	25.2091
1088.83	23.9616
1090.47	24.1118
1092.11	24.1006
1093.75	24.5649
1095.39	23.779
1097.03	24.3117
1098.66	24.9029
1100.3	24.7747
1101.94	25.0411
1103.57	25.6525
1105.21	25.5269
1106.84	25.2554
1108.48	23.9991
1110.11	22.8647
1111.75	22.0311
1113.38	21.4574
1115.02	21.0986
1116.65	21.1752
1118.29	20.17
1119.92	19.6175
1121.55	18.6627
1123.19	16.9339
1124.82	16.2589
1126.45	16.0122
1128.08	14.6073
1129.71	14.4008
1131.34	13.6495
1132.97	13.3869
1134.6	13.119
1136.23	13.0721
1137.86	13.4386
1139.49	12.8786
1141.12	12.544
1142.75	12.3726
1144.38	12.8225
1146.01	13.3218
1147.64	12.2054
1149.26	12.9361
1150.89	12.6911
1152.52	13.3555
1154.15	11.6863
1155.77	12.3051
1157.4	12.7378
1159.02	11.5066
1160.65	12.1503
1162.27	12.114
1163.9	12.1949
1165.52	12.8275
1167.15	13.7724
1168.77	14.8554
1170.39	16.3048
1172.02	17.0821
1173.64	17.6865
1175.26	18.7872
1176.89	18.0309
1178.51	18.6538
1180.13	18.1955
1181.75	17.8394
1183.37	19.0568
1184.99	20.6598
1186.61	21.5979
1188.23	21.5408
1189.85	21.4485
1191.47	23.2545
1193.09	24.7394
1194.71	26.2702
1196.33	27.2887
1197.94	29.0053
1199.56	30.3615
1201.18	31.9553
1202.8	32.5874
1204.41	34.3895
1206.03	35.8458
1207.65	37.8551
1209.26	38.8616
1210.88	40.0591
1212.49	41.3493
1214.11	43.5205
1215.72	45.5689
1217.34	48.5857
1218.95	50.8356
1220.57	51.7289
1222.18	53.0054
1223.79	54.7337
1225.41	55.8866
1227.02	56.7096
1228.63	57.6179
1230.24	59.0144
1231.85	58.8144
1233.47	59.0836
1235.08	59.6747
1236.69	60.4093
1238.3	60.4642
1239.91	60.7646
1241.52	60.8085
1243.13	61.0177
1244.74	60.3298
1246.34	59.6119
1247.95	58.7207
1249.56	58.2801
1251.17	58.3839
1252.78	57.5143
1254.38	57.2306
1255.99	56.0075
1257.6	54.4496
1259.2	54.538
1260.81	54.5374
1262.42	54.8349
1264.02	55.3892
1265.63	54.3699
1267.23	53.9961
1268.84	53.1166
1270.44	53.726
1272.04	54.6863
1273.65	54.7346
1275.25	55.7563
1276.85	56.1045
1278.46	57.5165
1280.06	58.4853
1281.66	58.3889
1283.26	59.559
1284.86	61.6131
1286.46	62.931
1288.07	64.3396
1289.67	65.8042
1291.27	68.622
1292.87	69.9911
1294.47	71.1656
1296.06	73.875
1297.66	75.4806
1299.26	76.6556
1300.86	78.2803
1302.46	79.1394
1304.06	80.5641
1305.65	82.0603
1307.25	83.903
1308.85	85.0009
1310.44	86.5668
1312.04	88.5627
1313.64	90.5742
1315.23	91.6099
1316.83	91.113
1318.42	91.1104
1320.02	90.4561
1321.61	90.2471
1323.2	90.2245
1324.8	89.4747
1326.39	88.9888
1327.99	89.3159
1329.58	89.5648
1331.17	89.9709
1332.76	89.3861
1334.36	88.4618
1335.95	87.6448
1337.54	87.0655
1339.13	86.4782
1340.72	85.5011
1342.31	84.1037
1343.9	83.2159
1345.49	82.5124
1347.08	81.2286
1348.67	79.6829
1350.26	79.7727
1351.85	78.8247
1353.43	77.8072
1355.02	76.4495
1356.61	74.6689
1358.2	73.573
1359.78	71.7421
1361.37	69.9221
1362.96	69.1148
1364.54	67.8955
1366.13	67.4899
1367.71	65.6738
1369.3	64.6846
1370.88	63.4371
1372.47	61.9126
1374.05	61.7303
1375.64	62.18
1377.22	60.0962
1378.8	60.1518
1380.39	60.035
1381.97	59.8255
1383.55	60.35
1385.13	61.1145
1386.72	60.7285
1388.3	60.8859
1389.88	61.1254
1391.46	60.2044
1393.04	59.6111
1394.62	58.2353
1396.2	57.6914
1397.78	57.7116
1399.36	57.8885
1400.94	57.7565
1402.52	58.31
1404.1	59.5727
1405.68	60.2287
1407.25	62.1192
1408.83	63.8528
1410.41	65.4547
1411.98	67.1516
1413.56	67.9005
1415.14	70.3515
1416.71	72.7082
1418.29	74.9848
1419.87	77.1012
1421.44	79.1686
1423.02	82.4302
1424.59	84.4884
1426.16	86.4619
1427.74	89.8221
1429.31	92.7577
1430.89	93.7373
1432.46	95.597
1434.03	97.048
1435.6	99.5224
1437.18	100.841
1438.75	101.966
1440.32	104.254
1441.89	105.561
1443.46	106.444
1445.03	107.186
1446.6	106.601
1448.17	107.714
1449.74	108.238
1451.31	108.301
1452.88	107.797
1454.45	106.763
1456.02	106.331
1457.59	105.127
1459.16	103.007
1460.72	100.898
1462.29	99.1217
1463.86	96.8063
1465.43	93.3832
1466.99	90.998
1468.56	87.3536
1470.13	84.845
1471.69	82.0048
1473.26	78.0489
1474.82	74.7971
1476.38	71.9144
1477.95	69.3024
1479.51	66.3318
1481.08	64.3211
1482.64	62.5541
1484.2	60.4539
1485.77	58.5746
1487.33	56.5412
1488.89	53.7117
1490.46	52.4583
1492.02	50.2514
1493.58	49.0634
1495.14	47.0136
1496.7	45.496
1498.26	45.2097
1499.82	44.9802
1501.38	44.1867
1502.94	43.4854
1504.5	43.0389
1506.06	42.1835
1507.62	41.4277
1509.18	40.7164
1510.73	40.6909
1512.29	40.7059
1513.85	41.334
1515.41	40.6673
1516.96	40.5749
1518.52	40.3542
1520.08	39.9812
1521.63	40.7614
1523.19	41.8457
1524.75	42.3769
1526.3	43.2541
1527.85	43.7721
1529.41	43.6426
1530.96	43.4394
1532.52	43.443
1534.07	42.9953
1535.62	43.1034
1537.18	44.2747
1538.73	45.4591
1540.28	46.0571
1541.84	46.5329
1543.39	47.4615
1544.94	48.1279
1546.49	48.6841
1548.04	49.6382
1549.59	49.427
1551.14	49.8548
1552.69	51.0069
1554.25	52.034
1555.79	51.9695
1557.34	52.6802
1558.89	53.9678
1560.44	54.7336
1561.99	54.4116
1563.54	53.7894
1565.08	54.3
1566.63	54.4117
1568.18	54.7486
1569.73	55.0549
1571.27	56.0839
1572.82	57.0563
1574.37	58.2645
1575.91	59.1341
1577.46	59.1383
1579	58.8275
1580.55	60.0771
1582.09	60.9441
1583.64	61.9748
1585.18	63.7285
1586.73	64.3716
1588.27	64.2318
1589.81	64.9346
1591.35	65.9373
1592.9	66.638
1594.44	67.6709
1595.98	67.8668
1597.52	68.161
1599.06	68.3394
1600.61	67.2374
1602.15	66.7328
1603.69	67.4003
1605.23	67.689
1606.77	66.7968
1608.31	66.5252
1609.85	66.661
1611.39	66.5121
1612.93	68.3158
1614.46	67.8417
1616	68.0349
1617.54	68.2426
1619.08	69.0682
1620.61	69.2703
1622.15	69.4076
1623.69	70.005
1625.23	71.2143
1626.76	72.3024
1628.3	73.9249
1629.83	75.4
1631.37	75.4814
1632.9	75.6017
1634.44	77.2797
1635.97	78.0802
1637.51	78.4162
1639.04	79.2392
1640.57	79.7307
1642.11	80.0081
1643.64	80.9076
1645.17	81.0359
1646.71	81.9281
1648.24	82.7298
1649.77	82.8816
1651.3	83.2114
1652.83	83.6574
1654.36	84.2238
1655.89	85.0284
1657.42	85.4974
1658.96	86.1774
1660.48	84.8225
1662.01	83.9308
1663.54	81.5371
1665.07	80.3923
1666.6	78.4148
1668.13	76.6227
1669.66	74.9328
1671.19	71.7283
1672.71	68.744
1674.24	66.9146
1675.77	64.9768
1677.29	62.3674
1678.82	60.8537
1680.35	58.881
1681.87	54.8801
1683.4	51.0048
1684.92	47.4513
1686.45	45.0184
1687.97	43.1049
1689.5	41.531
1691.02	38.754
1692.54	37.5144
1694.07	35.2713
1695.59	33.2921
1697.11	30.9396
1698.64	29.0478
1700.16	27.5469
1701.68	26.7961
1703.2	26.0441
1704.72	24.9363
1706.25	23.124
1707.77	21.0486
1709.29	20.7815
1710.81	19.8931
1712.33	19.2484
1713.85	17.8776
1715.37	17.9058
1716.89	16.3201
1718.41	16.3489
1719.92	16.2669
1721.44	15.6419
1722.96	16.2216
1724.48	16.7557
1725.99	16.6767
1727.51	16.8893
1729.03	17.1152
1730.55	17.6649
1732.06	17.0779
1733.58	16.6852
1735.09	16.4936
1736.61	15.3907
1738.13	16.0673
1739.64	15.3803
1741.15	15.3929
1742.67	14.6756
1744.18	15.8471
1745.7	16.0967
1747.21	16.3125
1748.72	16.9687
1750.24	16.6475
1751.75	16.2865
1753.26	15.8459
1754.77	15.6205
1756.29	14.5651
1757.8	13.9257
1759.31	14.1366
1760.82	14.1281
1762.33	15.3561
1763.84	15.732
1765.35	15.5754
1766.86	15.5344
1768.37	15.274
1769.88	14.5446
1771.39	14.3671
1772.9	13.8156
1774.4	13.5659
1775.91	13.3656
1777.42	13.5889
1778.93	13.6069
1780.44	12.8589
1781.94	12.3799
1783.45	12.6599
1784.96	13.1415
1786.46	12.7262
1787.97	13.211
1789.47	12.943
1790.98	13.5333
1792.48	12.447
1793.99	12.7199
1795.49	11.9814
1797	11.9361
1798.5	12.004
1800.01	12.2648
1801.51	11.5547
1803.01	10.8798
1804.51	10.5411
1806.02	10.4796
1807.52	9.90796
1809.02	10.013
1810.52	9.46979
1812.02	9.59135
1813.52	9.34067
1815.02	8.45995
1816.53	8.55009
1818.03	8.62767
1819.52	8.57952
1821.02	8.23237
1822.52	8.22225
1824.02	7.54937
1825.52	6.94288
1827.02	6.86097
1828.52	6.11597
1830.02	6.34852
1831.51	6.45137
1833.01	6.77164
1834.51	6.32647
1836.01	5.97265
1837.5	6.4582
1839	5.98392
1840.49	5.41735
1841.99	5.42417
1843.49	5.01453
1844.98	5.03949
1846.48	5.13839
1847.97	4.27153
1849.47	3.9456
1850.96	3.6877
1852.45	4.52109
1853.95	4.20672
1855.44	4.72809
1856.93	4.93426
1858.42	5.00094
1859.92	4.84153
1861.41	4.92376
1862.9	4.93698
1864.39	4.93374
1865.88	4.81506
1867.38	4.94787
1868.87	4.59986
1870.36	3.855
1871.85	3.44181
1873.34	2.88161
1874.83	2.74579
1876.32	1.98052
1877.81	1.88276
1879.29	2.10148
1880.78	2.15334
1882.27	1.91198
1882.53	1.5638
1884.03	0.599067
1885.52	0.674649
1887.01	0.0432499
1888.51	-0.0774278
1890	0.257425
1891.5	0.698509
1892.99	0.559577
1894.48	-0.0788858
1895.97	-0.159114
1897.47	-0.128391
1898.96	0.123694
1900.45	0.327341
1901.94	0.788944
1903.43	1.77959
1904.92	1.57212
1906.41	1.75469
1907.9	1.62236
1909.39	1.6438
1910.88	1.97089
1912.37	1.59157
1913.86	1.93981
1915.35	2.40456
1916.84	2.44928
1918.33	2.67014
1919.81	2.54734
1921.3	2.4592
1922.79	3.42569
1924.28	3.43608
1925.76	4.35232
1927.25	3.9856
1928.73	4.79665
1930.22	4.9099
1931.71	5.50812
1933.19	5.69903
1934.68	6.18106
1936.16	6.54276
1937.65	5.96758
1939.13	5.85796
1940.62	6.31187
1942.1	4.93252
1943.58	4.84712
1945.07	4.85167
1946.55	4.97153
1948.03	5.38534
1949.51	4.7735
1951	4.55402
1952.48	4.91615
1953.96	4.20843
1955.44	4.28434
1956.92	4.18779
1958.4	3.9863
1959.88	3.65071
1961.36	3.31755
1962.84	2.98471
1964.32	3.11504
1965.8	2.50816
1967.28	1.27229
1968.76	1.29078
1970.24	1.90453
1971.72	2.28063
1973.2	2.71917
1974.67	2.11251
1976.15	1.51046
1977.63	1.48808
1979.1	1.50698
1980.58	1.65564
1982.06	1.17192
1983.54	1.29414
1985.01	0.808293
1986.49	1.41536
1987.96	1.40868
1989.44	2.07849
1990.91	2.54825
1992.39	3.07623
1993.86	3.11594
1995.33	3.54435
1996.81	3.4414
1998.28	3.58578
1999.75	4.74623
2001.23	5.40609
2002.7	6.2684
2004.17	6.80046
2005.65	6.94295
2007.12	6.83041
2008.59	7.49291
2010.06	7.69067
2011.53	7.96377
2013	8.6928
2014.47	8.94961
2015.94	8.28153
2017.41	8.82893
2018.88	8.96798
2020.35	9.3567
2021.82	8.84713
2023.29	8.58434
2024.76	9.14978
2026.23	9.58281
2027.69	8.81736
2029.16	9.17432
2030.63	8.93863
2032.1	7.52556
2033.56	7.546
2035.03	7.25534
2036.5	7.07152
2037.96	6.82085
2039.43	6.64425
2040.89	7.07476
2042.36	7.22927
2043.83	6.29211
2045.29	5.68656
2046.75	5.14482
2048.22	4.32825
2049.68	4.76377
2051.15	5.06181
2052.61	5.14742
2054.07	4.41832
2055.54	3.4262
2057	3.35035
2058.46	2.50889
2059.92	3.1685
2061.39	1.98184
2062.85	2.23376
2064.31	1.50386
2065.77	1.6375
2067.23	1.95606
2068.69	1.41608
2070.15	1.81634
2071.61	2.02173
2073.07	1.65786
2074.53	1.30768
2075.99	1.33098
2077.45	1.52928
2078.91	0.642318
2080.37	1.02717
2081.82	0.615323
2083.28	0.640273
2084.74	0.569235
2086.2	-0.230008
2087.65	0.0107873
2089.11	0.185758
2090.57	0.367002
2092.02	0.804812
2093.48	0.695001
2094.94	0.0901461
2096.39	0.770335
2097.85	0.761342
2099.3	0.940321
2100.76	1.02854
2102.21	1.45527
2103.66	1.58672
2105.12	0.881898
2106.57	1.61578
2108.03	1.57318
2109.48	2.40266
2110.93	2.07158
2112.38	2.82553
2113.84	3.00756
2115.29	2.94935
2116.74	2.93743
2118.19	3.35666
2119.64	3.28134
2121.09	3.69551
2122.54	3.91663
2123.99	3.34932
2125.45	3.8873
2126.89	3.45947
2128.34	3.53466
2129.79	4.16976
