#Acq. time (s)=	45
#Accumulations=	2
#Range (cm-¹)=	200...3150
#Windows=	2
#Auto scanning=	Off
#Autofocus=	Off
#Macrospot=	Off
#AutoExposure=	Off
#Spike filter=	Multiple accum.
#Delay time (s)=	0
#Binning=	1
#Readout mode=	Signal
#DeNoise=	Off
#ICS correction=	On
#Dark correction=	Off
#Inst. Process=	Off
#Detector Gain=	Best Dynamic Range
#Detector ADC=	20 kHz       
#Detector temperature (°C)=	-69.85
#Instrument=	LabRAM HR Evol
#Detector=	Synapse
#Objective=	x100
#Grating=	600 gr/mm
#ND Filter=	100%
#Laser (nm)=	532 
#Hole=	100.021
#Range=	Auto
#Laser Pol.=	No
#Raman. Pol.=	No
#Laser Pol. (°)=	-0.0007625
#Raman Pol. (°)=	89.9995
#Collection=	Microscope
#StageXY=	Marzhauser
#StageZ=	Marzhauser
#X (µm)=	-1020
#Y (µm)=	-2927.7
#Z (µm)=	527.8
#Full time(mm:ss)=	3:18
#Project=	
#Sample=	
#Site=	
#Title=	Mb_00_13_14_2x_45s_532 nm_x100_100%_600 gr_mm
#Remark=	
#Date=	06.07.2022 10:37
#Acquired=	06.07.2022 10:37:07
#Base:Fit=	10.08.2022 10:16:56
#Base:Sub=	10.08.2022 10:17:24
#Filter:Polynom=	16.08.2022 10:36:38
#AxisType[0]=Intens
#AxisUnit[0]=Cnt
#AxisType[1]=Spectr
#AxisUnit[1]=1/cm
200.398	28.3205
202.213	22.9265
204.027	15.3592
205.843	9.77269
207.657	4.14176
209.47	0.201882
211.283	-2.32239
213.097	-3.30882
214.909	-0.491704
216.721	3.48869
218.533	8.79614
220.344	15.2562
222.157	24.0623
223.967	31.4293
225.777	38.6824
227.587	48.5773
229.396	57.586
231.205	64.753
233.016	72.2245
234.824	79.6838
236.632	84.3944
238.439	90.677
240.247	95.1884
242.053	100.928
243.86	105.539
245.666	109.411
247.474	115.221
249.279	121.059
251.085	126.29
252.889	130.914
254.694	134.598
256.498	137.878
258.301	138.536
260.105	138.996
261.908	138.334
263.71	137.459
265.513	137.202
267.315	133.508
269.116	131.561
270.918	128.254
272.718	124.553
274.519	118.941
276.319	112.747
278.119	108.494
279.918	101.468
281.718	93.0112
283.516	85.7796
285.315	78.9309
287.113	73.2871
288.911	68.419
290.708	61.6214
292.505	54.9976
294.302	49.9863
296.098	45.3503
297.894	42.8525
299.69	39.9896
301.485	37.2169
303.278	36.0061
305.073	35.6254
306.867	33.379
308.661	31.6412
310.454	30.1364
312.247	28.8505
314.04	26.1146
315.833	25.4222
317.623	25.1279
319.415	23.4104
321.206	21.5764
322.997	21.1988
324.788	20.5449
326.579	17.8353
328.367	17.499
330.156	16.204
331.946	16.5371
333.735	15.9871
335.523	15.5706
337.31	14.572
339.098	14.2308
340.885	13
342.673	11.6095
344.458	10.2833
346.244	9.05856
348.03	6.35137
349.816	4.24956
351.6	3.47252
353.385	3.25754
355.17	2.58318
356.953	1.44743
358.737	2.11159
360.521	2.65964
362.304	3.17062
364.085	6.03956
365.868	10.9574
367.65	14.5112
369.431	17.1817
371.212	20.3078
372.994	25.0961
374.773	29.7663
376.554	33.6774
378.332	39.2916
380.112	45.668
381.892	52.9017
383.669	61.6608
385.448	71.4556
387.225	80.9483
389.003	90.1087
390.781	99.3273
392.557	107.881
394.334	114.417
396.109	120.938
397.885	126.302
399.66	130.929
401.436	135.777
403.211	137.789
404.984	141.495
406.759	143.766
408.532	145.598
410.306	146.791
412.078	145.7
413.851	145.055
415.623	143.383
417.395	141.585
419.166	139.146
420.938	136.725
422.708	132.549
424.477	128.104
426.248	123.869
428.017	120.022
429.788	113.835
431.556	108.332
433.326	101.33
435.093	94.584
436.86	87.2835
438.629	80.2196
440.395	74.1873
442.163	66.1785
443.929	59.9113
445.694	52.979
447.461	48.192
449.226	43.8369
450.99	39.5162
452.756	36.5119
454.52	32.8015
456.285	27.9791
458.048	24.2865
459.811	21.6064
461.573	19.3951
463.337	18.7257
465.099	18.6709
466.86	21.2032
468.623	23.0355
470.384	24.2985
472.144	25.5944
473.906	26.6675
475.666	26.7739
477.425	27.0451
479.184	28.0855
480.944	27.6372
482.703	27.4856
484.461	30.7282
486.218	30.6419
487.975	31.6823
489.734	33.3324
491.491	33.917
493.247	37.6082
495.003	40.076
496.759	42.4955
498.516	44.3357
500.271	45.6524
502.025	49.3845
503.779	51.7465
505.533	53.3137
507.287	55.8951
509.042	58.6345
510.795	61.9005
512.547	64.9603
514.299	67.7279
516.051	67.908
517.803	68.5092
519.554	70.8504
521.305	70.1688
523.055	72.7073
524.805	74.2159
526.555	74.8753
528.307	74.7023
530.056	73.2903
531.805	75.1827
533.553	74.7699
535.301	75.62
537.049	75.8227
538.797	75.3909
540.544	75.8473
542.291	74.3627
544.037	71.7037
545.783	71.0538
547.529	69.3604
549.275	66.7521
551.02	65.5944
552.765	63.6333
554.509	60.0872
556.253	57.0215
557.997	53.9842
559.738	51.1587
561.482	50.0608
563.224	48.7732
564.967	49.0319
566.709	48.4292
568.451	46.4713
570.192	46.0539
571.933	46.37
573.674	43.0028
575.415	41.6122
577.153	39.6286
578.893	38.7193
580.632	38.4276
582.371	36.7861
584.11	35.7009
585.849	34.2737
587.587	33.057
589.323	31.7293
591.06	30.8757
592.797	29.0833
594.534	28.215
596.271	27.7837
598.005	26.8733
599.741	25.7599
601.476	24.3216
603.211	22.3275
604.944	23.9326
606.679	23.7861
608.413	23.0758
610.147	23.9996
611.878	22.9857
613.611	21.1459
615.344	19.9886
617.077	20.4804
618.807	21.2402
620.539	20.3
622.27	21.2452
623.999	21.9656
625.73	21.6588
627.461	21.703
629.189	21.9403
630.919	23.7836
632.648	25.234
634.376	25.2789
636.105	25.9404
637.833	26.261
639.559	26.7651
641.287	27.9201
643.013	28.5285
644.74	28.3816
646.467	29.009
648.192	31.5225
649.918	32.2478
651.642	30.6602
653.368	29.7503
655.091	27.9209
656.816	27.4326
658.538	24.9445
660.263	22.8482
661.987	21.7374
663.708	21.1786
665.432	21.8415
667.153	20.9426
668.875	18.133
670.596	17.122
672.318	15.5637
674.037	15.6603
675.759	14.967
677.478	14.2912
679.196	12.7289
680.917	11.9063
682.635	10.6085
684.355	10.1794
686.072	9.85431
687.791	8.10979
689.508	9.03828
691.224	9.28253
692.942	8.6282
694.658	8.16451
696.376	7.3269
698.091	6.61787
699.805	4.91567
701.522	5.98784
703.236	6.01067
704.95	5.79955
706.665	5.58614
708.379	6.52925
710.093	6.54073
711.806	8.0367
713.518	9.06705
715.23	9.31922
716.943	10.7519
718.655	9.57394
720.366	8.32549
722.078	7.47959
723.788	7.49615
725.498	8.56711
727.208	9.03975
728.919	7.79711
730.628	7.78279
732.337	8.40274
734.045	7.95191
735.755	5.23995
737.463	4.17332
739.17	4.62554
740.877	4.26744
742.584	5.47145
744.292	6.29794
745.998	9.28986
747.704	12.0699
749.409	12.9771
751.114	14.6358
752.819	14.7228
754.526	16.4994
756.23	19.5479
757.934	22.3073
759.637	24.6418
761.34	24.9757
763.043	25.78
764.746	28.5448
766.448	30.9029
768.152	33.2857
769.853	35.9582
771.554	37.81
773.255	39.9646
774.956	41.6927
776.656	42.5231
778.356	42.7456
780.056	44.148
781.755	45.0335
783.454	46.4046
785.153	45.8814
786.851	47.849
788.549	46.9886
790.247	48.2301
791.944	49.243
793.641	49.8738
795.338	49.6946
797.034	50.0776
798.73	49.2497
800.426	49.4187
802.121	51.3286
803.817	50.2814
805.511	49.9465
807.206	50.8225
808.9	52.3626
810.592	52.1268
812.286	51.3335
813.979	50.9221
815.672	51.4915
817.364	49.7493
819.057	49.2907
820.748	49.1032
822.44	50.7141
824.129	51.7347
825.82	53.2758
827.511	54.7076
829.201	54.4333
830.891	53.5672
832.581	54.179
834.269	52.4088
835.958	52.7634
837.646	52.0043
839.335	52.1314
841.023	50.3435
842.709	48.3892
844.396	46.566
846.084	45.15
847.77	44.5488
849.455	44.7153
851.141	42.6832
852.827	39.829
854.513	35.9442
856.196	33.6393
857.881	31.3141
859.566	30.431
861.248	29.5384
862.932	27.2037
864.616	25.7206
866.297	22.7864
867.98	21.4063
869.663	19.1432
871.343	19.7148
873.026	18.5135
874.707	18.4232
876.387	17.7282
878.068	16.5523
879.747	16.5663
881.428	17.4017
883.108	17.5607
884.786	17.8497
886.465	17.501
888.143	16.2901
889.822	14.6378
891.498	14.5968
893.177	14.6294
894.855	13.7549
896.53	13.8826
898.208	13.8765
899.883	14.3148
901.56	13.3332
903.234	15.7292
904.91	16.4661
906.584	16.6809
908.26	17.976
909.933	17.9275
911.608	17.8059
913.28	17.2924
914.955	18.0112
916.627	19.8375
918.298	19.639
919.972	20.8118
921.643	20.5654
923.315	21.5135
924.986	21.2446
926.656	21.128
928.328	21.9564
929.997	21.6066
931.668	21.1711
933.337	21.6202
935.006	21.6149
936.676	21.0084
938.344	21.7082
940.012	23.9729
941.681	25.1344
943.348	25.8934
945.014	25.2246
946.683	24.9148
948.349	26.902
950.015	28.4613
951.682	30.0702
953.347	30.8775
955.012	31.2341
956.676	29.297
958.343	29.2808
960.006	29.8061
961.67	30.5275
963.333	32.5439
964.998	34.8576
966.661	37.316
968.323	38.7409
969.985	41.0086
971.649	43.284
973.31	44.4594
974.971	47.2714
976.632	49.6278
978.293	51.418
979.953	52.1331
981.615	54.1992
983.274	56.1595
984.933	57.2323
986.592	56.8744
988.251	56.8623
989.909	56.6889
991.567	58.3853
993.225	58.3965
994.884	59.5859
996.541	60.2082
998.198	60.7527
999.855	61.487
1001.51	62.3781
1003.17	62.578
1004.82	62.7475
1006.48	61.8174
1008.13	60.9497
1009.79	60.9379
1011.44	61.6953
1013.1	63.6674
1014.75	66.5772
1016.4	71.7378
1018.06	76.2496
1019.71	83.1174
1021.36	91.7768
1023.01	99.2603
1024.66	106.423
1026.32	113.123
1027.97	120.165
1029.62	126.595
1031.27	132.141
1032.92	135.953
1034.57	140.617
1036.22	145.347
1037.87	149.308
1039.52	153.168
1041.16	157.858
1042.81	162.254
1044.46	166.605
1046.11	169.213
1047.76	172.505
1049.4	173.697
1051.05	173.387
1052.7	173.357
1054.34	171.022
1055.99	169.338
1057.63	167.108
1059.28	161.315
1060.92	155.905
1062.57	149.526
1064.21	144.217
1065.85	138.339
1067.5	131.12
1069.14	123.288
1070.78	116.696
1072.43	109.452
1074.07	102.219
1075.71	95.154
1077.35	86.7642
1078.99	76.8092
1080.63	68.3714
1082.27	60.8476
1083.91	51.8041
1085.55	44.2941
1087.19	37.5023
1088.83	31.3924
1090.47	28.2225
1092.11	26.3095
1093.75	25.7231
1095.39	26.1774
1097.03	26.355
1098.66	27.8971
1100.3	29.641
1101.94	32.3774
1103.57	31.3194
1105.21	30.5255
1106.84	29.9424
1108.48	28.8777
1110.11	27.1886
1111.75	26.2001
1113.38	25.5188
1115.02	24.728
1116.65	24.1761
1118.29	22.455
1119.92	21.3991
1121.55	20.894
1123.19	19.1682
1124.82	19.7845
1126.45	19.0701
1128.08	17.9857
1129.71	18.091
1131.34	17.6735
1132.97	17.4727
1134.6	17.1926
1136.23	16.7364
1137.86	16.6568
1139.49	13.7817
1141.12	12.5037
1142.75	12.5014
1144.38	12.7105
1146.01	14.1311
1147.64	14.3347
1149.26	13.0424
1150.89	12.9605
1152.52	13.1451
1154.15	12.7335
1155.77	11.4571
1157.4	10.6899
1159.02	8.73681
1160.65	6.61568
1162.27	7.12826
1163.9	8.17198
1165.52	7.76947
1167.15	9.43733
1168.77	11.5285
1170.39	13.0776
1172.02	15.8329
1173.64	17.208
1175.26	18.7577
1176.89	20.8998
1178.51	22.2584
1180.13	23.2868
1181.75	25.971
1183.37	26.8233
1184.99	25.9888
1186.61	26.9346
1188.23	26.5778
1189.85	27.1694
1191.47	27.4011
1193.09	30.408
1194.71	31.781
1196.33	33.9754
1197.94	36.5331
1199.56	39.9763
1201.18	43.813
1202.8	46.9728
1204.41	48.8739
1206.03	52.5571
1207.65	57.2389
1209.26	62.2136
1210.88	68.1121
1212.49	73.3845
1214.11	76.7661
1215.72	81.8265
1217.34	85.7198
1218.95	89.0881
1220.57	92.8877
1222.18	98.496
1223.79	103.357
1225.41	106.442
1227.02	110.906
1228.63	113.359
1230.24	116.646
1231.85	119.806
1233.47	122.213
1235.08	124.133
1236.69	126.248
1238.3	128.345
1239.91	130.334
1241.52	131.937
1243.13	135.426
1244.74	137.816
1246.34	139.088
1247.95	140.693
1249.56	143.14
1251.17	143.799
1252.78	145.952
1254.38	145.321
1255.99	145.895
1257.6	143.969
1259.2	142.268
1260.81	140.795
1262.42	140.397
1264.02	140.079
1265.63	139.365
1267.23	139.035
1268.84	139.768
1270.44	139.416
1272.04	140.071
1273.65	141.689
1275.25	142.042
1276.85	143.565
1278.46	144.212
1280.06	145.188
1281.66	145.815
1283.26	148.237
1284.86	150.648
1286.46	154.56
1288.07	157.901
1289.67	159.758
1291.27	161.472
1292.87	163.034
1294.47	165.456
1296.06	168.935
1297.66	171.192
1299.26	174.649
1300.86	177.748
1302.46	179.4
1304.06	181.269
1305.65	181.832
1307.25	186.487
1308.85	188.566
1310.44	192.673
1312.04	195.484
1313.64	196.765
1315.23	199.118
1316.83	202.054
1318.42	203.046
1320.02	204.291
1321.61	204.785
1323.2	204.977
1324.8	207.028
1326.39	206.655
1327.99	207.206
1329.58	206.668
1331.17	204.853
1332.76	203.283
1334.36	200.99
1335.95	196.859
1337.54	195.372
1339.13	192.909
1340.72	190.543
1342.31	189.128
1343.9	187.054
1345.49	182.648
1347.08	180.139
1348.67	176.589
1350.26	172.773
1351.85	171.013
1353.43	167.946
1355.02	165.354
1356.61	162.351
1358.2	158.888
1359.78	156.928
1361.37	153.971
1362.96	151.673
1364.54	148.638
1366.13	145.756
1367.71	141.721
1369.3	138.229
1370.88	135.396
1372.47	132.927
1374.05	129.938
1375.64	127.506
1377.22	123.965
1378.8	122.115
1380.39	120.091
1381.97	118.356
1383.55	117.812
1385.13	117.034
1386.72	118.634
1388.3	117.82
1389.88	117.545
1391.46	115.458
1393.04	114.925
1394.62	115.031
1396.2	113.433
1397.78	111.638
1399.36	111.231
1400.94	110.782
1402.52	110.912
1404.1	114.32
1405.68	115.771
1407.25	118.471
1408.83	120.38
1410.41	124.098
1411.98	128.474
1413.56	133.445
1415.14	138.663
1416.71	146.522
1418.29	152.664
1419.87	160.495
1421.44	168.618
1423.02	176.359
1424.59	184.707
1426.16	194.052
1427.74	202.964
1429.31	213.707
1430.89	223.832
1432.46	232.897
1434.03	241.328
1435.6	250.52
1437.18	257.009
1438.75	263.629
1440.32	268.193
1441.89	273.327
1443.46	276.962
1445.03	280.936
1446.6	282.684
1448.17	283.481
1449.74	283.239
1451.31	283.063
1452.88	282.187
1454.45	280.787
1456.02	277.516
1457.59	275.156
1459.16	269.013
1460.72	262.677
1462.29	255.485
1463.86	248.171
1465.43	240.74
1466.99	231.474
1468.56	221.476
1470.13	211.171
1471.69	202.862
1473.26	192.752
1474.82	182.407
1476.38	173.497
1477.95	164.563
1479.51	155.789
1481.08	147.871
1482.64	141.066
1484.2	132.215
1485.77	124.064
1487.33	117.602
1488.89	112.222
1490.46	104.847
1492.02	98.8309
1493.58	93.0896
1495.14	88.4923
1496.7	83.9885
1498.26	80.31
1499.82	77.6868
1501.38	75.5328
1502.94	73.894
1504.5	73.0883
1506.06	72.0708
1507.62	70.3136
1509.18	69.4768
1510.73	67.3872
1512.29	66.8086
1513.85	66.2588
1515.41	63.6374
1516.96	65.0698
1518.52	66.9987
1520.08	67.0782
1521.63	68.2723
1523.19	69.3585
1524.75	69.2406
1526.3	69.902
1527.85	71.1522
1529.41	73.3597
1530.96	74.1148
1532.52	74.6175
1534.07	75.2489
1535.62	76.0593
1537.18	76.9885
1538.73	80.3978
1540.28	82.1914
1541.84	83.674
1543.39	86.3389
1544.94	88.6852
1546.49	90.0097
1548.04	94.0779
1549.59	97.2897
1551.14	98.6905
1552.69	99.9616
1554.25	102.599
1555.79	104.747
1557.34	105.216
1558.89	107.165
1560.44	107.602
1561.99	108.615
1563.54	111.137
1565.08	112.951
1566.63	115.093
1568.18	116.713
1569.73	119.316
1571.27	123.006
1572.82	125.536
1574.37	128.189
1575.91	130.176
1577.46	131.337
1579	134.129
1580.55	135.832
1582.09	137.558
1583.64	139.374
1585.18	141.11
1586.73	142.468
1588.27	144.263
1589.81	147.484
1591.35	150.106
1592.9	152.843
1594.44	156.113
1595.98	157.085
1597.52	156.232
1599.06	157.704
1600.61	157.282
1602.15	156.875
1603.69	155.828
1605.23	154.636
1606.77	153.905
1608.31	152.995
1609.85	151.359
1611.39	150.397
1612.93	149.145
1614.46	147.972
1616	147.847
1617.54	146.272
1619.08	146.302
1620.61	147.004
1622.15	147.124
1623.69	147.726
1625.23	149.633
1626.76	149.821
1628.3	150.976
1629.83	151.766
1631.37	153.94
1632.9	156.833
1634.44	158.391
1635.97	160.722
1637.51	162.92
1639.04	166.916
1640.57	170.353
1642.11	173.213
1643.64	175.311
1645.17	178.352
1646.71	180.97
1648.24	183.848
1649.77	184.29
1651.3	186.989
1652.83	187.067
1654.36	189.463
1655.89	190.986
1657.42	191.408
1658.96	191.525
1660.48	191.212
1662.01	189.784
1663.54	187.437
1665.07	186.08
1666.6	183.907
1668.13	179.722
1669.66	176.425
1671.19	172.06
1672.71	167.163
1674.24	160.376
1675.77	155.174
1677.29	147.497
1678.82	141.129
1680.35	133.736
1681.87	127.224
1683.4	121.029
1684.92	113.496
1686.45	106.659
1687.97	99.5802
1689.5	92.9289
1691.02	87.1798
1692.54	82.2869
1694.07	76.0673
1695.59	70.1658
1697.11	63.4942
1698.64	59.7909
1700.16	55.5446
1701.68	51.4467
1703.2	48.141
1704.72	44.291
1706.25	40.4447
1707.77	37.7843
1709.29	34.7894
1710.81	30.4458
1712.33	27.643
1713.85	26.3396
1715.37	23.4372
1716.89	21.3869
1718.41	18.8838
1719.92	17.7518
1721.44	16.9835
1722.96	16.0562
1724.48	14.2212
1725.99	13.64
1727.51	14.1767
1729.03	13.2507
1730.55	13.4497
1732.06	12.8343
1733.58	12.3207
1735.09	12.187
1736.61	11.0255
1738.13	10.5558
1739.64	9.5665
1741.15	9.52626
1742.67	9.46657
1744.18	9.10806
1745.7	10.9424
1747.21	10.4165
1748.72	10.5726
1750.24	9.57781
1751.75	11.1428
1753.26	9.98728
1754.77	9.93964
1756.29	9.1482
1757.8	9.5083
1759.31	10.0503
1760.82	9.46015
1762.33	9.45092
1763.84	8.95071
1765.35	9.20016
1766.86	9.33099
1768.37	8.47252
1769.88	7.53792
1771.39	7.38838
1772.9	7.6616
1774.4	8.96779
1775.91	8.66268
1777.42	9.23248
1778.93	8.69447
1780.44	7.52328
1781.94	7.38429
1783.45	7.54883
1784.96	7.2977
1786.46	6.95009
1787.97	6.33485
1789.47	6.03333
1790.98	5.37299
1792.48	4.99219
1793.99	5.11076
1795.49	5.6658
1797	5.64711
1798.5	6.91722
1800.01	6.85023
1801.51	7.41904
1803.01	6.78534
1804.51	6.70038
1806.02	6.71198
1807.52	7.34876
1809.02	6.00443
1810.52	6.13137
1812.02	5.28815
1813.52	5.26331
1815.02	5.06214
1816.53	4.58537
1818.03	4.21538
1819.52	4.42993
1821.02	4.71828
1822.52	4.1905
1824.02	4.14802
1825.52	3.28042
1827.02	3.46357
1828.52	2.22714
1830.02	2.77205
1831.51	2.96043
1833.01	3.49038
1834.51	2.91567
1836.01	1.80351
1837.5	1.72963
1839	2.38695
1840.49	2.47477
1841.99	2.41248
1843.49	2.98201
1844.98	4.16351
1846.48	5.16115
1847.97	4.80586
1849.47	4.90346
1850.96	5.25716
1852.45	4.899
1853.95	4.59415
1855.44	5.61431
1856.93	5.14279
1858.42	4.58246
1859.92	3.84149
1861.41	4.57969
1862.9	3.77096
1864.39	4.60017
1865.88	5.50836
1867.38	5.31367
1868.87	6.31349
1870.36	6.34198
1871.85	6.54566
1873.34	6.36934
1874.83	5.96796
1876.32	5.31345
1877.81	5.46486
1879.29	5.76058
1880.78	6.06332
1882.27	5.96125
1882.53	5.05689
1884.03	5.61054
1885.52	4.84451
1887.01	4.12169
1888.51	4.45053
1890	4.7819
1891.5	5.37168
1892.99	6.51125
1894.48	6.61918
1895.97	6.58929
1897.47	7.05103
1898.96	7.83614
1900.45	8.215
1901.94	7.7425
1903.43	8.2866
1904.92	8.1475
1906.41	8.29248
1907.9	8.0849
1909.39	9.11947
1910.88	10.4654
1912.37	10.3089
1913.86	10.4022
1915.35	10.9694
1916.84	11.1406
1918.33	11.2371
1919.81	11.528
1921.3	10.9731
1922.79	11.0018
1924.28	10.497
1925.76	9.55857
1927.25	8.49018
1928.73	6.91892
1930.22	4.64469
1931.71	4.57601
1933.19	4.11216
1934.68	4.43405
1936.16	3.5365
1937.65	3.93218
1939.13	3.58624
1940.62	2.74564
1942.1	2.64984
1943.58	2.59316
1945.07	1.38526
1946.55	0.381462
1948.03	0.987209
1949.51	1.10692
1951	1.84879
1952.48	1.45248
1953.96	1.69456
1955.44	2.07708
1956.92	1.7264
1958.4	1.59699
1959.88	2.31251
1961.36	2.20507
1962.84	3.50816
1964.32	4.77357
1965.8	4.62171
1967.28	4.627
1968.76	4.61445
1970.24	5.42896
1971.72	5.36715
1973.2	5.18904
1974.67	3.93918
1976.15	3.79833
1977.63	4.52624
1979.1	4.43631
1980.58	5.38494
1982.06	6.18753
1983.54	7.09039
1985.01	6.60222
1986.49	6.10308
1987.96	7.25322
1989.44	8.16936
1990.91	8.70448
1992.39	8.86192
1993.86	9.53764
1995.33	9.51507
1996.81	9.77689
1998.28	9.71639
1999.75	9.92669
2001.23	9.62606
2002.7	10.2403
2004.17	11.6819
2005.65	13.512
2007.12	13.4888
2008.59	14.1272
2010.06	14.145
2011.53	15.0313
2013	15.5445
2014.47	16.3344
2015.94	17.3159
2017.41	16.6297
2018.88	16.9302
2020.35	17.2621
2021.82	18.5733
2023.29	18.1078
2024.76	17.4973
2026.23	18.1557
2027.69	18.5432
2029.16	18.2583
2030.63	16.7095
2032.1	16.3162
2033.56	15.9215
2035.03	15.3343
2036.5	15.3252
2037.96	15.4322
2039.43	14.5159
2040.89	14.5262
2042.36	13.6719
2043.83	12.2336
2045.29	10.6486
2046.75	10.3575
2048.22	10.4726
2049.68	11.1033
2051.15	11.4228
2052.61	12.2208
2054.07	13.4283
2055.54	13.5605
2057	13.2043
2058.46	12.672
2059.92	13.6216
2061.39	14.8517
2062.85	16.1309
2064.31	15.3164
2065.77	15.892
2067.23	19.4351
2068.69	19.048
2070.15	19.3192
2071.61	18.7428
2073.07	19.4157
2074.53	19.1312
2075.99	19.4576
2077.45	20.1177
2078.91	19.7869
2080.37	19.5463
2081.82	19.9379
2083.28	20.6548
2084.74	21.2714
2086.2	20.1236
2087.65	20.7002
2089.11	19.7999
2090.57	18.5661
2092.02	19.5334
2093.48	18.3332
2094.94	18.3609
2096.39	17.1821
2097.85	16.4952
2099.3	16.3175
2100.76	15.0937
2102.21	13.6679
2103.66	13.0315
2105.12	13.8502
2106.57	13.3882
2108.03	14.2464
2109.48	13.7518
2110.93	13.7034
2112.38	12.6543
2113.84	11.7093
2115.29	9.75357
2116.74	9.4473
2118.19	9.32827
2119.64	10.1758
2121.09	10.5061
2122.54	9.95991
2123.99	10.1221
2125.45	11.1499
2126.89	10.7435
2128.34	10.1231
2129.79	10.8883
2131.24	11.3669
2132.69	11.9775
2134.14	12.1663
2135.59	11.86
