#Acq. time (s)=	45
#Accumulations=	2
#Range (cm-¹)=	200...3150
#Windows=	2
#Auto scanning=	Off
#Autofocus=	Off
#Macrospot=	Off
#AutoExposure=	Off
#Spike filter=	Multiple accum.
#Delay time (s)=	0
#Binning=	1
#Readout mode=	Signal
#DeNoise=	Off
#ICS correction=	On
#Dark correction=	Off
#Inst. Process=	Off
#Detector Gain=	Best Dynamic Range
#Detector ADC=	20 kHz       
#Detector temperature (°C)=	-69.85
#Instrument=	LabRAM HR Evol
#Detector=	Synapse
#Objective=	x100
#Grating=	600 gr/mm
#ND Filter=	100%
#Laser (nm)=	532 
#Hole=	100.021
#Range=	Auto
#Laser Pol.=	No
#Raman. Pol.=	No
#Laser Pol. (°)=	-0.0007625
#Raman Pol. (°)=	89.9995
#Collection=	Microscope
#StageXY=	Marzhauser
#StageZ=	Marzhauser
#X (µm)=	-987.9
#Y (µm)=	-2937.5
#Z (µm)=	527.85
#Full time(mm:ss)=	3:18
#Project=	
#Sample=	
#Site=	
#Title=	Mb_00_13_07_2x_45s_532 nm_x100_100%_600 gr_mm
#Remark=	
#Date=	06.07.2022 10:09
#Acquired=	06.07.2022 10:09:56
#Base:Fit=	10.08.2022 10:16:36
#Base:Fit=	10.08.2022 10:16:56
#Base:Sub=	10.08.2022 10:17:24
#Filter:Polynom=	16.08.2022 10:36:38
#AxisType[0]=Intens
#AxisUnit[0]=Cnt
#AxisType[1]=Spectr
#AxisUnit[1]=1/cm
200.398	18.0247
202.213	16.7002
204.027	15.388
205.843	13.4364
207.657	12.1609
209.47	10.975
211.283	10.5196
213.097	10.496
214.909	12.5549
216.721	14.9639
218.533	18.2105
220.344	22.5047
222.157	27.1168
223.967	32.4883
225.777	35.9038
227.587	41.1565
229.396	45.9624
231.205	50.1959
233.016	54.3123
234.824	59.4851
236.632	62.6541
238.439	65.6225
240.247	67.5856
242.053	70.2328
243.86	72.874
245.666	74.3355
247.474	76.4865
249.279	78.4177
251.085	80.7877
252.889	81.8819
254.694	83.0051
256.498	85.0244
258.301	87.693
260.105	88.8568
261.908	89.7727
263.71	89.6586
265.513	87.0181
267.315	85.0397
269.116	85.0563
270.918	82.7104
272.718	80.3944
274.519	76.3661
276.319	73.288
278.119	70.1077
279.918	66.451
281.718	61.0171
283.516	56.6712
285.315	52.6001
287.113	47.7412
288.911	45.2875
290.708	40.962
292.505	38.1416
294.302	35.2312
296.098	33.2189
297.894	30.7794
299.69	30.2522
301.485	29.3666
303.278	28.064
305.073	27.9786
306.867	27.164
308.661	27.0349
310.454	26.0131
312.247	25.5492
314.04	24.5614
315.833	24.4637
317.623	25.0153
319.415	24.3961
321.206	23.9749
322.997	23.7305
324.788	23.91
326.579	23.7752
328.367	22.5802
330.156	22.2833
331.946	22.0905
333.735	20.6439
335.523	19.0433
337.31	19.4998
339.098	19.5114
340.885	19.1651
342.673	18.7214
344.458	18.2628
346.244	18.21
348.03	17.294
349.816	15.9497
351.6	14.3322
353.385	12.0898
355.17	10.5911
356.953	9.92029
358.737	10.1459
360.521	9.38517
362.304	9.44853
364.085	9.48173
365.868	11.9456
367.65	12.7257
369.431	12.7237
371.212	13.4792
372.994	15.9274
374.773	17.376
376.554	19.6092
378.332	23.6593
380.112	25.1072
381.892	29.3322
383.669	33.3201
385.448	38.2128
387.225	41.9028
389.003	47.1329
390.781	50.2609
392.557	54.7113
394.334	59.3042
396.109	62.5065
397.885	65.5887
399.66	69.4695
401.436	72.367
403.211	73.8579
404.984	76.7697
406.759	77.3986
408.532	78.4311
410.306	78.951
412.078	80.1537
413.851	80.1205
415.623	79.1106
417.395	77.109
419.166	77.0985
420.938	74.4654
422.708	74.394
424.477	72.9029
426.248	71.0468
428.017	67.4419
429.788	63.4108
431.556	59.4223
433.326	55.283
435.093	51.5117
436.86	47.8982
438.629	43.3656
440.395	39.2011
442.163	36.1295
443.929	32.3266
445.694	29.3879
447.461	27.1835
449.226	23.092
450.99	20.6582
452.756	18.5815
454.52	16.656
456.285	12.4751
458.048	10.9367
459.811	10.0894
461.573	9.23065
463.337	7.72122
465.099	7.11586
466.86	7.46758
468.623	7.26862
470.384	9.10313
472.144	9.94007
473.906	10.416
475.666	10.7735
477.425	12.7623
479.184	14.1169
480.944	16.0952
482.703	16.3285
484.461	16.9686
486.218	18.9265
487.975	20.4432
489.734	19.5005
491.491	20.8848
493.247	22.2893
495.003	24.0759
496.759	25.6966
498.516	27.9135
500.271	29.3573
502.025	30.3086
503.779	31.3974
505.533	33.1727
507.287	33.4985
509.042	33.3781
510.795	34.7023
512.547	33.2328
514.299	33.0828
516.051	33.6741
517.803	33.8266
519.554	34.8651
521.305	34.7048
523.055	34.5169
524.805	34.4528
526.555	34.4211
528.307	34.0666
530.056	33.7334
531.805	32.4986
533.553	32.3561
535.301	31.8581
537.049	30.2754
538.797	30.2648
540.544	28.977
542.291	26.5155
544.037	24.6378
545.783	23.6612
547.529	20.9545
549.275	18.8263
551.02	15.8279
552.765	14.9672
554.509	13.6445
556.253	11.7136
557.997	10.6246
559.738	10.1381
561.482	9.48875
563.224	9.06688
564.967	9.67622
566.709	8.37022
568.451	7.23651
570.192	6.04717
571.933	5.30752
573.674	4.52142
575.415	2.47301
577.153	2.11993
578.893	3.12964
580.632	2.87175
582.371	4.04379
584.11	3.62884
585.849	4.61924
587.587	3.48078
589.323	3.78691
591.06	3.72155
592.797	3.46384
594.534	3.75894
596.271	4.60135
598.005	5.02482
599.741	5.706
601.476	6.10438
603.211	6.88294
604.944	6.87747
606.679	7.94429
608.413	6.88693
610.147	7.62048
611.878	8.10329
613.611	8.15609
615.344	7.59988
617.077	8.08074
618.807	7.40058
620.539	8.54921
622.27	8.78069
623.999	8.30428
625.73	7.48789
627.461	7.41435
629.189	7.86009
630.919	8.67626
632.648	10.5674
634.376	11.2757
636.105	12.2823
637.833	12.2737
639.559	13.5977
641.287	13.4195
643.013	14.4603
644.74	14.6511
646.467	15.0151
648.192	15.5238
649.918	15.6794
651.642	16.4161
653.368	15.6824
655.091	15.4512
656.816	13.5381
658.538	13.5325
660.263	13.9458
661.987	14.9151
663.708	16.1301
665.432	16.1011
667.153	16.7619
668.875	17.7003
670.596	16.6887
672.318	16.2451
674.037	15.3748
675.759	15.7598
677.478	15.9987
679.196	15.4733
680.917	15.9236
682.635	14.6811
684.355	15.344
686.072	15.4894
687.791	15.0565
689.508	15.4316
691.224	15.0715
692.942	14.3111
694.658	12.7824
696.376	12.5559
698.091	12.4146
699.805	11.6833
701.522	11.9286
703.236	11.7317
704.95	11.4567
706.665	12.429
708.379	12.6067
710.093	12.6834
711.806	13.5087
713.518	15.415
715.23	17.3943
716.943	18.9157
718.655	19.7058
720.366	19.3041
722.078	19.2484
723.788	19.5779
725.498	20.4001
727.208	21.0988
728.919	22.0521
730.628	23.4524
732.337	25.4112
734.045	26.7328
735.755	26.8439
737.463	27.2004
739.17	27.4665
740.877	28.1145
742.584	29.547
744.292	32.2392
745.998	33.9655
747.704	35.8711
749.409	36.1151
751.114	37.6757
752.819	39.0602
754.526	40.3785
756.23	40.9709
757.934	42.5994
759.637	44.1517
761.34	44.9083
763.043	45.7221
764.746	47.3224
766.448	48.7797
768.152	50.1959
769.853	52.1852
771.554	52.4287
773.255	52.8509
774.956	53.0186
776.656	52.5681
778.356	53.9354
780.056	54.3296
781.755	55.2685
783.454	55.8378
785.153	56.3654
786.851	57.8596
788.549	57.7667
790.247	58.559
791.944	59.7828
793.641	60.5544
795.338	60.0748
797.034	60.381
798.73	61.251
800.426	62.6988
802.121	62.962
803.817	62.0725
805.511	61.7924
807.206	61.2121
808.9	61.5726
810.592	61.7826
812.286	62.0557
813.979	61.0697
815.672	61.3934
817.364	60.7841
819.057	60.7626
820.748	60.048
822.44	60.5889
824.129	61.5943
825.82	61.0184
827.511	60.2754
829.201	61.1513
830.891	60.6824
832.581	61.1022
834.269	60.3063
835.958	60.02
837.646	60.0195
839.335	60.356
841.023	58.6483
842.709	57.9246
844.396	57.3381
846.084	56.1458
847.77	55.8979
849.455	55.6053
851.141	53.9442
852.827	52.1193
854.513	49.9053
856.196	48.9884
857.881	47.6364
859.566	46.8202
861.248	46.5923
862.932	47.1982
864.616	45.2292
866.297	44.5483
867.98	43.5319
869.663	42.1709
871.343	42.0692
873.026	40.4958
874.707	39.1567
876.387	38.5092
878.068	36.9634
879.747	35.6108
881.428	34.2826
883.108	33.4038
884.786	32.2454
886.465	30.9818
888.143	28.1572
889.822	27.4526
891.498	26.7159
893.177	26.2211
894.855	25.9693
896.53	24.2511
898.208	24.0137
899.883	23.746
901.56	23.8697
903.234	23.4011
904.91	23.5183
906.584	24.7841
908.26	24.9106
909.933	24.1772
911.608	25.5886
913.28	27.6217
914.955	27.1347
916.627	27.5337
918.298	27.1644
919.972	26.9281
921.643	27.6036
923.315	28.1553
924.986	27.6652
926.656	28.4822
928.328	27.9229
929.997	27.6703
931.668	28.8171
933.337	28.0295
935.006	28.1159
936.676	28.9584
938.344	29.3962
940.012	29.6926
941.681	29.4803
943.348	29.8796
945.014	30.9405
946.683	32.2395
948.349	31.5323
950.015	31.1663
951.682	31.4144
953.347	30.9454
955.012	29.4782
956.676	28.1818
958.343	26.8892
960.006	26.2027
961.67	25.6088
963.333	26.8021
964.998	28.4341
966.661	30.0145
968.323	31.6533
969.985	32.3533
971.649	32.3425
973.31	35.2701
974.971	36.4524
976.632	37.4964
978.293	40.1512
979.953	41.3367
981.615	43.3806
983.274	44.5794
984.933	47.4947
986.592	49.0113
988.251	50.4797
989.909	52.5091
991.567	51.9511
993.225	52.1313
994.884	52.8349
996.541	53.008
998.198	52.5173
999.855	52.6386
1001.51	52.3248
1003.17	52.1377
1004.82	52.7824
1006.48	52.3417
1008.13	51.5047
1009.79	51.4085
1011.44	51.4949
1013.1	52.4832
1014.75	55.1277
1016.4	55.7126
1018.06	59.1501
1019.71	61.9371
1021.36	64.1833
1023.01	67.3851
1024.66	72.0177
1026.32	75.9859
1027.97	79.2472
1029.62	81.8062
1031.27	82.9934
1032.92	84.2932
1034.57	85.7422
1036.22	86.9688
1037.87	88.1996
1039.52	91.288
1041.16	92.4031
1042.81	93.8527
1044.46	95.0216
1046.11	97.2233
1047.76	97.3201
1049.4	97.2049
1051.05	96.3475
1052.7	94.4071
1054.34	94.477
1055.99	94.5732
1057.63	92.3032
1059.28	90.5103
1060.92	88.7016
1062.57	87.1027
1064.21	83.34
1065.85	80.2376
1067.5	77.1688
1069.14	72.5158
1070.78	67.9392
1072.43	64.6645
1074.07	59.3374
1075.71	55.6169
1077.35	51.6541
1078.99	48.0209
1080.63	43.1134
1082.27	38.9767
1083.91	33.995
1085.55	29.4748
1087.19	26.8958
1088.83	24.4257
1090.47	22.7034
1092.11	22.1212
1093.75	22.2596
1095.39	23.6956
1097.03	25.8507
1098.66	26.5731
1100.3	28.7933
1101.94	29.2816
1103.57	30.6965
1105.21	31.8114
1106.84	33
1108.48	32.8381
1110.11	31.5671
1111.75	30.8479
1113.38	29.4863
1115.02	27.5287
1116.65	27.2347
1118.29	27.7743
1119.92	27.153
1121.55	25.4011
1123.19	23.1235
1124.82	21.7415
1126.45	19.9767
1128.08	20.4095
1129.71	19.7149
1131.34	19.3662
1132.97	16.973
1134.6	16.0084
1136.23	17.0541
1137.86	15.7411
1139.49	14.842
1141.12	15.092
1142.75	14.5381
1144.38	15.4307
1146.01	13.7112
1147.64	13.9878
1149.26	13.8067
1150.89	13.3764
1152.52	14.1483
1154.15	13.8615
1155.77	13.4322
1157.4	13.0094
1159.02	12.3167
1160.65	11.3494
1162.27	9.70317
1163.9	10.3049
1165.52	9.59827
1167.15	10.5737
1168.77	12.3395
1170.39	13.1435
1172.02	13.7273
1173.64	15.5979
1175.26	17.7393
1176.89	19.5165
1178.51	19.538
1180.13	18.7853
1181.75	19.2413
1183.37	20.8459
1184.99	23.0957
1186.61	23.6363
1188.23	24.0961
1189.85	23.6207
1191.47	24.5502
1193.09	26.6042
1194.71	28.3247
1196.33	29.7915
1197.94	32.7222
1199.56	34.1182
1201.18	34.4133
1202.8	34.8706
1204.41	36.9511
1206.03	39.2853
1207.65	41.8473
1209.26	45.3034
1210.88	46.8051
1212.49	48.6998
1214.11	50.9681
1215.72	53.8275
1217.34	57.9116
1218.95	60.6735
1220.57	63.9311
1222.18	67.3621
1223.79	69.7971
1225.41	72.8927
1227.02	74.9191
1228.63	76.0865
1230.24	77.335
1231.85	78.4315
1233.47	80.3706
1235.08	80.4682
1236.69	81.7949
1238.3	82.0066
1239.91	82.469
1241.52	84.7116
1243.13	85.4326
1244.74	86.0703
1246.34	86.7675
1247.95	86.8454
1249.56	87.2918
1251.17	87.8658
1252.78	87.6918
1254.38	87.72
1255.99	87.5661
1257.6	87.4698
1259.2	87.6441
1260.81	86.9987
1262.42	87.8819
1264.02	88.597
1265.63	88.7299
1267.23	87.6489
1268.84	88.4362
1270.44	87.947
1272.04	89.3714
1273.65	88.5678
1275.25	88.5754
1276.85	89.2986
1278.46	89.6299
1280.06	90.6826
1281.66	91.6989
1283.26	93.2665
1284.86	93.8002
1286.46	94.0586
1288.07	95.5561
1289.67	95.984
1291.27	97.2697
1292.87	99.1677
1294.47	99.685
1296.06	100.655
1297.66	103.696
1299.26	105.11
1300.86	105.689
1302.46	107.371
1304.06	108.606
1305.65	109.139
1307.25	109.972
1308.85	111.436
1310.44	113.121
1312.04	114.955
1313.64	116.756
1315.23	118.241
1316.83	120.93
1318.42	121.873
1320.02	122.496
1321.61	123.661
1323.2	123.02
1324.8	124.321
1326.39	125.814
1327.99	126.209
1329.58	126.163
1331.17	125.572
1332.76	124.366
1334.36	123.917
1335.95	124.702
1337.54	124.375
1339.13	123.681
1340.72	122.029
1342.31	121.53
1343.9	121.172
1345.49	121.082
1347.08	119.657
1348.67	119.223
1350.26	116.738
1351.85	115.306
1353.43	113.328
1355.02	112.998
1356.61	110.458
1358.2	109.068
1359.78	108.107
1361.37	106.085
1362.96	104.201
1364.54	101.515
1366.13	101.279
1367.71	100.094
1369.3	98.1853
1370.88	96.4458
1372.47	94.316
1374.05	93.1239
1375.64	93.0356
1377.22	92.0129
1378.8	90.6623
1380.39	89.3103
1381.97	87.8759
1383.55	87.4098
1385.13	86.7921
1386.72	87.1409
1388.3	86.0952
1389.88	85.0053
1391.46	84.2826
1393.04	84.1258
1394.62	83.7164
1396.2	83.0483
1397.78	80.91
1399.36	79.92
1400.94	80.1117
1402.52	81.1327
1404.1	81.7088
1405.68	82.5805
1407.25	85.1342
1408.83	86.5793
1410.41	89.9254
1411.98	93.845
1413.56	98.2989
1415.14	103.504
1416.71	106.576
1418.29	111.058
1419.87	115.376
1421.44	120.558
1423.02	125.119
1424.59	130.792
1426.16	135.308
1427.74	140.033
1429.31	144.774
1430.89	149.961
1432.46	155.294
1434.03	158.966
1435.6	163.201
1437.18	168.663
1438.75	172.224
1440.32	174.949
1441.89	177.492
1443.46	179.639
1445.03	181.333
1446.6	180.785
1448.17	181.581
1449.74	180.629
1451.31	180.436
1452.88	179.727
1454.45	177.355
1456.02	175.056
1457.59	172.156
1459.16	167.715
1460.72	163.51
1462.29	160.981
1463.86	155.806
1465.43	150.038
1466.99	144.821
1468.56	140.325
1470.13	133.917
1471.69	127.548
1473.26	121.704
1474.82	117.02
1476.38	111.515
1477.95	106.582
1479.51	102.454
1481.08	98.717
1482.64	95.5265
1484.2	92.9784
1485.77	89.9627
1487.33	86.1889
1488.89	83.5159
1490.46	80.5264
1492.02	77.3448
1493.58	74.5198
1495.14	72.2169
1496.7	70.6219
1498.26	69.252
1499.82	68.341
1501.38	66.0255
1502.94	66.4153
1504.5	66.3276
1506.06	65.705
1507.62	65.7333
1509.18	65.1389
1510.73	64.7543
1512.29	65.185
1513.85	66.2572
1515.41	65.8749
1516.96	66.2433
1518.52	66.2344
1520.08	67.0572
1521.63	66.6876
1523.19	66.2906
1524.75	66.9875
1526.3	68.2917
1527.85	67.3266
1529.41	68.3689
1530.96	68.716
1532.52	67.96
1534.07	68.6358
1535.62	68.0997
1537.18	68.0871
1538.73	69.2905
1540.28	70.3211
1541.84	70.1377
1543.39	70.5321
1544.94	72.3262
1546.49	72.6783
1548.04	72.3949
1549.59	74.2215
1551.14	76.3013
1552.69	76.7628
1554.25	76.6143
1555.79	77.4962
1557.34	78.3591
1558.89	79.3801
1560.44	81.3252
1561.99	81.7133
1563.54	81.2572
1565.08	83.2089
1566.63	84.7413
1568.18	84.8906
1569.73	86.8184
1571.27	87.7038
1572.82	88.7471
1574.37	90.5477
1575.91	92.6439
1577.46	94.6946
1579	94.6856
1580.55	97.8256
1582.09	99.1014
1583.64	99.769
1585.18	101.938
1586.73	102.373
1588.27	103.417
1589.81	104.163
1591.35	104.288
1592.9	104.506
1594.44	104.983
1595.98	105.977
1597.52	105.938
1599.06	106.096
1600.61	106.416
1602.15	106.372
1603.69	105.941
1605.23	105.881
1606.77	106.656
1608.31	105.493
1609.85	103.997
1611.39	103.82
1612.93	103.625
1614.46	103.173
1616	103.534
1617.54	103.419
1619.08	103.263
1620.61	103.165
1622.15	104.789
1623.69	103.201
1625.23	102.975
1626.76	103.823
1628.3	103.856
1629.83	103.75
1631.37	104.479
1632.9	105.73
1634.44	106.08
1635.97	106.927
1637.51	108.483
1639.04	109.89
1640.57	110.717
1642.11	113.51
1643.64	113.044
1645.17	112.384
1646.71	113.593
1648.24	113.29
1649.77	114.578
1651.3	116.522
1652.83	116.555
1654.36	116.003
1655.89	114.531
1657.42	115.443
1658.96	113.829
1660.48	112.824
1662.01	112.667
1663.54	110.859
1665.07	110.023
1666.6	108.671
1668.13	107.131
1669.66	105.288
1671.19	103.516
1672.71	101.127
1674.24	98.4326
1675.77	95.8171
1677.29	92.613
1678.82	89.2583
1680.35	86.2606
1681.87	81.5362
1683.4	77.6005
1684.92	73.4121
1686.45	70.1356
1687.97	67.5523
1689.5	64.1208
1691.02	59.3134
1692.54	55.4241
1694.07	51.9669
1695.59	49.1993
1697.11	45.7174
1698.64	42.2574
1700.16	38.2882
1701.68	36.2627
1703.2	33.878
1704.72	31.3972
1706.25	28.8682
1707.77	27.1446
1709.29	26.0918
1710.81	24.4636
1712.33	23.0482
1713.85	21.8719
1715.37	19.4515
1716.89	17.8828
1718.41	16.6099
1719.92	14.8496
1721.44	14.4141
1722.96	13.9379
1724.48	13.8974
1725.99	13.6481
1727.51	12.6877
1729.03	11.6659
1730.55	10.6637
1732.06	9.85024
1733.58	9.67403
1735.09	8.94724
1736.61	9.05601
1738.13	9.89235
1739.64	9.63256
1741.15	9.52333
1742.67	9.21002
1744.18	9.43237
1745.7	9.91726
1747.21	9.60769
1748.72	9.23157
1750.24	9.11242
1751.75	7.6877
1753.26	7.49557
1754.77	7.12118
1756.29	6.98569
1757.8	6.72982
1759.31	8.43394
1760.82	7.86788
1762.33	7.12132
1763.84	6.4039
1765.35	5.90134
1766.86	4.95488
1768.37	5.1434
1769.88	5.5335
1771.39	5.75771
1772.9	4.88741
1774.4	5.64666
1775.91	5.94658
1777.42	5.97972
1778.93	6.21558
1780.44	7.10119
1781.94	7.71479
1783.45	8.42312
1784.96	8.54889
1786.46	8.2079
1787.97	8.09224
1789.47	8.4275
1790.98	8.377
1792.48	9.64994
1793.99	9.38549
1795.49	8.78853
1797	8.70397
1798.5	8.73952
1800.01	9.37489
1801.51	8.83818
1803.01	8.69244
1804.51	8.63951
1806.02	8.35339
1807.52	7.96443
1809.02	8.43777
1810.52	8.45469
1812.02	8.64304
1813.52	9.08233
1815.02	9.4612
1816.53	9.31914
1818.03	9.79858
1819.52	10.0848
1821.02	10.14
1822.52	8.7766
1824.02	8.67177
1825.52	7.90182
1827.02	7.93852
1828.52	8.32234
1830.02	7.75074
1831.51	7.38596
1833.01	7.14344
1834.51	6.66488
1836.01	5.86518
1837.5	5.954
1839	6.60638
1840.49	7.02005
1841.99	6.41497
1843.49	6.90378
1844.98	6.56915
1846.48	6.60123
1847.97	6.62462
1849.47	6.50397
1850.96	6.23907
1852.45	6.52701
1853.95	7.85222
1855.44	7.39399
1856.93	6.7918
1858.42	6.54475
1859.92	6.49338
1861.41	6.49671
1862.9	6.99258
1864.39	6.68646
1865.88	5.91843
1867.38	5.76208
1868.87	5.68409
1870.36	4.96983
1871.85	5.53714
1873.34	4.79663
1874.83	4.63301
1876.32	4.21981
1877.81	3.74521
1879.29	2.80674
1880.78	2.20685
1882.27	2.20974
1882.53	1.52568
1884.03	1.9213
1885.52	1.78681
1887.01	1.12428
1888.51	1.5198
1890	1.21488
1891.5	2.11411
1892.99	1.47056
1894.48	2.17021
1895.97	1.13241
1897.47	1.10802
1898.96	1.29388
1900.45	1.94028
1901.94	2.3503
1903.43	2.14755
1904.92	2.46428
1906.41	3.31528
1907.9	3.77969
1909.39	4.12087
1910.88	4.54173
1912.37	4.72268
1913.86	4.31095
1915.35	4.20939
1916.84	4.1243
1918.33	4.56715
1919.81	5.87696
1921.3	6.97738
1922.79	7.68346
1924.28	9.64249
1925.76	10.0343
1927.25	11.1918
1928.73	10.5667
1930.22	10.804
1931.71	11.6058
1933.19	11.3028
1934.68	11.858
1936.16	11.5632
1937.65	11.3263
1939.13	11.2278
1940.62	12.2166
1942.1	12.7743
1943.58	11.6585
1945.07	11.2052
1946.55	10.6807
1948.03	11.3035
1949.51	10.1913
1951	8.67313
1952.48	8.30711
1953.96	8.12397
1955.44	7.43953
1956.92	7.06587
1958.4	7.55569
1959.88	6.12055
1961.36	5.70483
1962.84	5.51557
1964.32	5.49149
1965.8	5.38778
1967.28	3.86686
1968.76	4.31596
1970.24	3.18037
1971.72	2.40556
1973.2	1.92966
1974.67	1.53953
1976.15	0.848612
1977.63	0.127307
1979.1	0.660541
1980.58	0.225891
1982.06	-0.698186
1983.54	-1.43624
1985.01	-1.17612
1986.49	-1.01178
1987.96	-0.624445
1989.44	-0.0667707
1990.91	0.53494
1992.39	1.71043
1993.86	1.78803
1995.33	1.97062
1996.81	3.29982
1998.28	4.23726
1999.75	3.82471
2001.23	4.61011
2002.7	3.96899
2004.17	3.3023
2005.65	3.99942
2007.12	4.6337
2008.59	5.43178
2010.06	5.66736
2011.53	5.75411
2013	5.06999
2014.47	4.69229
2015.94	4.25374
2017.41	4.1258
2018.88	4.89637
2020.35	4.80809
2021.82	4.1287
2023.29	3.28597
2024.76	3.5492
2026.23	4.22597
2027.69	4.88101
2029.16	5.31504
2030.63	6.57701
2032.1	6.31873
2033.56	6.19716
2035.03	6.5564
2036.5	6.95026
2037.96	8.06516
2039.43	7.41147
2040.89	7.50765
2042.36	7.06022
2043.83	7.34665
2045.29	7.50327
2046.75	8.87217
2048.22	9.77628
2049.68	9.33067
2051.15	9.34438
2052.61	9.95039
2054.07	8.74006
2055.54	9.3771
2057	10.1249
2058.46	11.2839
2059.92	11.8834
2061.39	12.5719
2062.85	11.9961
2064.31	12.0252
2065.77	12.5871
2067.23	13.0234
2068.69	13.6554
2070.15	13.6632
2071.61	12.6244
2073.07	12.0556
2074.53	12.4199
2075.99	11.2937
2077.45	11.7168
2078.91	12.0254
2080.37	11.8654
2081.82	11.0943
2083.28	10.5648
2084.74	9.33301
2086.2	9.85317
2087.65	9.49909
2089.11	9.88535
2090.57	9.56842
2092.02	8.40435
2093.48	8.0407
2094.94	8.60953
2096.39	9.39624
2097.85	9.57373
2099.3	9.64916
2100.76	9.5123
2102.21	9.19267
2103.66	8.60933
2105.12	7.49299
2106.57	7.61206
2108.03	7.53137
2109.48	7.99539
2110.93	7.48423
2112.38	6.54515
2113.84	6.85152
2115.29	7.13897
2116.74	8.67496
2118.19	8.36298
2119.64	8.30356
2121.09	7.97789
2122.54	7.72939
2123.99	7.85107
2125.45	7.74778
2126.89	7.29625
2128.34	8.04076
2129.79	7.874
2131.24	7.51209
