#Acq. time (s)=	45
#Accumulations=	2
#Range (cm-¹)=	200...3150
#Windows=	2
#Auto scanning=	Off
#Autofocus=	Off
#Macrospot=	Off
#AutoExposure=	Off
#Spike filter=	Multiple accum.
#Delay time (s)=	0
#Binning=	1
#Readout mode=	Signal
#DeNoise=	Off
#ICS correction=	On
#Dark correction=	Off
#Inst. Process=	Off
#Detector Gain=	Best Dynamic Range
#Detector ADC=	20 kHz       
#Detector temperature (°C)=	-69.85
#Instrument=	LabRAM HR Evol
#Detector=	Synapse
#Objective=	x100
#Grating=	600 gr/mm
#ND Filter=	100%
#Laser (nm)=	532 
#Hole=	100.021
#Range=	Auto
#Laser Pol.=	No
#Raman. Pol.=	No
#Laser Pol. (°)=	-0.0007625
#Raman Pol. (°)=	89.9995
#Collection=	Microscope
#StageXY=	Marzhauser
#StageZ=	Marzhauser
#X (µm)=	-954.8
#Y (µm)=	-2840.6
#Z (µm)=	528.2
#Full time(mm:ss)=	3:18
#Project=	
#Sample=	
#Site=	
#Title=	Mb_00_13_21_2x_45s_532 nm_x100_100%_600 gr_mm
#Remark=	
#Date=	06.07.2022 11:20
#Acquired=	06.07.2022 11:20:44
#Base:Fit=	10.08.2022 10:16:56
#Base:Sub=	10.08.2022 10:17:24
#Filter:Polynom=	16.08.2022 10:36:38
#AxisType[0]=Intens
#AxisUnit[0]=Cnt
#AxisType[1]=Spectr
#AxisUnit[1]=1/cm
200.398	11.589
202.213	11.339
204.027	9.18037
205.843	5.5478
207.657	0.691418
209.47	-3.31504
211.283	-6.19993
213.097	-6.69781
214.909	-5.9746
216.721	-3.4424
218.533	1.15845
220.344	6.33661
222.157	13.9352
223.967	20.9235
225.777	27.1466
227.587	35.9703
229.396	45.0567
231.205	53.1625
233.016	60.6422
234.824	69.8972
236.632	79.4936
238.439	86.6627
240.247	93.7234
242.053	100.919
243.86	106.769
245.666	111.167
247.474	116.539
249.279	121.733
251.085	125.994
252.889	130.53
254.694	135.502
256.498	139.364
258.301	143.28
260.105	146.185
261.908	148.662
263.71	149.105
265.513	148.303
267.315	148.389
269.116	146.095
270.918	142.741
272.718	138.427
274.519	134.01
276.319	128.555
278.119	123.326
279.918	119.221
281.718	112.396
283.516	106.597
285.315	99.4735
287.113	91.9896
288.911	82.486
290.708	75.0695
292.505	67.9187
294.302	60.7859
296.098	54.3549
297.894	49.2629
299.69	44.7374
301.485	40.9504
303.278	38.1801
305.073	33.3797
306.867	29.8752
308.661	26.8551
310.454	24.393
312.247	22.236
314.04	19.8437
315.833	18.5208
317.623	17.9337
319.415	16.8606
321.206	16.6849
322.997	15.6288
324.788	15.4865
326.579	14.826
328.367	13.025
330.156	12.3354
331.946	11.0578
333.735	9.48266
335.523	7.70287
337.31	6.25969
339.098	5.08289
340.885	3.994
342.673	4.61386
344.458	4.18171
346.244	4.97984
348.03	3.95972
349.816	2.77293
351.6	1.3798
353.385	0.675246
355.17	1.23831
356.953	1.77647
358.737	1.86924
360.521	3.04772
362.304	4.99396
364.085	8.42594
365.868	11.7932
367.65	15.8333
369.431	19.7865
371.212	23.4697
372.994	27.8597
374.773	30.4004
376.554	35.7181
378.332	40.7387
380.112	47.1257
381.892	54.253
383.669	60.3464
385.448	69.1078
387.225	78.56
389.003	87.9569
390.781	95.7799
392.557	104.581
394.334	111.41
396.109	119.38
397.885	127.401
399.66	132.383
401.436	136.575
403.211	141.347
404.984	144.486
406.759	147.409
408.532	150.279
410.306	152.577
412.078	152.28
413.851	153.699
415.623	152.566
417.395	151.074
419.166	149.059
420.938	146.084
422.708	142.108
424.477	136.394
426.248	131.609
428.017	126.576
429.788	120.8
431.556	114.442
433.326	106.245
435.093	99.7349
436.86	90.5343
438.629	82.4367
440.395	72.921
442.163	65.6236
443.929	57.2243
445.694	49.8919
447.461	43.1731
449.226	36.8004
450.99	30.7149
452.756	25.6515
454.52	20.3703
456.285	15.5271
458.048	10.9518
459.811	6.93045
461.573	2.96974
463.337	0.431867
465.099	-0.502593
466.86	-0.963371
468.623	0.60369
470.384	2.50601
472.144	3.24358
473.906	6.33614
475.666	7.35148
477.425	7.7557
479.184	8.67734
480.944	10.3172
482.703	11.8828
484.461	13.8845
486.218	15.1462
487.975	16.3445
489.734	19.7296
491.491	23.8555
493.247	27.3054
495.003	31.8872
496.759	35.8226
498.516	38.6259
500.271	41.1589
502.025	44.2452
503.779	46.548
505.533	50.0504
507.287	52.72
509.042	55.9586
510.795	57.975
512.547	60.2609
514.299	62.6571
516.051	64.5067
517.803	65.5908
519.554	66.8272
521.305	67.5765
523.055	68.411
524.805	68.6407
526.555	68.1161
528.307	69.2143
530.056	70.951
531.805	70.9542
533.553	71.1176
535.301	70.2455
537.049	69.3862
538.797	68.1958
540.544	66.6225
542.291	64.0009
544.037	61.7746
545.783	58.4909
547.529	55.0481
549.275	52.4546
551.02	48.8651
552.765	46.7306
554.509	44.9314
556.253	41.3373
557.997	38.9386
559.738	36.0204
561.482	32.8123
563.224	29.7109
564.967	27.7659
566.709	26.0673
568.451	23.3063
570.192	20.8222
571.933	18.5304
573.674	16.7046
575.415	15.3146
577.153	13.8599
578.893	12.9845
580.632	10.6944
582.371	9.40804
584.11	7.94022
585.849	6.76232
587.587	5.73366
589.323	4.93308
591.06	5.05825
592.797	4.74797
594.534	3.99428
596.271	3.90581
598.005	2.77825
599.741	2.56775
601.476	3.0351
603.211	4.41127
604.944	4.00361
606.679	4.22325
608.413	4.13349
610.147	3.67247
611.878	4.68462
613.611	4.83165
615.344	5.69649
617.077	6.16652
618.807	6.0567
620.539	6.93062
622.27	7.06515
623.999	9.54432
625.73	11.3459
627.461	13.4979
629.189	15.1742
630.919	15.8495
632.648	16.6945
634.376	18.3666
636.105	20.2265
637.833	22.3065
639.559	24.3574
641.287	25.4739
643.013	26.7351
644.74	29.5024
646.467	30.7507
648.192	31.3973
649.918	32.3897
651.642	33.4974
653.368	33.6753
655.091	32.4368
656.816	33.0989
658.538	34.7737
660.263	34.4867
661.987	33.6165
663.708	32.246
665.432	31.0114
667.153	29.1966
668.875	28.7398
670.596	28.1951
672.318	26.8946
674.037	25.4016
675.759	25.3705
677.478	24.2542
679.196	21.9965
680.917	21.0246
682.635	20.3984
684.355	18.7988
686.072	18.1405
687.791	16.8624
689.508	15.5656
691.224	12.8026
692.942	11.3936
694.658	9.46465
696.376	8.33756
698.091	8.02693
699.805	7.41544
701.522	6.51559
703.236	5.29819
704.95	4.1549
706.665	5.21928
708.379	5.52354
710.093	7.00713
711.806	6.39158
713.518	6.40457
715.23	6.59467
716.943	7.81349
718.655	10.8233
720.366	10.7627
722.078	11.4982
723.788	10.817
725.498	11.492
727.208	12.8653
728.919	13.8283
730.628	14.119
732.337	16.0251
734.045	15.8748
735.755	17.5242
737.463	18.5842
739.17	18.0696
740.877	18.3312
742.584	19.7375
744.292	21.122
745.998	21.9131
747.704	22.0968
749.409	24.0238
751.114	25.9181
752.819	28.2045
754.526	31.5586
756.23	33.4635
757.934	34.3877
759.637	36.0936
761.34	37.2505
763.043	38.6715
764.746	39.0257
766.448	39.1114
768.152	40.7214
769.853	41.9054
771.554	43.0924
773.255	42.5433
774.956	43.9881
776.656	44.355
778.356	46.1109
780.056	47.3242
781.755	47.8282
783.454	48.1191
785.153	49.7525
786.851	49.4808
788.549	50.1981
790.247	52.5871
791.944	54.5339
793.641	54.7656
795.338	55.4487
797.034	55.4169
798.73	55.9915
800.426	57.5379
802.121	57.4569
803.817	55.5384
805.511	53.3039
807.206	53.7524
808.9	52.148
810.592	52.1469
812.286	51.7824
813.979	51.5704
815.672	50.3529
817.364	51.6948
819.057	50.3847
820.748	50.7357
822.44	50.1654
824.129	51.1487
825.82	51.1087
827.511	51.0713
829.201	51.7467
830.891	52.9993
832.581	51.6498
834.269	51.8323
835.958	49.9326
837.646	48.7439
839.335	48.8401
841.023	45.7822
842.709	44.81
844.396	42.4986
846.084	40.2211
847.77	37.5728
849.455	34.7966
851.141	33.2677
852.827	34.2736
854.513	31.4483
856.196	29.4731
857.881	29.3258
859.566	28.5936
861.248	26.5559
862.932	25.4271
864.616	23.4277
866.297	21.4833
867.98	21.5412
869.663	21.688
871.343	20.9258
873.026	20.4637
874.707	19.1049
876.387	17.4016
878.068	16.5616
879.747	14.4526
881.428	12.7587
883.108	12.8998
884.786	12.0221
886.465	10.4101
888.143	8.96286
889.822	8.93626
891.498	7.84214
893.177	5.63112
894.855	5.50083
896.53	6.56473
898.208	5.79198
899.883	5.90041
901.56	8.02907
903.234	8.6122
904.91	9.44024
906.584	9.755
908.26	9.09409
909.933	7.70001
911.608	8.84928
913.28	8.9595
914.955	10.0493
916.627	9.9034
918.298	10.0181
919.972	10.4995
921.643	11.8528
923.315	12.9428
924.986	12.2173
926.656	12.6592
928.328	12.5429
929.997	12.2035
931.668	12.1648
933.337	12.749
935.006	12.7808
936.676	13.859
938.344	13.379
940.012	13.7708
941.681	13.5944
943.348	11.3505
945.014	11.9096
946.683	11.1229
948.349	11.6154
950.015	13.9761
951.682	16.0135
953.347	16.0915
955.012	16.2812
956.676	14.4974
958.343	12.891
960.006	12.6564
961.67	14.775
963.333	16.8619
964.998	19.8926
966.661	23.566
968.323	25.2001
969.985	28.3313
971.649	31.8928
973.31	33.9204
974.971	36.1595
976.632	40.0608
978.293	43.4158
979.953	46.3923
981.615	50.7785
983.274	54.3259
984.933	55.8276
986.592	56.3495
988.251	56.2894
989.909	58.3676
991.567	60.838
993.225	63.5312
994.884	65.5992
996.541	68.385
998.198	70.7458
999.855	71.7843
1001.51	73.0831
1003.17	72.6517
1004.82	71.7248
1006.48	71.7795
1008.13	70.433
1009.79	69.3809
1011.44	68.1831
1013.1	67.0493
1014.75	68.1478
1016.4	70.1669
1018.06	74.2852
1019.71	78.6632
1021.36	82.873
1023.01	88.1442
1024.66	94.2572
1026.32	100.492
1027.97	108.611
1029.62	113.813
1031.27	120.719
1032.92	128.057
1034.57	131.512
1036.22	134.954
1037.87	138.726
1039.52	142.752
1041.16	147.707
1042.81	153.275
1044.46	158.06
1046.11	160.567
1047.76	162.497
1049.4	164.666
1051.05	163.757
1052.7	165.116
1054.34	163.997
1055.99	161.856
1057.63	160.04
1059.28	158.679
1060.92	155.993
1062.57	152.91
1064.21	149.145
1065.85	142.644
1067.5	136.573
1069.14	130.939
1070.78	125.062
1072.43	120.951
1074.07	113.028
1075.71	104.981
1077.35	96.8117
1078.99	88.2415
1080.63	78.2783
1082.27	69.9336
1083.91	60.4729
1085.55	50.3945
1087.19	43.7585
1088.83	36.7835
1090.47	30.6736
1092.11	26.5226
1093.75	23.5271
1095.39	22.366
1097.03	22.3881
1098.66	22.0836
1100.3	23.2314
1101.94	23.3304
1103.57	23.5745
1105.21	24.4858
1106.84	24.3576
1108.48	23.4168
1110.11	22.7144
1111.75	20.2229
1113.38	19.5222
1115.02	19.1173
1116.65	16.6148
1118.29	14.7298
1119.92	13.4408
1121.55	12.7691
1123.19	10.7339
1124.82	9.8209
1126.45	8.47299
1128.08	7.45201
1129.71	7.54853
1131.34	6.38143
1132.97	5.45632
1134.6	5.99522
1136.23	3.98797
1137.86	4.37254
1139.49	4.77468
1141.12	5.84838
1142.75	5.43804
1144.38	4.81501
1146.01	4.85283
1147.64	3.99403
1149.26	4.15431
1150.89	3.12151
1152.52	2.85472
1154.15	2.37259
1155.77	1.61533
1157.4	0.792302
1159.02	0.0201316
1160.65	-0.640316
1162.27	-0.278477
1163.9	-0.268948
1165.52	-0.376851
1167.15	1.95361
1168.77	3.59922
1170.39	4.68819
1172.02	6.47417
1173.64	8.00124
1175.26	10.3648
1176.89	11.0697
1178.51	12.7918
1180.13	13.7774
1181.75	17.3262
1183.37	19.4449
1184.99	20.8328
1186.61	24.1971
1188.23	27.5937
1189.85	29.8209
1191.47	32.4348
1193.09	35.3766
1194.71	40.3815
1196.33	43.9631
1197.94	47.5214
1199.56	51.4939
1201.18	56.0658
1202.8	60.6563
1204.41	66.7758
1206.03	71.9621
1207.65	76.9319
1209.26	82.2857
1210.88	85.7859
1212.49	90.3707
1214.11	95.0321
1215.72	99.971
1217.34	103.681
1218.95	109.445
1220.57	112.905
1222.18	116.111
1223.79	118.688
1225.41	122.305
1227.02	125.463
1228.63	126.994
1230.24	128.408
1231.85	130.19
1233.47	132.887
1235.08	135.034
1236.69	137.12
1238.3	137.856
1239.91	139.135
1241.52	140.562
1243.13	141.701
1244.74	143.061
1246.34	144.171
1247.95	144.784
1249.56	143.85
1251.17	142.448
1252.78	141.471
1254.38	139.759
1255.99	138.148
1257.6	135.356
1259.2	135.29
1260.81	134.491
1262.42	133.935
1264.02	132.335
1265.63	132.494
1267.23	133.272
1268.84	131.98
1270.44	130.617
1272.04	130.962
1273.65	131.466
1275.25	132.888
1276.85	132.637
1278.46	133.452
1280.06	136.073
1281.66	136.448
1283.26	139.128
1284.86	141.247
1286.46	141.173
1288.07	142.447
1289.67	143.232
1291.27	144.399
1292.87	147.242
1294.47	148.111
1296.06	148.935
1297.66	150.607
1299.26	153.636
1300.86	154.469
1302.46	157.239
1304.06	159.281
1305.65	162.347
1307.25	164.551
1308.85	166.689
1310.44	170.844
1312.04	174.612
1313.64	176.74
1315.23	179.772
1316.83	181.976
1318.42	185.166
1320.02	186.209
1321.61	187.842
1323.2	189.021
1324.8	189.154
1326.39	188.635
1327.99	189.989
1329.58	189.644
1331.17	187.926
1332.76	186.205
1334.36	184.375
1335.95	183.753
1337.54	182.207
1339.13	182.569
1340.72	180.778
1342.31	179.887
1343.9	177.683
1345.49	176.474
1347.08	173.223
1348.67	171.698
1350.26	170.706
1351.85	169.218
1353.43	166.936
1355.02	164.669
1356.61	161.669
1358.2	158.8
1359.78	156.586
1361.37	151.934
1362.96	149.584
1364.54	146.457
1366.13	143.357
1367.71	141.34
1369.3	138.261
1370.88	134.67
1372.47	130.818
1374.05	128.544
1375.64	126.986
1377.22	125.571
1378.8	123.652
1380.39	122.544
1381.97	120.827
1383.55	120.921
1385.13	120.756
1386.72	120.452
1388.3	119.682
1389.88	120.085
1391.46	116.661
1393.04	116.582
1394.62	116.349
1396.2	114.883
1397.78	113.876
1399.36	113.332
1400.94	114.388
1402.52	114.048
1404.1	115.3
1405.68	117.37
1407.25	119.691
1408.83	120.608
1410.41	123.719
1411.98	128.012
1413.56	133.74
1415.14	138.447
1416.71	144.453
1418.29	150.986
1419.87	156.679
1421.44	163.268
1423.02	169.319
1424.59	176.52
1426.16	183.635
1427.74	191.401
1429.31	197.873
1430.89	203.824
1432.46	209.217
1434.03	215.591
1435.6	221.002
1437.18	225.68
1438.75	230.484
1440.32	232.853
1441.89	235.407
1443.46	236.822
1445.03	237.197
1446.6	237.813
1448.17	237.366
1449.74	237.602
1451.31	237.501
1452.88	236.903
1454.45	235.438
1456.02	232.933
1457.59	230.443
1459.16	226.392
1460.72	220.687
1462.29	217.321
1463.86	210.904
1465.43	204.632
1466.99	196.54
1468.56	189.134
1470.13	179.967
1471.69	174.049
1473.26	166.043
1474.82	159.418
1476.38	153.21
1477.95	146.413
1479.51	140.812
1481.08	133.476
1482.64	128.917
1484.2	123.615
1485.77	118.576
1487.33	114.317
1488.89	110.782
1490.46	107.029
1492.02	103.238
1493.58	98.8574
1495.14	96.0108
1496.7	93.8252
1498.26	91.2751
1499.82	89.1571
1501.38	87.7753
1502.94	85.8752
1504.5	84.2408
1506.06	83.4979
1507.62	82.3195
1509.18	80.8024
1510.73	79.7128
1512.29	79.2881
1513.85	77.0418
1515.41	74.5816
1516.96	73.5015
1518.52	72.0766
1520.08	72.0396
1521.63	73.1306
1523.19	72.498
1524.75	73.0578
1526.3	73.0644
1527.85	73.6324
1529.41	74.5472
1530.96	75.4942
1532.52	76.9606
1534.07	77.321
1535.62	77.4884
1537.18	78.9102
1538.73	79.9264
1540.28	81.7898
1541.84	83.4147
1543.39	83.9646
1544.94	84.5076
1546.49	87.4009
1548.04	89.9802
1549.59	93.131
1551.14	95.7139
1552.69	97.8322
1554.25	98.8298
1555.79	101.294
1557.34	105.126
1558.89	106.026
1560.44	109.184
1561.99	110.732
1563.54	111.35
1565.08	111.677
1566.63	114.104
1568.18	116.687
1569.73	118.488
1571.27	119.6
1572.82	123.968
1574.37	127.354
1575.91	130.012
1577.46	133.406
1579	137.121
1580.55	139.698
1582.09	143.009
1583.64	145.542
1585.18	146.731
1586.73	149.846
1588.27	152.5
1589.81	153.825
1591.35	155.911
1592.9	157.561
1594.44	158.667
1595.98	160.319
1597.52	160.838
1599.06	161.632
1600.61	161.375
1602.15	162.233
1603.69	162.379
1605.23	163.15
1606.77	163.046
1608.31	161.889
1609.85	161.783
1611.39	161.127
1612.93	160.811
1614.46	160.798
1616	160.568
1617.54	160.487
1619.08	160.269
1620.61	160.679
1622.15	162.011
1623.69	163.75
1625.23	165.038
1626.76	165.75
1628.3	165.402
1629.83	165.289
1631.37	166.418
1632.9	167.83
1634.44	169.28
1635.97	168.84
1637.51	170.645
1639.04	171.352
1640.57	173.675
1642.11	176.434
1643.64	181.247
1645.17	183.783
1646.71	185.442
1648.24	188.471
1649.77	192.627
1651.3	193.458
1652.83	194.337
1654.36	195.84
1655.89	195.814
1657.42	195.211
1658.96	193.511
1660.48	192.166
1662.01	190.292
1663.54	189.243
1665.07	186.769
1666.6	184.066
1668.13	180.695
1669.66	175.037
1671.19	169.92
1672.71	165.775
1674.24	161.269
1675.77	155.533
1677.29	148.88
1678.82	141.77
1680.35	135.46
1681.87	128.867
1683.4	121.92
1684.92	116.175
1686.45	109.624
1687.97	102.988
1689.5	96.1351
1691.02	89.6278
1692.54	83.3605
1694.07	76.2305
1695.59	70.8718
1697.11	67.0455
1698.64	61.5786
1700.16	56.6173
1701.68	51.7131
1703.2	46.3759
1704.72	42.3566
1706.25	39.2495
1707.77	35.7731
1709.29	33.6106
1710.81	31.6494
1712.33	29.6571
1713.85	28.5307
1715.37	26.8061
1716.89	25.6813
1718.41	23.5886
1719.92	22.2999
1721.44	20.9852
1722.96	20.3557
1724.48	20.603
1725.99	19.9171
1727.51	18.7552
1729.03	17.4824
1730.55	16.9783
1732.06	15.2771
1733.58	14.5847
1735.09	13.7639
1736.61	14.4463
1738.13	14.2053
1739.64	14.9512
1741.15	14.7068
1742.67	13.8278
1744.18	12.0122
1745.7	11.5774
1747.21	11.3553
1748.72	11.2533
1750.24	11.2946
1751.75	10.5328
1753.26	11.3409
1754.77	11.1789
1756.29	10.7321
1757.8	10.1883
1759.31	10.8793
1760.82	10.6569
1762.33	9.66614
1763.84	9.36131
1765.35	8.29414
1766.86	8.16887
1768.37	7.3223
1769.88	7.11724
1771.39	7.73096
1772.9	7.52457
1774.4	6.59974
1775.91	6.11016
1777.42	5.72804
1778.93	5.72323
1780.44	5.29047
1781.94	4.90571
1783.45	4.12334
1784.96	4.86944
1786.46	4.5436
1787.97	4.34234
1789.47	3.45198
1790.98	3.29642
1792.48	2.86754
1793.99	2.5621
1795.49	2.88853
1797	2.64842
1798.5	2.39033
1800.01	1.98442
1801.51	0.750847
1803.01	-0.388987
1804.51	-1.53359
1806.02	-1.76536
1807.52	-1.83121
1809.02	-1.51666
1810.52	-1.75501
1812.02	-1.13798
1813.52	-1.28738
1815.02	-1.76052
1816.53	-2.33354
1818.03	-2.145
1819.52	-1.66861
1821.02	-0.470999
1822.52	0.127599
1824.02	1.10361
1825.52	2.15403
1827.02	2.59228
1828.52	2.0728
1830.02	1.68893
1831.51	3.26964
1833.01	4.2836
1834.51	5.93343
1836.01	6.4936
1837.5	7.13698
1839	6.95875
1840.49	7.39862
1841.99	8.29053
1843.49	8.94739
1844.98	10.1725
1846.48	11.2581
1847.97	10.7583
1849.47	11.4646
1850.96	10.9554
1852.45	11.6523
1853.95	12.1223
1855.44	12.0466
1856.93	12.9088
1858.42	12.5052
1859.92	12.9039
1861.41	11.9864
1862.9	11.7982
1864.39	11.4938
1865.88	10.3329
1867.38	9.36798
1868.87	9.09445
1870.36	8.70689
1871.85	8.56279
1873.34	9.18577
1874.83	8.51786
1876.32	8.43826
1877.81	8.64913
1879.29	8.69709
1880.78	9.04164
1882.27	9.03311
1882.53	8.48018
1884.03	7.91833
1885.52	8.36755
1887.01	8.14807
1888.51	7.95333
1890	8.21318
1891.5	7.47651
1892.99	7.51065
1894.48	7.64501
1895.97	8.43389
1897.47	8.40266
1898.96	8.02913
1900.45	6.99193
1901.94	8.00463
1903.43	8.75986
1904.92	10.1654
1906.41	10.5749
1907.9	10.2188
1909.39	10.3507
1910.88	9.54324
1912.37	8.98112
1913.86	9.73607
1915.35	10.762
1916.84	10.6957
1918.33	10.4028
1919.81	9.87454
1921.3	10.0845
1922.79	11.0888
1924.28	10.1766
1925.76	10.9167
1927.25	10.1938
1928.73	9.76517
1930.22	9.31495
1931.71	8.78589
1933.19	8.26502
1934.68	9.07795
1936.16	9.43381
1937.65	9.17356
1939.13	8.95507
1940.62	9.96675
1942.1	10.7441
1943.58	11.4196
1945.07	12.0112
1946.55	12.0807
1948.03	11.8197
1949.51	12.3532
1951	12.1086
1952.48	11.3512
1953.96	9.92701
1955.44	9.09009
1956.92	9.21634
1958.4	8.47412
1959.88	9.6264
1961.36	9.53137
1962.84	9.63934
1964.32	8.67713
1965.8	8.57553
1967.28	8.59092
1968.76	9.03978
1970.24	8.70857
1971.72	7.31179
1973.2	7.25297
1974.67	7.12662
1976.15	7.73733
1977.63	5.91756
1979.1	6.1008
1980.58	6.23147
1982.06	5.61674
1983.54	6.73123
1985.01	7.2407
1986.49	7.27239
1987.96	7.22884
1989.44	6.64406
1990.91	6.58773
1992.39	7.22674
1993.86	7.5175
1995.33	7.93029
1996.81	6.81258
1998.28	5.32604
1999.75	5.91269
2001.23	5.19876
2002.7	5.91087
2004.17	5.74203
2005.65	6.05929
2007.12	5.21356
2008.59	7.06423
2010.06	6.70565
2011.53	7.38143
2013	6.92116
2014.47	6.9199
2015.94	6.22086
2017.41	6.4258
2018.88	5.87075
2020.35	5.45301
2021.82	5.75171
2023.29	5.12398
2024.76	4.78347
2026.23	4.52553
2027.69	4.8035
2029.16	6.73195
2030.63	7.37236
2032.1	6.94455
2033.56	8.01507
2035.03	7.54331
2036.5	6.42836
2037.96	5.61538
2039.43	6.15342
2040.89	4.87602
2042.36	4.5713
2043.83	4.20924
2045.29	4.08439
2046.75	4.20057
2048.22	3.47447
2049.68	3.55136
2051.15	4.16695
2052.61	4.76555
2054.07	5.00354
2055.54	4.95841
2057	6.09788
2058.46	6.04416
2059.92	4.43077
2061.39	4.49146
2062.85	4.60527
2064.31	5.57158
2065.77	5.68917
2067.23	5.31477
2068.69	5.42303
2070.15	5.54445
2071.61	6.09929
2073.07	7.13913
2074.53	6.80718
2075.99	7.23461
2077.45	7.57343
2078.91	7.89444
2080.37	8.45736
2081.82	9.9656
2083.28	10.0065
2084.74	10.3794
2086.2	9.89232
2087.65	10.2715
2089.11	12.1397
2090.57	12.3545
2092.02	13.0244
2093.48	13.9251
2094.94	15.628
2096.39	16.1841
2097.85	17.3646
2099.3	17.7993
2100.76	18.3425
2102.21	18.8237
2103.66	18.051
2105.12	18.0844
2106.57	16.8955
2108.03	16.8152
2109.48	16.3593
2110.93	16.8635
2112.38	17.661
2113.84	17.2104
2115.29	16.6941
2116.74	17.0206
2118.19	17.4213
2119.64	16.7278
2121.09	16.1994
2122.54	16.635
2123.99	15.533
2125.45	14.4356
2126.89	14.4393
2128.34	14.6233
2129.79	14.4917
2131.24	13.3348
