#Acq. time (s)=	45
#Accumulations=	2
#Range (cm-¹)=	200...3150
#Windows=	2
#Auto scanning=	Off
#Autofocus=	Off
#Macrospot=	Off
#AutoExposure=	Off
#Spike filter=	Multiple accum.
#Delay time (s)=	0
#Binning=	1
#Readout mode=	Signal
#DeNoise=	Off
#ICS correction=	On
#Dark correction=	Off
#Inst. Process=	Off
#Detector Gain=	Best Dynamic Range
#Detector ADC=	20 kHz       
#Detector temperature (°C)=	-69.85
#Instrument=	LabRAM HR Evol
#Detector=	Synapse
#Objective=	x100
#Grating=	600 gr/mm
#ND Filter=	100%
#Laser (nm)=	532 
#Hole=	100.021
#Range=	Auto
#Laser Pol.=	No
#Raman. Pol.=	No
#Laser Pol. (°)=	-0.0007625
#Raman Pol. (°)=	89.9995
#Collection=	Microscope
#StageXY=	Marzhauser
#StageZ=	Marzhauser
#X (µm)=	-984.3
#Y (µm)=	-2867.3
#Z (µm)=	528.65
#Full time(mm:ss)=	3:19
#Project=	
#Sample=	
#Site=	
#Title=	Mb_00_13_31_2x_45s_532 nm_x100_100%_600 gr_mm
#Remark=	
#Date=	06.07.2022 12:06
#Acquired=	06.07.2022 12:06:51
#Base:Fit=	10.08.2022 10:16:56
#Base:Sub=	10.08.2022 10:17:24
#Filter:Polynom=	16.08.2022 10:36:38
#AxisType[0]=Intens
#AxisUnit[0]=Cnt
#AxisType[1]=Spectr
#AxisUnit[1]=1/cm
200.398	20.55
202.213	12.2081
204.027	8.64037
205.843	3.77193
207.657	-0.703071
209.47	-4.39733
211.283	-6.99059
213.097	-7.82715
214.909	-6.73696
216.721	-1.7846
218.533	3.70779
220.344	10.112
222.157	22.03
223.967	29.892
225.777	39.7683
227.587	50.5996
229.396	61.5851
231.205	72.6926
233.016	83.6309
234.824	93.9436
236.632	102.124
238.439	110.004
240.247	117.185
242.053	123.521
243.86	128.901
245.666	135.076
247.474	142.289
249.279	149.393
251.085	155.244
252.889	159.839
254.694	164.333
256.498	167.154
258.301	170.221
260.105	169.804
261.908	171.41
263.71	170.002
265.513	168.475
267.315	166.622
269.116	163.897
270.918	159.46
272.718	154.944
274.519	148.433
276.319	143.851
278.119	136.266
279.918	127.483
281.718	116.966
283.516	106.3
285.315	96.8559
287.113	88.1201
288.911	80.1247
290.708	70.7591
292.505	63.1073
294.302	53.4948
296.098	46.1468
297.894	40.0739
299.69	35.4445
301.485	31.6841
303.278	28.6414
305.073	27.4074
306.867	24.9201
308.661	21.1291
310.454	20.1657
312.247	18.8468
314.04	15.402
315.833	15.9786
317.623	16.1204
319.415	16.2184
321.206	15.9022
322.997	14.5325
324.788	13.0721
326.579	12.6436
328.367	11.6492
330.156	11.5583
331.946	11.2427
333.735	10.0686
335.523	9.96342
337.31	8.82915
339.098	8.46213
340.885	8.17197
342.673	8.11231
344.458	6.61234
346.244	6.31267
348.03	5.44778
349.816	4.46969
351.6	3.99703
353.385	3.45963
355.17	3.59563
356.953	4.07162
358.737	2.77919
360.521	4.1767
362.304	5.82229
364.085	7.96192
365.868	11.8911
367.65	13.9725
369.431	17.6018
371.212	21.634
372.994	25.3027
374.773	31.0508
376.554	36.9232
378.332	42.9164
380.112	49.5231
381.892	59.1558
383.669	68.3953
385.448	79.9715
387.225	92.333
389.003	103.3
390.781	114.352
392.557	125.548
394.334	136.367
396.109	145.366
397.885	154.893
399.66	163.655
401.436	169.108
403.211	176.766
404.984	182.349
406.759	186.93
408.532	189.978
410.306	191.741
412.078	191.679
413.851	192.747
415.623	193.478
417.395	191.047
419.166	190.146
420.938	186.951
422.708	182.063
424.477	178.197
426.248	173.725
428.017	168.25
429.788	161.449
431.556	153.629
433.326	145.304
435.093	136.583
436.86	125.721
438.629	114.684
440.395	104.711
442.163	96.4335
443.929	86.2916
445.694	77.9826
447.461	68.2261
449.226	59.8403
450.99	50.6785
452.756	43.0242
454.52	35.5467
456.285	27.8446
458.048	22.8297
459.811	18.347
461.573	15.3613
463.337	14.0686
465.099	12.1206
466.86	12.1949
468.623	14.291
470.384	17.5716
472.144	18.6133
473.906	20.4003
475.666	22.0657
477.425	23.9065
479.184	26.5364
480.944	27.881
482.703	30.4896
484.461	30.9986
486.218	31.7155
487.975	33.854
489.734	36.3013
491.491	39.7236
493.247	43.0876
495.003	46.4947
496.759	49.3531
498.516	52.5045
500.271	56.2165
502.025	60.855
503.779	64.1519
505.533	67.0091
507.287	71.1978
509.042	73.6452
510.795	73.9513
512.547	76.3076
514.299	78.986
516.051	80.235
517.803	80.8373
519.554	82.0013
521.305	82.331
523.055	82.4611
524.805	82.9866
526.555	84.0811
528.307	86.403
530.056	85.2014
531.805	84.6263
533.553	83.9822
535.301	81.5681
537.049	81.8104
538.797	82.2422
540.544	80.7861
542.291	79.6145
544.037	78.0366
545.783	78.3468
547.529	76.1042
549.275	73.8532
551.02	71.1137
552.765	67.1766
554.509	64.2745
556.253	61.8917
557.997	59.7204
559.738	55.4101
561.482	52.8148
563.224	51.6219
564.967	49.0589
566.709	46.2403
568.451	44.3941
570.192	42.2237
571.933	39.0918
573.674	38.3992
575.415	37.1433
577.153	36.5665
578.893	35.8547
580.632	36.2541
582.371	34.6009
584.11	34.4812
585.849	34.451
587.587	33.2402
589.323	33.1108
591.06	31.3018
592.797	29.4949
594.534	28.499
596.271	26.195
598.005	24.356
599.741	26.2486
601.476	27.1834
603.211	28.1744
604.944	28.5408
606.679	28.9111
608.413	29.5917
610.147	30.2414
611.878	31.0108
613.611	30.795
615.344	30.2151
617.077	28.428
618.807	30.7533
620.539	30.8763
622.27	32.3688
623.999	33.3228
625.73	34.5594
627.461	36.0678
629.189	39.0588
630.919	40.416
632.648	42.4069
634.376	42.9088
636.105	45.0577
637.833	46.3909
639.559	46.7924
641.287	47.8411
643.013	48.6432
644.74	49.931
646.467	51.0054
648.192	52.6313
649.918	53.6904
651.642	53.3524
653.368	53.0042
655.091	54.0061
656.816	53.7207
658.538	53.3277
660.263	52.5963
661.987	51.7154
663.708	49.844
665.432	48.3371
667.153	48.0185
668.875	46.3812
670.596	45.6267
672.318	43.0183
674.037	39.8865
675.759	37.2205
677.478	33.5377
679.196	31.3469
680.917	30.8721
682.635	28.5373
684.355	26.3526
686.072	25.3995
687.791	22.7628
689.508	20.7438
691.224	17.6273
692.942	17.0377
694.658	14.3521
696.376	13.752
698.091	12.6724
699.805	11.2917
701.522	10.1995
703.236	10.133
704.95	11.413
706.665	11.7935
708.379	13.1018
710.093	13.9543
711.806	16.1652
713.518	17.1577
715.23	16.9799
716.943	17.1855
718.655	18.3228
720.366	18.4056
722.078	19.2364
723.788	21.454
725.498	22.0148
727.208	22.9815
728.919	24.4495
730.628	25.896
732.337	26.7336
734.045	27.5445
735.755	27.996
737.463	28.164
739.17	29.153
740.877	31.342
742.584	31.1127
744.292	31.9268
745.998	34.0781
747.704	34.8335
749.409	36.6108
751.114	41.2937
752.819	44.8414
754.526	45.8224
756.23	46.2308
757.934	47.8413
759.637	48.7511
761.34	48.488
763.043	51.7738
764.746	52.9894
766.448	54.6053
768.152	55.3691
769.853	57.4881
771.554	59.9498
773.255	61.6698
774.956	64.1734
776.656	66.0863
778.356	67.277
780.056	63.2468
781.755	62.7133
783.454	61.8654
785.153	64.5991
786.851	66.2046
788.549	68.3701
790.247	71.119
791.944	73.0015
793.641	75.079
795.338	76.5799
797.034	78.2293
798.73	79.2526
800.426	79.5466
802.121	80.6366
803.817	79.2071
805.511	78.7282
807.206	81.071
808.9	82.2777
810.592	81.0775
812.286	80.8635
813.979	80.2866
815.672	78.9855
817.364	79.3287
819.057	81.4742
820.748	82.5652
822.44	82.3842
824.129	82.4424
825.82	82.8032
827.511	81.2765
829.201	81.2449
830.891	80.8886
832.581	79.7978
834.269	79.6803
835.958	77.0185
837.646	73.3178
839.335	68.7585
841.023	66.788
842.709	64.3733
844.396	60.5585
846.084	56.5103
847.77	53.7478
849.455	49.1723
851.141	46.5976
852.827	44.0123
854.513	39.3253
856.196	36.0048
857.881	32.6378
859.566	27.8916
861.248	23.7583
862.932	20.1619
864.616	16.401
866.297	17.4935
867.98	18.9977
869.663	19.3994
871.343	17.4435
873.026	16.319
874.707	16.1294
876.387	14.818
878.068	15.3511
879.747	14.3636
881.428	13.7304
883.108	11.4619
884.786	10.6261
886.465	10.3957
888.143	10.4229
889.822	12.5185
891.498	15.1658
893.177	15.0377
894.855	15.2512
896.53	15.4102
898.208	16.3338
899.883	17.6816
901.56	20.7547
903.234	22.4116
904.91	21.8028
906.584	21.5731
908.26	21.456
909.933	21.8133
911.608	21.2191
913.28	21.1001
914.955	21.5206
916.627	21.2877
918.298	20.8997
919.972	20.9838
921.643	20.1071
923.315	19.8266
924.986	21.8079
926.656	20.0347
928.328	19.11
929.997	18.8714
931.668	18.4895
933.337	19.5097
935.006	20.2424
936.676	19.3211
938.344	17.776
940.012	17.9388
941.681	16.4924
943.348	16.287
945.014	16.1156
946.683	15.9665
948.349	15.4131
950.015	15.7092
951.682	15.34
953.347	16.6373
955.012	17.1773
956.676	16.653
958.343	14.4664
960.006	11.6276
961.67	11.3489
963.333	12.5044
964.998	13.9878
966.661	17.6043
968.323	21.4903
969.985	25.0166
971.649	29.2601
973.31	32.8545
974.971	38.657
976.632	41.9671
978.293	47.2768
979.953	51.9295
981.615	57.0429
983.274	61.1945
984.933	63.905
986.592	66.8321
988.251	69.0525
989.909	72.2346
991.567	74.0789
993.225	76.0668
994.884	78.7314
996.541	81.4041
998.198	84.4908
999.855	85.7295
1001.51	86.4448
1003.17	87.2237
1004.82	85.7842
1006.48	87.0169
1008.13	87.4223
1009.79	85.587
1011.44	84.0907
1013.1	84.438
1014.75	83.7991
1016.4	85.4041
1018.06	88.2625
1019.71	91.2632
1021.36	96.6705
1023.01	102.924
1024.66	110.596
1026.32	118.765
1027.97	124.085
1029.62	130.162
1031.27	135.826
1032.92	141.403
1034.57	146.275
1036.22	148.908
1037.87	151.497
1039.52	153.44
1041.16	154.937
1042.81	158.527
1044.46	164.042
1046.11	168.638
1047.76	171.441
1049.4	174.599
1051.05	175.379
1052.7	175.845
1054.34	177.325
1055.99	177.114
1057.63	177.059
1059.28	172.708
1060.92	169.573
1062.57	165.424
1064.21	161.606
1065.85	154.538
1067.5	147.364
1069.14	140.667
1070.78	132.051
1072.43	123.658
1074.07	116.144
1075.71	107.612
1077.35	98.4406
1078.99	89.2491
1080.63	79.206
1082.27	69.8536
1083.91	59.9729
1085.55	50.1707
1087.19	42.0868
1088.83	34.825
1090.47	28.8567
1092.11	22.6545
1093.75	20.0428
1095.39	19.58
1097.03	18.5066
1098.66	19.239
1100.3	20.5964
1101.94	21.5726
1103.57	23.1161
1105.21	24.2547
1106.84	24.7147
1108.48	24.6009
1110.11	23.0266
1111.75	22.7509
1113.38	22.3294
1115.02	22.804
1116.65	21.7051
1118.29	21.0489
1119.92	21.3257
1121.55	20.788
1123.19	20.4079
1124.82	19.8162
1126.45	20.1144
1128.08	21.0704
1129.71	20.6483
1131.34	20.1974
1132.97	18.8969
1134.6	19.7737
1136.23	20.4351
1137.86	19.0188
1139.49	18.1801
1141.12	16.77
1142.75	16.218
1144.38	15.6418
1146.01	13.9803
1147.64	10.708
1149.26	9.04696
1150.89	10.1049
1152.52	8.86145
1154.15	8.36265
1155.77	7.16762
1157.4	5.88642
1159.02	4.53689
1160.65	4.27382
1162.27	3.72179
1163.9	3.72567
1165.52	1.19021
1167.15	2.23774
1168.77	3.57992
1170.39	3.04208
1172.02	2.73612
1173.64	2.65312
1175.26	4.29856
1176.89	4.5561
1178.51	4.1841
1180.13	5.62383
1181.75	6.20453
1183.37	7.79249
1184.99	8.73632
1186.61	11.2321
1188.23	11.4551
1189.85	12.1982
1191.47	15.1421
1193.09	17.6596
1194.71	20.4034
1196.33	24.3905
1197.94	25.7364
1199.56	28.6692
1201.18	33.7031
1202.8	37.6651
1204.41	40.7399
1206.03	43.9108
1207.65	48.5152
1209.26	52.9923
1210.88	55.3872
1212.49	61.1367
1214.11	64.9059
1215.72	70.3229
1217.34	74.1783
1218.95	78.1935
1220.57	83.4804
1222.18	86.3625
1223.79	90.2638
1225.41	93.8906
1227.02	96.4367
1228.63	98.0947
1230.24	101.876
1231.85	104.847
1233.47	104.802
1235.08	107.363
1236.69	107.748
1238.3	110.27
1239.91	111.64
1241.52	112.766
1243.13	113.972
1244.74	113.34
1246.34	112.916
1247.95	114.595
1249.56	113.477
1251.17	112.791
1252.78	112.75
1254.38	113.027
1255.99	111.753
1257.6	109.922
1259.2	107.59
1260.81	106.826
1262.42	105.604
1264.02	103.931
1265.63	102.912
1267.23	102.763
1268.84	101.435
1270.44	100.629
1272.04	101.421
1273.65	100.177
1275.25	100.148
1276.85	100.917
1278.46	102.27
1280.06	104.915
1281.66	106.922
1283.26	106.725
1284.86	109.392
1286.46	110.72
1288.07	113.18
1289.67	115.054
1291.27	116.647
1292.87	119.265
1294.47	120.379
1296.06	123.937
1297.66	125.382
1299.26	126.48
1300.86	129.859
1302.46	131.711
1304.06	134.819
1305.65	135.55
1307.25	137.037
1308.85	140.481
1310.44	144.948
1312.04	147.513
1313.64	151.156
1315.23	154.317
1316.83	156.986
1318.42	160.079
1320.02	161.881
1321.61	162.956
1323.2	164.793
1324.8	165.607
1326.39	166.465
1327.99	167.493
1329.58	167.985
1331.17	167.677
1332.76	168.025
1334.36	165.807
1335.95	165.006
1337.54	162.825
1339.13	162.3
1340.72	160.149
1342.31	158.683
1343.9	157.34
1345.49	155.764
1347.08	154.206
1348.67	151.549
1350.26	149.249
1351.85	148.034
1353.43	145.398
1355.02	143.789
1356.61	142.287
1358.2	139.315
1359.78	137.074
1361.37	133.417
1362.96	129.799
1364.54	127.092
1366.13	123.233
1367.71	119.492
1369.3	114.689
1370.88	110.874
1372.47	108.101
1374.05	105.091
1375.64	102.605
1377.22	100.533
1378.8	99.188
1380.39	99.3438
1381.97	96.9101
1383.55	95.3159
1385.13	93.3871
1386.72	93.9576
1388.3	94.2323
1389.88	93.9004
1391.46	93.7461
1393.04	93.4753
1394.62	93.6243
1396.2	93.9086
1397.78	93.232
1399.36	94.4427
1400.94	95.747
1402.52	97.3302
1404.1	99.4917
1405.68	102.036
1407.25	106.018
1408.83	109.031
1410.41	112.797
1411.98	116.546
1413.56	121.011
1415.14	127.038
1416.71	131.321
1418.29	138.04
1419.87	143.5
1421.44	151.921
1423.02	159.467
1424.59	166.703
1426.16	174.472
1427.74	182.584
1429.31	192.305
1430.89	199.726
1432.46	207.506
1434.03	215.36
1435.6	223.954
1437.18	230.437
1438.75	237.283
1440.32	240.654
1441.89	246.074
1443.46	249.813
1445.03	252.094
1446.6	253.337
1448.17	255.128
1449.74	256.33
1451.31	255.814
1452.88	255.009
1454.45	252.896
1456.02	251.491
1457.59	246.07
1459.16	241.664
1460.72	236.107
1462.29	230.392
1463.86	222.974
1465.43	216.905
1466.99	209.467
1468.56	203.794
1470.13	195.714
1471.69	187.889
1473.26	179.54
1474.82	171.178
1476.38	162.931
1477.95	156.483
1479.51	148.478
1481.08	141.753
1482.64	135.043
1484.2	128.564
1485.77	120.921
1487.33	115.215
1488.89	107.873
1490.46	100.458
1492.02	95.6923
1493.58	89.2819
1495.14	84.8463
1496.7	81.5227
1498.26	78.5795
1499.82	76.6839
1501.38	74.5049
1502.94	72.5161
1504.5	70.9203
1506.06	70.656
1507.62	70.488
1509.18	69.7005
1510.73	70.1685
1512.29	69.7425
1513.85	69.7573
1515.41	68.293
1516.96	67.4807
1518.52	65.3525
1520.08	65.451
1521.63	65.2682
1523.19	66.7465
1524.75	66.1911
1526.3	65.7116
1527.85	65.0766
1529.41	63.8657
1530.96	63.2756
1532.52	62.0643
1534.07	63.0085
1535.62	61.7919
1537.18	62.4864
1538.73	62.9175
1540.28	63.4818
1541.84	64.6118
1543.39	65.9995
1544.94	68.7315
1546.49	70.034
1548.04	69.8518
1549.59	71.8825
1551.14	74.5848
1552.69	76.0161
1554.25	77.2131
1555.79	79.1591
1557.34	80.2265
1558.89	82.1224
1560.44	83.2572
1561.99	84.5319
1563.54	85.2958
1565.08	87.2789
1566.63	86.3344
1568.18	88.9046
1569.73	91.383
1571.27	94.8948
1572.82	98.4553
1574.37	100.503
1575.91	102.789
1577.46	105.475
1579	108.307
1580.55	112.273
1582.09	116.53
1583.64	119.268
1585.18	121.591
1586.73	123.411
1588.27	124.908
1589.81	126.047
1591.35	127.539
1592.9	129.695
1594.44	130.968
1595.98	132.059
1597.52	133.673
1599.06	135.664
1600.61	134.762
1602.15	133.664
1603.69	132.755
1605.23	132.175
1606.77	131.276
1608.31	131.651
1609.85	131.644
1611.39	130.662
1612.93	128.58
1614.46	127.983
1616	127.331
1617.54	128.308
1619.08	128.115
1620.61	127.559
1622.15	127.382
1623.69	125.768
1625.23	127.136
1626.76	129.071
1628.3	129.394
1629.83	127.568
1631.37	128.655
1632.9	129.592
1634.44	130.171
1635.97	130.651
1637.51	131.092
1639.04	131.852
1640.57	133.092
1642.11	134.267
1643.64	135.599
1645.17	138.55
1646.71	140.835
1648.24	143.422
1649.77	143.658
1651.3	144.913
1652.83	145.386
1654.36	145.604
1655.89	145.958
1657.42	146.16
1658.96	143.746
1660.48	141.655
1662.01	140.362
1663.54	139.789
1665.07	138.103
1666.6	136.215
1668.13	133.986
1669.66	131.121
1671.19	128.964
1672.71	126.007
1674.24	123.504
1675.77	119.704
1677.29	113.202
1678.82	108.759
1680.35	104.311
1681.87	100.294
1683.4	94.8113
1684.92	89.8214
1686.45	83.9088
1687.97	78.3985
1689.5	74.6032
1691.02	70.7139
1692.54	66.0381
1694.07	61.9638
1695.59	56.5355
1697.11	52.2037
1698.64	48.2488
1700.16	45.3501
1701.68	42.9849
1703.2	38.6307
1704.72	34.6001
1706.25	31.5543
1707.77	29.552
1709.29	26.7716
1710.81	24.2583
1712.33	22.4209
1713.85	20.7983
1715.37	18.9007
1716.89	18.094
1718.41	16.2101
1719.92	14.3868
1721.44	13.2289
1722.96	12.7893
1724.48	10.6353
1725.99	9.1749
1727.51	9.14872
1729.03	9.45285
1730.55	9.98787
1732.06	9.66086
1733.58	8.94903
1735.09	9.30664
1736.61	10.5551
1738.13	10.6332
1739.64	10.7731
1741.15	11.1846
1742.67	11.9936
1744.18	12.5259
1745.7	13.4845
1747.21	15.331
1748.72	15.6639
1750.24	15.2214
1751.75	13.8049
1753.26	13.69
1754.77	14.2671
1756.29	13.7323
1757.8	13.5279
1759.31	13.146
1760.82	14.007
1762.33	14.5572
1763.84	13.3674
1765.35	13.3078
1766.86	11.8925
1768.37	10.9993
1769.88	10.6219
1771.39	9.40736
1772.9	8.38207
1774.4	8.00294
1775.91	7.17103
1777.42	7.26739
1778.93	6.69726
1780.44	6.79802
1781.94	6.83153
1783.45	6.74609
1784.96	5.9835
1786.46	5.86969
1787.97	4.97984
1789.47	4.00411
1790.98	3.51621
1792.48	3.42884
1793.99	2.26409
1795.49	2.77301
1797	3.31188
1798.5	4.43443
1800.01	4.44915
1801.51	5.27358
1803.01	6.50698
1804.51	6.24457
1806.02	4.93094
1807.52	4.79397
1809.02	5.94739
1810.52	6.05339
1812.02	6.12021
1813.52	6.18931
1815.02	7.41578
1816.53	7.54361
1818.03	8.08258
1819.52	7.91079
1821.02	7.85291
1822.52	8.12482
1824.02	7.85263
1825.52	7.57716
1827.02	8.00153
1828.52	7.56878
1830.02	6.92521
1831.51	6.83038
1833.01	7.60234
1834.51	7.85191
1836.01	7.5104
1837.5	7.11326
1839	5.69922
1840.49	6.39768
1841.99	6.33847
1843.49	6.81221
1844.98	6.94734
1846.48	6.19604
1847.97	7.05676
1849.47	7.75155
1850.96	8.25343
1852.45	9.3102
1853.95	9.68011
1855.44	9.34738
1856.93	9.96765
1858.42	10.3592
1859.92	10.9845
1861.41	12.3643
1862.9	12.429
1864.39	14.3958
1865.88	15.7633
1867.38	16.1494
1868.87	17.0071
1870.36	16.6904
1871.85	17.4402
1873.34	17.0671
1874.83	16.6122
1876.32	14.5546
1877.81	14.597
1879.29	14.321
1880.78	14.2631
1882.27	14.8466
1882.53	14.3426
1884.03	12.8842
1885.52	11.9557
1887.01	11.9649
1888.51	11.7655
1890	11.5615
1891.5	11.543
1892.99	11.4498
1894.48	11.6978
1895.97	11.7968
1897.47	10.9054
1898.96	9.91973
1900.45	9.61531
1901.94	8.65587
1903.43	8.12973
1904.92	7.97549
1906.41	7.33308
1907.9	7.25319
1909.39	6.67438
1910.88	6.47742
1912.37	6.28867
1913.86	6.26014
1915.35	6.12268
1916.84	6.24022
1918.33	6.49741
1919.81	8.80142
1921.3	9.7578
1922.79	10.7281
1924.28	11.3708
1925.76	12.1531
1927.25	12.2822
1928.73	13.1354
1930.22	14.051
1931.71	14.9533
1933.19	15.2297
1934.68	15.8721
1936.16	15.1814
1937.65	15.4617
1939.13	15.2155
1940.62	13.9394
1942.1	13.146
1943.58	11.0717
1945.07	11.3932
1946.55	10.5996
1948.03	10.229
1949.51	9.71986
1951	11.0634
1952.48	10.7171
1953.96	9.81984
1955.44	9.55381
1956.92	8.71311
1958.4	8.27788
1959.88	8.17045
1961.36	9.18017
1962.84	8.94289
1964.32	9.02498
1965.8	8.1968
1967.28	8.09168
1968.76	7.818
1970.24	6.58812
1971.72	5.98055
1973.2	6.06979
1974.67	6.43723
1976.15	5.44912
1977.63	4.51595
1979.1	4.76625
1980.58	5.51182
1982.06	5.97517
1983.54	6.00003
1985.01	6.89919
1986.49	7.68487
1987.96	8.20933
1989.44	9.53288
1990.91	11.6862
1992.39	12.54
1993.86	14.3018
1995.33	13.7224
1996.81	14.0888
1998.28	13.7026
1999.75	14.265
2001.23	14.2516
2002.7	14.8217
2004.17	15.4911
2005.65	16.4301
2007.12	16.1819
2008.59	16.3821
2010.06	15.5803
2011.53	15.7912
2013	15.5148
2014.47	15.0419
2015.94	15.7422
2017.41	15.5059
2018.88	14.8025
2020.35	14.3003
2021.82	12.7122
2023.29	12.7639
2024.76	12.1227
2026.23	11.3675
2027.69	12.3712
2029.16	12.1039
2030.63	12.45
2032.1	10.9834
2033.56	9.87132
2035.03	10.1626
2036.5	8.31604
2037.96	8.0066
2039.43	7.44761
2040.89	6.46289
2042.36	6.21439
2043.83	5.99176
2045.29	6.29831
2046.75	5.69335
2048.22	4.03382
2049.68	2.85498
2051.15	3.18777
2052.61	3.25082
2054.07	3.32324
2055.54	1.82225
2057	2.37597
2058.46	1.85967
2059.92	2.09246
2061.39	2.73319
2062.85	3.15843
2064.31	3.81724
2065.77	3.43552
2067.23	4.43954
2068.69	5.01365
2070.15	4.9364
2071.61	6.1757
2073.07	7.5345
2074.53	8.71921
2075.99	10.303
2077.45	10.7436
2078.91	10.9285
2080.37	11.5134
2081.82	13.1394
2083.28	13.7581
2084.74	14.6134
2086.2	14.6527
2087.65	16.1742
2089.11	15.6576
2090.57	14.3167
2092.02	13.8301
2093.48	15.7196
2094.94	16.1213
2096.39	16.2271
2097.85	16.6453
2099.3	17.0465
2100.76	17.5182
2102.21	15.7669
2103.66	15.0971
2105.12	13.7607
2106.57	13.3449
2108.03	13.1685
2109.48	11.5726
2110.93	12.2831
2112.38	11.6415
2113.84	12.1208
2115.29	13.2586
2116.74	12.992
2118.19	12.3015
2119.64	11.5625
2121.09	10.9904
2122.54	10.8335
2123.99	10.6852
2125.45	10.3338
2126.89	10.4678
2128.34	9.9079
2129.79	10.18
2131.24	10.3062
2132.69	10.9438
2134.14	10.4654
2135.59	10.1736
