#Acq. time (s)=	45
#Accumulations=	2
#Range (cm-¹)=	200...3150
#Windows=	2
#Auto scanning=	Off
#Autofocus=	Off
#Macrospot=	Off
#AutoExposure=	Off
#Spike filter=	Multiple accum.
#Delay time (s)=	0
#Binning=	1
#Readout mode=	Signal
#DeNoise=	Off
#ICS correction=	On
#Dark correction=	Off
#Inst. Process=	Off
#Detector Gain=	Best Dynamic Range
#Detector ADC=	20 kHz       
#Detector temperature (°C)=	-69.85
#Instrument=	LabRAM HR Evol
#Detector=	Synapse
#Objective=	x100
#Grating=	600 gr/mm
#ND Filter=	100%
#Laser (nm)=	532 
#Hole=	100.021
#Range=	Auto
#Laser Pol.=	No
#Raman. Pol.=	No
#Laser Pol. (°)=	-0.0007625
#Raman Pol. (°)=	89.9995
#Collection=	Microscope
#StageXY=	Marzhauser
#StageZ=	Marzhauser
#X (µm)=	-1059.9
#Y (µm)=	-2885.2
#Z (µm)=	528
#Full time(mm:ss)=	3:18
#Project=	
#Sample=	
#Site=	
#Title=	Mb_00_13_46_2x_45s_532 nm_x100_100%_600 gr_mm
#Remark=	
#Date=	06.07.2022 13:23
#Acquired=	06.07.2022 13:23:01
#Base:Fit=	10.08.2022 10:16:56
#Base:Sub=	10.08.2022 10:17:24
#Filter:Polynom=	16.08.2022 10:36:38
#AxisType[0]=Intens
#AxisUnit[0]=Cnt
#AxisType[1]=Spectr
#AxisUnit[1]=1/cm
200.398	21.8733
202.213	18.0328
204.027	13.9383
205.843	9.60159
207.657	4.99268
209.47	1.36718
211.283	-1.29523
213.097	-2.25831
214.909	-1.67923
216.721	-0.242752
218.533	4.86024
220.344	12.4994
222.157	20.2334
223.967	29.2736
225.777	39.9142
227.587	50.3423
229.396	61.6962
231.205	73.7367
233.016	85.1849
234.824	97.8611
236.632	109.156
238.439	119.871
240.247	129.23
242.053	137.796
243.86	145.158
245.666	151.647
247.474	160.877
249.279	167.999
251.085	174.019
252.889	181.18
254.694	187.392
256.498	193.592
258.301	198.479
260.105	200.654
261.908	202.008
263.71	201.258
265.513	200.567
267.315	197.654
269.116	195.659
270.918	189.951
272.718	186.953
274.519	180.586
276.319	173.155
278.119	165.835
279.918	157.274
281.718	146.936
283.516	138.203
285.315	128.221
287.113	117.61
288.911	106.959
290.708	96.9086
292.505	87.5458
294.302	78.4094
296.098	68.8205
297.894	60.8133
299.69	52.703
301.485	47.2328
303.278	41.6022
305.073	37.4799
306.867	34.1688
308.661	33.6254
310.454	31.15
312.247	28.3616
314.04	28.1891
315.833	26.7821
317.623	26.8274
319.415	27.5479
321.206	27.2313
322.997	27.1859
324.788	27.378
326.579	26.5024
328.367	24.7186
330.156	24.0459
331.946	23.5457
333.735	22.9518
335.523	22.9881
337.31	23.1189
339.098	22.0417
340.885	22.2245
342.673	22.036
344.458	19.6928
346.244	17.8959
348.03	15.771
349.816	14.0262
351.6	13.3217
353.385	11.1769
355.17	8.8274
356.953	8.46444
358.737	8.90139
360.521	7.3436
362.304	9.33101
364.085	10.0214
365.868	14.4848
367.65	19.0575
369.431	22.5352
371.212	29.1173
372.994	34.1106
374.773	38.9705
376.554	43.3207
378.332	48.1778
380.112	55.2185
381.892	63.7574
383.669	73.0324
385.448	83.7987
387.225	97.551
389.003	109.77
390.781	122.404
392.557	135.008
394.334	147.524
396.109	159.887
397.885	171.411
399.66	178.452
401.436	186.651
403.211	194.602
404.984	200.284
406.759	207.126
408.532	209.257
410.306	210.259
412.078	212.274
413.851	211.374
415.623	210.069
417.395	208.376
419.166	207.809
420.938	203.462
422.708	198.827
424.477	193.975
426.248	188.02
428.017	179.741
429.788	171.24
431.556	161.6
433.326	151.504
435.093	141.495
436.86	131.812
438.629	121.965
440.395	110.807
442.163	99.713
443.929	90.4306
445.694	83.5281
447.461	75.2318
449.226	67.3821
450.99	61.0271
452.756	54.6313
454.52	48.8849
456.285	42.122
458.048	37.4981
459.811	33.2031
461.573	27.9468
463.337	24.4171
465.099	21.6566
466.86	22.4574
468.623	24.901
470.384	26.9145
472.144	29.6912
473.906	32.776
475.666	35.2446
477.425	36.1172
479.184	39.3701
480.944	40.5021
482.703	43.3273
484.461	46.352
486.218	46.3917
487.975	46.7378
489.734	49.3943
491.491	50.9855
493.247	51.8479
495.003	51.9698
496.759	53.3327
498.516	55.7314
500.271	57.2644
502.025	57.1683
503.779	60.0545
505.533	61.3063
507.287	61.9459
509.042	61.4213
510.795	61.6729
512.547	62.3361
514.299	62.3953
516.051	63.3767
517.803	65.1916
519.554	65.9343
521.305	67.3267
523.055	68.7897
524.805	70.0749
526.555	71.3977
528.307	71.3827
530.056	72.3577
531.805	73.935
533.553	72.8864
535.301	72.3088
537.049	71.2967
538.797	70.4351
540.544	69.2571
542.291	68.4931
544.037	67.4256
545.783	68.7457
547.529	64.6662
549.275	62.0312
551.02	59.7099
552.765	58.0817
554.509	55.3301
556.253	53.3401
557.997	51.9849
559.738	50.75
561.482	48.9352
563.224	47.7338
564.967	46.6936
566.709	44.9814
568.451	44.0582
570.192	45.0895
571.933	43.2166
573.674	40.4944
575.415	38.7175
577.153	36.5596
578.893	35.86
580.632	34.3462
582.371	33.3236
584.11	32.424
585.849	29.6353
587.587	28.651
589.323	27.6591
591.06	27.8243
592.797	26.8019
594.534	25.7239
596.271	24.4377
598.005	25.4865
599.741	26.7437
601.476	27.8382
603.211	30.5476
604.944	31.0079
606.679	31.2498
608.413	31.7531
610.147	31.2347
611.878	31.6654
613.611	31.8143
615.344	31.8653
617.077	32.3007
618.807	31.7589
620.539	30.4947
622.27	31.1425
623.999	32.0616
625.73	33.427
627.461	34.3274
629.189	37.0715
630.919	39.3208
632.648	41.2939
634.376	40.2391
636.105	43.5811
637.833	46.6383
639.559	48.4287
641.287	50.3778
643.013	53.1471
644.74	53.4124
646.467	53.1373
648.192	53.413
649.918	54.4469
651.642	55.1453
653.368	56.5388
655.091	58.37
656.816	57.7269
658.538	55.8341
660.263	53.7448
661.987	51.6665
663.708	49.8395
665.432	48.6423
667.153	46.0415
668.875	44.1212
670.596	43.1963
672.318	42.2147
674.037	41.1401
675.759	39.5282
677.478	37.7129
679.196	35.9795
680.917	33.7294
682.635	33.2906
684.355	32.1726
686.072	29.7544
687.791	28.209
689.508	27.5091
691.224	23.0217
692.942	21.2927
694.658	18.4342
696.376	16.357
698.091	14.885
699.805	11.9148
701.522	10.1816
703.236	8.54141
704.95	8.05574
706.665	8.77472
708.379	9.35275
710.093	10.6774
711.806	10.9211
713.518	12.0128
715.23	13.9926
716.943	14.6376
718.655	16.6944
720.366	19.6999
722.078	20.1961
723.788	21.1323
725.498	21.3344
727.208	21.3844
728.919	21.062
730.628	21.0749
732.337	22.212
734.045	24.7633
735.755	27.3779
737.463	27.9288
739.17	28.4297
740.877	27.7777
742.584	28.2526
744.292	29.5565
745.998	30.2746
747.704	30.7957
749.409	33.0861
751.114	34.6461
752.819	36.758
754.526	38.0033
756.23	40.8269
757.934	41.2421
759.637	42.6197
761.34	43.8685
763.043	43.6314
764.746	44.6251
766.448	45.8027
768.152	45.6986
769.853	46.1423
771.554	48.0377
773.255	48.2826
774.956	50.0337
776.656	49.7102
778.356	50.47
780.056	48.6081
781.755	49.3736
783.454	49.7926
785.153	50.1385
786.851	50.4388
788.549	50.681
790.247	50.288
791.944	50.1464
793.641	50.4844
795.338	51.3758
797.034	51.4708
798.73	52.9532
800.426	52.7633
802.121	52.3662
803.817	54.4907
805.511	54.0293
807.206	52.1362
808.9	53.1255
810.592	52.7655
812.286	53.2237
813.979	52.9234
815.672	52.8843
817.364	52.7023
819.057	53.2901
820.748	53.4122
822.44	53.2831
824.129	54.9837
825.82	55.1852
827.511	56.0657
829.201	56.5779
830.891	56.4336
832.581	57.3723
834.269	58.7099
835.958	57.9069
837.646	58.0909
839.335	56.5787
841.023	56.3246
842.709	55.8327
844.396	55.806
846.084	54.3354
847.77	53.0589
849.455	52.3062
851.141	52.8128
852.827	51.929
854.513	51.4757
856.196	49.1752
857.881	46.5898
859.566	45.5538
861.248	41.9859
862.932	39.3255
864.616	37.4855
866.297	35.7959
867.98	33.1304
869.663	31.1789
871.343	28.4212
873.026	27.1607
874.707	27.175
876.387	26.979
878.068	24.9512
879.747	24.0774
881.428	23.4157
883.108	22.5727
884.786	21.7694
886.465	22.1597
888.143	22.9703
889.822	21.6817
891.498	20.8596
893.177	20.397
894.855	19.4449
896.53	18.1264
898.208	15.5526
899.883	14.9299
901.56	14.2021
903.234	16.0273
904.91	17.2884
906.584	17.9088
908.26	17.4897
909.933	16.355
911.608	17.271
913.28	17.9764
914.955	18.6703
916.627	19.486
918.298	17.9079
919.972	17.7684
921.643	18.556
923.315	18.3955
924.986	21.3067
926.656	21.0509
928.328	20.1811
929.997	19.8772
931.668	20.2273
933.337	20.0993
935.006	20.0494
936.676	18.5671
938.344	17.1536
940.012	16.1343
941.681	16.0457
943.348	15.9077
945.014	15.9643
946.683	16.9465
948.349	15.2704
950.015	14.9375
951.682	14.9708
953.347	15.975
955.012	15.3215
956.676	14.5421
958.343	12.9002
960.006	9.07032
961.67	8.78823
963.333	11.129
964.998	12.8573
966.661	14.0562
968.323	16.2279
969.985	20.662
971.649	25.1722
973.31	31.283
974.971	37.059
976.632	44.0153
978.293	52.1732
979.953	59.5041
981.615	68.6421
983.274	78.0922
984.933	86.3179
986.592	94.4894
988.251	98.7246
989.909	104.453
991.567	110.327
993.225	115.031
994.884	119.545
996.541	124.865
998.198	127.273
999.855	130.299
1001.51	131.382
1003.17	133.895
1004.82	134.653
1006.48	133.143
1008.13	131.892
1009.79	127.076
1011.44	124.478
1013.1	121.775
1014.75	119.381
1016.4	117.479
1018.06	116.539
1019.71	116.678
1021.36	116.538
1023.01	117.673
1024.66	121.043
1026.32	123.963
1027.97	128.793
1029.62	132.05
1031.27	134.23
1032.92	138.016
1034.57	140.278
1036.22	142.629
1037.87	142.725
1039.52	143.896
1041.16	144.6
1042.81	147.699
1044.46	153.163
1046.11	155.295
1047.76	158.126
1049.4	160.475
1051.05	163.405
1052.7	168.492
1054.34	169.779
1055.99	172.865
1057.63	172.701
1059.28	172.911
1060.92	174.005
1062.57	170.917
1064.21	168.558
1065.85	164.509
1067.5	159.052
1069.14	154.01
1070.78	147.07
1072.43	140.207
1074.07	132.334
1075.71	122.661
1077.35	112.898
1078.99	102.932
1080.63	90.4515
1082.27	81.2413
1083.91	69.9418
1085.55	59.4525
1087.19	48.0964
1088.83	37.0507
1090.47	27.5466
1092.11	20.032
1093.75	13.8414
1095.39	8.25416
1097.03	5.02226
1098.66	2.75394
1100.3	1.88735
1101.94	1.8408
1103.57	3.71374
1105.21	6.12256
1106.84	8.01071
1108.48	8.4357
1110.11	10.6969
1111.75	11.0472
1113.38	11.4668
1115.02	12.6664
1116.65	12.8948
1118.29	13.5405
1119.92	14.1544
1121.55	15.241
1123.19	15.5008
1124.82	17.5912
1126.45	17.6998
1128.08	17.3529
1129.71	16.4418
1131.34	16.433
1132.97	16.755
1134.6	17.8593
1136.23	18.5035
1137.86	19.5701
1139.49	18.617
1141.12	20.0918
1142.75	19.9411
1144.38	18.5731
1146.01	18.1165
1147.64	17.7457
1149.26	16.0013
1150.89	16.3845
1152.52	14.4681
1154.15	14.0391
1155.77	14.01
1157.4	12.5638
1159.02	11.3191
1160.65	12.1962
1162.27	11.3605
1163.9	10.9894
1165.52	10.2754
1167.15	9.33292
1168.77	7.9422
1170.39	8.19622
1172.02	8.46989
1173.64	7.25719
1175.26	5.58054
1176.89	4.97404
1178.51	6.6605
1180.13	7.03732
1181.75	7.43598
1183.37	9.24339
1184.99	10.0683
1186.61	11.0732
1188.23	11.0748
1189.85	12.7195
1191.47	15.0178
1193.09	17.4641
1194.71	18.562
1196.33	20.8624
1197.94	22.4278
1199.56	25.3563
1201.18	27.3155
1202.8	29.7229
1204.41	32.4114
1206.03	34.6916
1207.65	35.7139
1209.26	38.9788
1210.88	41.2218
1212.49	44.8635
1214.11	48.6354
1215.72	52.2919
1217.34	55.0974
1218.95	56.8446
1220.57	59.2298
1222.18	61.6992
1223.79	63.2151
1225.41	66.3865
1227.02	68.1772
1228.63	71.2278
1230.24	72.9418
1231.85	75.2545
1233.47	76.568
1235.08	79.3883
1236.69	80.3937
1238.3	81.1578
1239.91	82.8731
1241.52	85.281
1243.13	85.1903
1244.74	84.4515
1246.34	85.51
1247.95	85.4195
1249.56	84.6757
1251.17	84.7245
1252.78	83.4142
1254.38	80.9533
1255.99	80.8191
1257.6	80.8231
1259.2	80.8458
1260.81	79.2964
1262.42	78.6128
1264.02	78.2419
1265.63	77.0268
1267.23	76.1679
1268.84	72.3568
1270.44	72.5007
1272.04	72.392
1273.65	72.5561
1275.25	72.4039
1276.85	72.4575
1278.46	72.3983
1280.06	74.068
1281.66	74.2181
1283.26	76.092
1284.86	77.776
1286.46	79.3246
1288.07	81.4298
1289.67	82.6062
1291.27	82.4021
1292.87	83.4947
1294.47	86.223
1296.06	86.8465
1297.66	88.0791
1299.26	89.4976
1300.86	91.3838
1302.46	92.3254
1304.06	93.6268
1305.65	94.9606
1307.25	96.6613
1308.85	98.8882
1310.44	99.4952
1312.04	102.614
1313.64	103.97
1315.23	105.992
1316.83	106.692
1318.42	109.393
1320.02	110.034
1321.61	111.257
1323.2	110.318
1324.8	108.874
1326.39	109.95
1327.99	109.424
1329.58	109.238
1331.17	108.799
1332.76	108.521
1334.36	107.763
1335.95	108.851
1337.54	108.688
1339.13	106.835
1340.72	105.894
1342.31	106.761
1343.9	106.068
1345.49	104.372
1347.08	103.511
1348.67	102.789
1350.26	104.752
1351.85	103.882
1353.43	103.731
1355.02	103.018
1356.61	101.901
1358.2	101.772
1359.78	101.305
1361.37	99.1251
1362.96	100.098
1364.54	97.4594
1366.13	95.5438
1367.71	93.2445
1369.3	90.3619
1370.88	89.0813
1372.47	86.822
1374.05	84.1943
1375.64	81.0893
1377.22	79.9263
1378.8	78.4736
1380.39	77.3598
1381.97	75.8101
1383.55	75.173
1385.13	75.6285
1386.72	75.2447
1388.3	74.446
1389.88	73.3521
1391.46	73.5152
1393.04	69.3656
1394.62	70.1535
1396.2	67.5738
1397.78	66.9624
1399.36	64.144
1400.94	63.5764
1402.52	64.2758
1404.1	65.1165
1405.68	66.8581
1407.25	67.7344
1408.83	70.6323
1410.41	73.6265
1411.98	77.9365
1413.56	82.3199
1415.14	87.6461
1416.71	91.154
1418.29	96.608
1419.87	102.137
1421.44	107.207
1423.02	111.551
1424.59	116.031
1426.16	122.772
1427.74	128.479
1429.31	135.011
1430.89	140.044
1432.46	146.41
1434.03	151.461
1435.6	156.384
1437.18	160.096
1438.75	162.815
1440.32	167.486
1441.89	170.966
1443.46	171.755
1445.03	174.307
1446.6	174.685
1448.17	174.848
1449.74	175.095
1451.31	174.842
1452.88	173.622
1454.45	172.931
1456.02	172.587
1457.59	170.562
1459.16	166.22
1460.72	163.472
1462.29	160.182
1463.86	156.561
1465.43	151.767
1466.99	145.956
1468.56	139.542
1470.13	132.978
1471.69	125.943
1473.26	122.573
1474.82	116.974
1476.38	111.593
1477.95	106.702
1479.51	102.388
1481.08	98.1927
1482.64	92.8723
1484.2	89.3425
1485.77	85.8156
1487.33	84.2033
1488.89	81.8922
1490.46	79.6492
1492.02	77.0374
1493.58	74.3484
1495.14	70.9502
1496.7	69.4333
1498.26	65.4815
1499.82	64.6806
1501.38	63.2313
1502.94	61.7948
1504.5	61.4924
1506.06	61.4524
1507.62	60.5941
1509.18	60.0297
1510.73	58.7927
1512.29	56.9585
1513.85	54.1397
1515.41	53.5562
1516.96	53.4371
1518.52	53.6843
1520.08	52.2881
1521.63	52.179
1523.19	51.1645
1524.75	50.3778
1526.3	51.0338
1527.85	49.9077
1529.41	49.7992
1530.96	48.2855
1532.52	50.0983
1534.07	49.2511
1535.62	49.9367
1537.18	49.9399
1538.73	52.1034
1540.28	53.4086
1541.84	54.0028
1543.39	54.8783
1544.94	54.9702
1546.49	55.8652
1548.04	56.9009
1549.59	58.2948
1551.14	60.255
1552.69	61.4209
1554.25	61.7741
1555.79	64.7436
1557.34	64.7542
1558.89	65.4816
1560.44	67.7116
1561.99	69.0382
1563.54	69.1359
1565.08	70.8856
1566.63	71.6775
1568.18	73.8361
1569.73	74.1503
1571.27	75.9984
1572.82	77.0409
1574.37	79.5498
1575.91	81.7598
1577.46	83.7344
1579	84.3634
1580.55	87.1212
1582.09	88.6919
1583.64	90.6015
1585.18	91.9048
1586.73	93.9091
1588.27	95.4392
1589.81	96.1462
1591.35	96.845
1592.9	100.683
1594.44	101.203
1595.98	101.434
1597.52	102.301
1599.06	103.114
1600.61	103.055
1602.15	102.905
1603.69	104.5
1605.23	103.928
1606.77	104.293
1608.31	104.226
1609.85	104.573
1611.39	103.807
1612.93	103.966
1614.46	103.243
1616	103.081
1617.54	103.339
1619.08	102.255
1620.61	101.932
1622.15	100.813
1623.69	99.926
1625.23	100.601
1626.76	100.005
1628.3	98.6872
1629.83	97.3652
1631.37	96.7067
1632.9	96.2286
1634.44	94.6514
1635.97	93.5245
1637.51	93.5387
1639.04	91.7794
1640.57	92.4062
1642.11	93.4634
1643.64	94.3571
1645.17	94.0786
1646.71	93.25
1648.24	93.4063
1649.77	93.6763
1651.3	95.399
1652.83	95.1153
1654.36	94.423
1655.89	94.4432
1657.42	93.5089
1658.96	93.2754
1660.48	92.018
1662.01	91.3336
1663.54	90.6797
1665.07	87.827
1666.6	85.5022
1668.13	85.1468
1669.66	85.1089
1671.19	81.4889
1672.71	79.0484
1674.24	76.3472
1675.77	75.061
1677.29	72.1529
1678.82	68.9092
1680.35	66.6929
1681.87	61.994
1683.4	58.5955
1684.92	55.8193
1686.45	52.2628
1687.97	49.4531
1689.5	45.2443
1691.02	42.4086
1692.54	39.6388
1694.07	36.6986
1695.59	33.1856
1697.11	30.7493
1698.64	27.3471
1700.16	25.6805
1701.68	23.0612
1703.2	20.5714
1704.72	18.0312
1706.25	17.1427
1707.77	15.5885
1709.29	14.0543
1710.81	11.4963
1712.33	9.14427
1713.85	8.59213
1715.37	6.54367
1716.89	6.34341
1718.41	4.97576
1719.92	3.5794
1721.44	0.886168
1722.96	1.75168
1724.48	1.09752
1725.99	1.0948
1727.51	-0.105709
1729.03	-0.592853
1730.55	-1.49053
1732.06	-2.47275
1733.58	-1.89937
1735.09	-1.09229
1736.61	-2.79244
1738.13	-1.77693
1739.64	-2.38337
1741.15	-2.19352
1742.67	-2.12505
1744.18	-1.69395
1745.7	-1.90717
1747.21	-2.50031
1748.72	-1.67718
1750.24	-1.53558
1751.75	-0.791766
1753.26	-2.32984
1754.77	-2.33127
1756.29	-1.926
1757.8	-1.83526
1759.31	-0.876808
1760.82	0.0494944
1762.33	0.237055
1763.84	0.23361
1765.35	0.0328919
1766.86	0.655014
1768.37	1.74477
1769.88	1.24126
1771.39	1.90308
1772.9	3.13739
1774.4	3.24546
1775.91	4.13471
1777.42	4.92316
1778.93	6.58915
1780.44	6.38944
1781.94	7.46779
1783.45	8.07474
1784.96	8.03587
1786.46	7.22884
1787.97	7.43754
1789.47	7.36785
1790.98	7.24281
1792.48	6.79885
1793.99	6.64957
1795.49	6.64304
1797	6.7891
1798.5	7.58913
1800.01	6.50713
1801.51	5.8749
1803.01	5.44853
1804.51	5.55744
1806.02	4.37437
1807.52	4.36713
1809.02	5.07199
1810.52	3.66003
1812.02	3.678
1813.52	3.78401
1815.02	3.14361
1816.53	3.71901
1818.03	3.45152
1819.52	4.29115
1821.02	3.43964
1822.52	3.42246
1824.02	4.05612
1825.52	3.92611
1827.02	4.25045
1828.52	3.52299
1830.02	3.93617
1831.51	3.38754
1833.01	3.05674
1834.51	2.97201
1836.01	3.3603
1837.5	3.21177
1839	3.34256
1840.49	3.47117
1841.99	4.63456
1843.49	5.7184
1844.98	5.97311
1846.48	6.93512
1847.97	6.95583
1849.47	7.35363
1850.96	8.60837
1852.45	8.74946
1853.95	9.93267
1855.44	8.585
1856.93	8.16524
1858.42	8.0807
1859.92	7.25802
1861.41	7.56409
1862.9	7.10182
1864.39	7.01386
1865.88	7.24621
1867.38	6.77793
1868.87	6.29184
1870.36	6.77752
1871.85	6.66201
1873.34	5.7674
1874.83	5.31874
1876.32	5.85348
1877.81	6.37516
1879.29	6.83497
1880.78	7.50769
1882.27	8.02174
1882.53	8.84007
1884.03	9.48095
1885.52	10.7525
1887.01	12.1701
1888.51	12.8168
1890	13.2667
1891.5	13.6182
1892.99	13.3958
1894.48	13.3275
1895.97	14.5127
1897.47	13.9997
1898.96	12.954
1900.45	12.8519
1901.94	13.6047
1903.43	14.1349
1904.92	14.1322
1906.41	14.6538
1907.9	15.6954
1909.39	16.2174
1910.88	16.475
1912.37	16.2186
1913.86	16.6181
1915.35	17.3919
1916.84	16.0039
1918.33	15.988
1919.81	16.1174
1921.3	16.2219
1922.79	15.4732
1924.28	14.5402
1925.76	12.7186
1927.25	11.6302
1928.73	9.80043
1930.22	9.47345
1931.71	8.49771
1933.19	8.55049
1934.68	8.12085
1936.16	7.10354
1937.65	7.19017
1939.13	6.72255
1940.62	6.29959
1942.1	6.76713
1943.58	7.71791
1945.07	7.2598
1946.55	6.82857
1948.03	7.93245
1949.51	8.80302
1951	9.35145
1952.48	11.3254
1953.96	13.7365
1955.44	14.809
1956.92	16.414
1958.4	17.4799
1959.88	18.2569
1961.36	17.5138
1962.84	16.4787
1964.32	16.9207
1965.8	17.1988
1967.28	17.4127
1968.76	17.281
1970.24	17.4445
1971.72	17.2729
1973.2	17.5626
1974.67	19.0498
1976.15	19.1301
1977.63	18.3417
1979.1	17.5491
1980.58	18.5801
1982.06	18.694
1983.54	17.8295
1985.01	17.4473
1986.49	17.3669
1987.96	18.1819
1989.44	17.4962
1990.91	17.0803
1992.39	17.4656
1993.86	17.0979
1995.33	16.7394
1996.81	15.6263
1998.28	15.7288
1999.75	15.4168
2001.23	14.382
2002.7	14.7432
2004.17	13.238
2005.65	13.178
2007.12	13.7664
2008.59	12.4354
2010.06	11.4382
2011.53	11.3632
2013	10.2385
2014.47	10.6345
2015.94	9.95121
2017.41	9.37946
2018.88	8.69131
2020.35	8.14983
2021.82	9.72826
2023.29	10.4223
2024.76	11.7824
2026.23	12.8612
2027.69	12.8352
2029.16	12.3609
2030.63	12.7826
2032.1	12.6053
2033.56	12.7941
2035.03	12.5223
2036.5	13.0713
2037.96	13.6977
2039.43	14.1644
2040.89	14.5269
2042.36	13.4052
2043.83	13.4761
2045.29	14.0026
2046.75	14.725
2048.22	15.9542
2049.68	15.7857
2051.15	16.4939
2052.61	17.0457
2054.07	18.8927
2055.54	19.39
2057	20.1111
2058.46	21.8881
2059.92	22.5708
2061.39	23.3662
2062.85	22.8585
2064.31	24.4295
2065.77	24.2298
2067.23	25.1361
2068.69	25.0671
2070.15	24.2139
2071.61	24.268
2073.07	23.8195
2074.53	22.4441
2075.99	21.7588
2077.45	21.5834
2078.91	21.7231
2080.37	20.8585
2081.82	20.5122
2083.28	20.4829
2084.74	20.1319
2086.2	20.4041
2087.65	21.8485
2089.11	20.7263
2090.57	20.7412
2092.02	20.8242
2093.48	20.5517
2094.94	22.3017
2096.39	21.4936
2097.85	21.0572
2099.3	20.7466
2100.76	21.7697
2102.21	21.5845
2103.66	21.883
2105.12	21.9586
2106.57	21.7362
2108.03	21.2715
2109.48	20.325
2110.93	21.2649
2112.38	21.8526
2113.84	21.2069
2115.29	20.0197
2116.74	21.9955
2118.19	23.1757
2119.64	22.7929
2121.09	21.9203
2122.54	22.6551
2123.99	21.9472
2125.45	22.1317
2126.89	22.9797
2128.34	21.7863
2129.79	21.6315
2131.24	21.511
2132.69	19.9371
