#Acq. time (s)=	45
#Accumulations=	2
#Range (cm-¹)=	200...3150
#Windows=	2
#Auto scanning=	Off
#Autofocus=	Off
#Macrospot=	Off
#AutoExposure=	Off
#Spike filter=	Multiple accum.
#Delay time (s)=	0
#Binning=	1
#Readout mode=	Signal
#DeNoise=	Off
#ICS correction=	On
#Dark correction=	Off
#Inst. Process=	Off
#Detector Gain=	Best Dynamic Range
#Detector ADC=	20 kHz       
#Detector temperature (°C)=	-69.85
#Instrument=	LabRAM HR Evol
#Detector=	Synapse
#Objective=	x100
#Grating=	600 gr/mm
#ND Filter=	100%
#Laser (nm)=	532 
#Hole=	100.021
#Range=	Auto
#Laser Pol.=	No
#Raman. Pol.=	No
#Laser Pol. (°)=	-0.0007625
#Raman Pol. (°)=	89.9995
#Collection=	Microscope
#StageXY=	Marzhauser
#StageZ=	Marzhauser
#X (µm)=	-1008.1
#Y (µm)=	-2965
#Z (µm)=	527.8
#Full time(mm:ss)=	3:18
#Project=	
#Sample=	
#Site=	
#Title=	Mb_00_13_13_2x_45s_532 nm_x100_100%_600 gr_mm
#Remark=	
#Date=	06.07.2022 10:33
#Acquired=	06.07.2022 10:33:22
#Base:Fit=	10.08.2022 10:16:56
#Base:Sub=	10.08.2022 10:17:24
#Filter:Polynom=	16.08.2022 10:36:38
#AxisType[0]=Intens
#AxisUnit[0]=Cnt
#AxisType[1]=Spectr
#AxisUnit[1]=1/cm
200.398	41.3019
202.213	35.3129
204.027	28.9596
205.843	22.3264
207.657	16.69
209.47	12.4551
211.283	9.12274
213.097	7.50883
214.909	6.70036
216.721	8.00347
218.533	10.2048
220.344	14.1417
222.157	16.1061
223.967	20.0416
225.777	22.6774
227.587	28.0635
229.396	33.7702
231.205	39.1766
233.016	43.4181
234.824	48.6127
236.632	51.8763
238.439	54.1403
240.247	56.0504
242.053	59.3531
243.86	61.4586
245.666	64.0329
247.474	67.5774
249.279	71.4277
251.085	73.8525
252.889	76.9546
254.694	79.7684
256.498	81.9089
258.301	83.7163
260.105	83.3035
261.908	84.157
263.71	85.2621
265.513	84.7591
267.315	84.0333
269.116	80.9337
270.918	78.8214
272.718	76.7942
274.519	73.6828
276.319	70.476
278.119	66.5979
279.918	63.5038
281.718	60.4376
283.516	56.5225
285.315	51.7606
287.113	47.2248
288.911	43.1287
290.708	39.6517
292.505	34.9426
294.302	32.3992
296.098	29.868
297.894	28.303
299.69	26.3116
301.485	22.8477
303.278	20.1437
305.073	18.8924
306.867	18.4476
308.661	18.4925
310.454	17.6421
312.247	16.4193
314.04	16.7171
315.833	16.8084
317.623	17.1018
319.415	17.4094
321.206	15.8806
322.997	14.6755
324.788	14.5739
326.579	13.0463
328.367	12.2709
330.156	12.4731
331.946	12.4471
333.735	11.5197
335.523	12.725
337.31	12.2418
339.098	11.4625
340.885	10.0359
342.673	9.5043
344.458	7.5941
346.244	7.03481
348.03	7.0281
349.816	5.84353
351.6	5.59243
353.385	2.70275
355.17	1.63515
356.953	0.493203
358.737	0.830961
360.521	2.07557
362.304	2.83419
364.085	3.20069
365.868	3.87713
367.65	4.97219
369.431	6.29653
371.212	7.70768
372.994	9.82886
374.773	9.91286
376.554	11.2126
378.332	14.5835
380.112	17.8128
381.892	21.607
383.669	25.7955
385.448	28.9822
387.225	33.2713
389.003	37.2048
390.781	40.3269
392.557	46.4422
394.334	53.0156
396.109	57.7627
397.885	62.1061
399.66	65.1283
401.436	68.6966
403.211	71.8917
404.984	74.9166
406.759	77.1962
408.532	80.6032
410.306	82.1161
412.078	83.2792
413.851	83.7386
415.623	82.9004
417.395	82.9472
419.166	82.0273
420.938	80.2665
422.708	79.6026
424.477	78.5769
426.248	75.4759
428.017	72.1451
429.788	69.2636
431.556	65.7211
433.326	61.6868
435.093	57.8569
436.86	54.1912
438.629	49.1357
440.395	45.1189
442.163	41.793
443.929	40.1516
445.694	36.2509
447.461	33.2583
449.226	29.5418
450.99	25.8198
452.756	21.694
454.52	17.9994
456.285	15.7989
458.048	13.5988
459.811	10.2159
461.573	9.24204
463.337	7.04848
465.099	7.09052
466.86	9.03985
468.623	9.14599
470.384	9.40369
472.144	9.75492
473.906	11.4971
475.666	12.2481
477.425	13.4256
479.184	14.1016
480.944	16.2176
482.703	17.8526
484.461	19.6089
486.218	21.8688
487.975	22.8739
489.734	23.534
491.491	25.9549
493.247	28.4066
495.003	29.8725
496.759	31.0612
498.516	31.446
500.271	31.9563
502.025	33.5246
503.779	35.3332
505.533	36.8931
507.287	37.1951
509.042	38.7015
510.795	40.0957
512.547	41.3405
514.299	41.7133
516.051	41.7215
517.803	42.4698
519.554	43.1056
521.305	43.817
523.055	45.5162
524.805	46.2043
526.555	46.1909
528.307	47.2838
530.056	47.6971
531.805	47.2652
533.553	46.555
535.301	45.9188
537.049	44.6675
538.797	44.4402
540.544	42.8351
542.291	43.4691
544.037	44.3102
545.783	43.0091
547.529	41.1997
549.275	41.5614
551.02	40.2929
552.765	40.0861
554.509	40.0032
556.253	37.6004
557.997	36.9192
559.738	36.4899
561.482	36.9575
563.224	34.4197
564.967	33.2413
566.709	31.5217
568.451	30.6067
570.192	29.7048
571.933	27.1213
573.674	26.2247
575.415	23.7375
577.153	23.0136
578.893	22.1989
580.632	20.3887
582.371	18.6777
584.11	17.656
585.849	17.4579
587.587	16.1197
589.323	15.1735
591.06	14.7916
592.797	13.3794
594.534	12.1297
596.271	12.4704
598.005	12.3829
599.741	12.4752
601.476	11.7172
603.211	11.7355
604.944	12.6424
606.679	14.2636
608.413	14.9615
610.147	15.7169
611.878	16.5212
613.611	17.5619
615.344	18.5489
617.077	18.9447
618.807	19.313
620.539	20.4447
622.27	21.0856
623.999	23.1149
625.73	24.8491
627.461	26.5135
629.189	29.9236
630.919	31.469
632.648	32.4143
634.376	34.6566
636.105	36.7666
637.833	38.8745
639.559	41.3187
641.287	42.7487
643.013	43.8282
644.74	45.7304
646.467	46.9354
648.192	47.2424
649.918	45.9166
651.642	46.7871
653.368	47.2924
655.091	48.6619
656.816	48.8
658.538	48.5183
660.263	48.962
661.987	47.2983
663.708	46.9157
665.432	46.6152
667.153	47.22
668.875	47.5787
670.596	47.6104
672.318	47.5094
674.037	46.1687
675.759	46.0773
677.478	45.7567
679.196	45.3252
680.917	45.0735
682.635	45.534
684.355	44.835
686.072	44.0293
687.791	43.4055
689.508	44.2161
691.224	44.9368
692.942	45.1079
694.658	44.5163
696.376	43.9337
698.091	44.2146
699.805	43.324
701.522	43.1875
703.236	43.7026
704.95	43.8274
706.665	44.6469
708.379	45.499
710.093	47.0608
711.806	47.5127
713.518	48.4419
715.23	49.0169
716.943	49.8048
718.655	49.784
720.366	50.3249
722.078	50.7858
723.788	51.6861
725.498	51.3137
727.208	51.0579
728.919	50.6911
730.628	51.1957
732.337	51.579
734.045	52.8868
735.755	52.3371
737.463	52.1718
739.17	51.6645
740.877	52.5268
742.584	53.4933
744.292	55.482
745.998	56.5884
747.704	57.6329
749.409	60.2629
751.114	62.1045
752.819	64.0427
754.526	65.1072
756.23	66.9932
757.934	67.4986
759.637	70.0995
761.34	71.1012
763.043	72.6436
764.746	73.4631
766.448	75.0105
768.152	76.4446
769.853	78.5979
771.554	80.7794
773.255	82.6219
774.956	85.672
776.656	87.0086
778.356	86.7973
780.056	88.7236
781.755	89.684
783.454	91.275
785.153	92.0783
786.851	93.2946
788.549	94.3997
790.247	94.6049
791.944	95.4971
793.641	96.4798
795.338	96.289
797.034	96.0799
798.73	94.8127
800.426	94.8339
802.121	94.2954
803.817	93.2215
805.511	92.0202
807.206	90.7627
808.9	89.6345
810.592	89.0091
812.286	88.0944
813.979	87.421
815.672	86.3215
817.364	85.5476
819.057	84.6343
820.748	82.9465
822.44	83.0561
824.129	83.4846
825.82	83.7884
827.511	83.3822
829.201	81.9406
830.891	80.127
832.581	77.5439
834.269	77.4696
835.958	76.6683
837.646	74.7811
839.335	72.8403
841.023	72.1338
842.709	70.5127
844.396	69.5631
846.084	66.7957
847.77	65.4259
849.455	64.8112
851.141	64.8094
852.827	63.3598
854.513	63.0274
856.196	61.9624
857.881	59.617
859.566	59.249
861.248	58.1371
862.932	57.3283
864.616	57.8763
866.297	57.1267
867.98	57.7624
869.663	56.9525
871.343	55.6124
873.026	55.04
874.707	54.55
876.387	53.1919
878.068	53.3591
879.747	52.2275
881.428	51.6338
883.108	50.4773
884.786	49.9129
886.465	48.5692
888.143	47.9406
889.822	46.6486
891.498	46.6801
893.177	47.2314
894.855	46.766
896.53	45.577
898.208	45.8899
899.883	44.7984
901.56	44.8822
903.234	44.0442
904.91	43.7961
906.584	42.6035
908.26	41.4099
909.933	40.254
911.608	38.1504
913.28	36.5745
914.955	36.6561
916.627	34.6785
918.298	35.9181
919.972	35.2622
921.643	34.0257
923.315	33.4388
924.986	32.3527
926.656	32.352
928.328	31.4602
929.997	30.7779
931.668	29.4818
933.337	29.158
935.006	28.8535
936.676	28.1146
938.344	27.5581
940.012	26.4251
941.681	25.6546
943.348	25.6464
945.014	25.7544
946.683	25.1753
948.349	25.1413
950.015	25.472
951.682	25.5408
953.347	24.3217
955.012	23.8586
956.676	24.2234
958.343	24.3133
960.006	23.7788
961.67	26.477
963.333	26.7304
964.998	27.7173
966.661	29.7787
968.323	31.5495
969.985	34.0843
971.649	37.0077
973.31	39.5146
974.971	42.0495
976.632	44.4529
978.293	45.7222
979.953	47.8687
981.615	49.5183
983.274	50.4301
984.933	51.9896
986.592	53.6464
988.251	54.3706
989.909	55.2998
991.567	56.8476
993.225	57.2054
994.884	57.4984
996.541	58.743
998.198	58.9443
999.855	58.5882
1001.51	59.6986
1003.17	59.004
1004.82	57.1105
1006.48	55.2435
1008.13	54.9577
1009.79	54.5915
1011.44	52.9875
1013.1	51.8732
1014.75	51.0847
1016.4	52.4317
1018.06	53.7615
1019.71	54.9228
1021.36	57.1973
1023.01	58.9036
1024.66	62.0649
1026.32	65.1457
1027.97	68.8334
1029.62	70.6555
1031.27	73.1465
1032.92	74.7055
1034.57	76.2533
1036.22	76.5347
1037.87	77.4761
1039.52	78.8765
1041.16	80.7626
1042.81	81.7012
1044.46	83.427
1046.11	82.8937
1047.76	84.08
1049.4	84.7105
1051.05	83.895
1052.7	83.8414
1054.34	83.5961
1055.99	82.5893
1057.63	81.8452
1059.28	80.3424
1060.92	78.2673
1062.57	76.6999
1064.21	74.2393
1065.85	72.4004
1067.5	69.5246
1069.14	66.8794
1070.78	63.3257
1072.43	59.8685
1074.07	56.0153
1075.71	51.1724
1077.35	46.6196
1078.99	41.9357
1080.63	36.5398
1082.27	32.7807
1083.91	29.5365
1085.55	25.6327
1087.19	20.9857
1088.83	19.0498
1090.47	17.127
1092.11	14.549
1093.75	12.1815
1095.39	11.3942
1097.03	12.1558
1098.66	13.0802
1100.3	13.6814
1101.94	13.8128
1103.57	14.6724
1105.21	13.8005
1106.84	14.7474
1108.48	13.4504
1110.11	11.5765
1111.75	9.72
1113.38	9.6808
1115.02	7.07525
1116.65	6.35647
1118.29	5.21798
1119.92	4.70869
1121.55	3.94815
1123.19	3.56062
1124.82	2.8531
1126.45	2.75487
1128.08	2.81816
1129.71	3.40837
1131.34	1.53666
1132.97	1.93982
1134.6	2.15966
1136.23	1.43561
1137.86	2.46202
1139.49	2.15772
1141.12	1.95444
1142.75	2.8176
1144.38	3.39667
1146.01	4.64403
1147.64	4.61904
1149.26	4.13992
1150.89	4.76345
1152.52	5.08224
1154.15	4.50928
1155.77	4.45751
1157.4	3.60597
1159.02	3.91185
1160.65	4.349
1162.27	4.40718
1163.9	5.01883
1165.52	5.53533
1167.15	4.60579
1168.77	4.62944
1170.39	6.09217
1172.02	6.38741
1173.64	7.66287
1175.26	7.71796
1176.89	9.67667
1178.51	10.5968
1180.13	11.5166
1181.75	12.4143
1183.37	12.9463
1184.99	14.7764
1186.61	15.2815
1188.23	16.2699
1189.85	16.1512
1191.47	17.3872
1193.09	19.994
1194.71	21.5355
1196.33	22.8023
1197.94	24.6762
1199.56	26.0817
1201.18	28.3073
1202.8	30.4402
1204.41	31.5507
1206.03	31.9749
1207.65	33.2422
1209.26	34.7421
1210.88	36.035
1212.49	37.2762
1214.11	40.0819
1215.72	41.2568
1217.34	43.121
1218.95	45.339
1220.57	46.7271
1222.18	48.6841
1223.79	50.9147
1225.41	52.7896
1227.02	54.3596
1228.63	54.1681
1230.24	55.0062
1231.85	56.0397
1233.47	57.4565
1235.08	57.3341
1236.69	58.0633
1238.3	59.3412
1239.91	59.9852
1241.52	59.6906
1243.13	59.6674
1244.74	59.7091
1246.34	61.4007
1247.95	61.1333
1249.56	60.6693
1251.17	60.4627
1252.78	59.9289
1254.38	59.744
1255.99	58.1347
1257.6	58.8109
1259.2	58.7242
1260.81	58.9466
1262.42	58.5826
1264.02	57.9346
1265.63	57.0407
1267.23	56.1725
1268.84	56.1428
1270.44	55.4718
1272.04	55.7008
1273.65	56.6624
1275.25	55.8528
1276.85	56.5105
1278.46	55.6374
1280.06	57.1638
1281.66	58.0006
1283.26	57.1974
1284.86	56.2978
1286.46	58.179
1288.07	59.6906
1289.67	60.1613
1291.27	61.4288
1292.87	63.0486
1294.47	62.7295
1296.06	64.5383
1297.66	66.1926
1299.26	69.0754
1300.86	71.8883
1302.46	73.9516
1304.06	76.1686
1305.65	78.068
1307.25	79.5261
1308.85	81.1418
1310.44	83.2692
1312.04	85.6409
1313.64	87.4744
1315.23	87.0473
1316.83	87.8285
1318.42	88.1384
1320.02	87.9856
1321.61	88.1148
1323.2	88.6002
1324.8	88.3303
1326.39	88.2832
1327.99	86.9329
1329.58	87.2743
1331.17	87.6734
1332.76	87.4756
1334.36	87.5121
1335.95	86.5561
1337.54	87.098
1339.13	86.7103
1340.72	85.7646
1342.31	84.2889
1343.9	82.5422
1345.49	81.9771
1347.08	81.9437
1348.67	81.7747
1350.26	80.5106
1351.85	79.5299
1353.43	78.5715
1355.02	77.3347
1356.61	75.9507
1358.2	74.9205
1359.78	74.785
1361.37	73.1863
1362.96	71.7731
1364.54	70.1402
1366.13	69.2683
1367.71	67.4087
1369.3	67.2074
1370.88	67.4773
1372.47	66.7285
1374.05	66.9343
1375.64	67.028
1377.22	66.0506
1378.8	65.8583
1380.39	64.5748
1381.97	63.7494
1383.55	63.9146
1385.13	62.7698
1386.72	63.2034
1388.3	62.8766
1389.88	62.4468
1391.46	61.2278
1393.04	59.1818
1394.62	56.9452
1396.2	55.6198
1397.78	55.3831
1399.36	54.7451
1400.94	53.9512
1402.52	53.8565
1404.1	54.6192
1405.68	54.9322
1407.25	55.7814
1408.83	57.0024
1410.41	57.4323
1411.98	59.1965
1413.56	62.3192
1415.14	64.6346
1416.71	67.3568
1418.29	69.9976
1419.87	70.94
1421.44	72.5242
1423.02	75.6991
1424.59	78.7388
1426.16	81.8435
1427.74	85.5317
1429.31	87.4778
1430.89	88.9601
1432.46	92.017
1434.03	94.8593
1435.6	96.584
1437.18	99.7945
1438.75	102.082
1440.32	102.289
1441.89	102.728
1443.46	103.09
1445.03	104.305
1446.6	106.019
1448.17	107.33
1449.74	107.723
1451.31	107.811
1452.88	108.198
1454.45	105.839
1456.02	105.168
1457.59	104.146
1459.16	102.651
1460.72	100.504
1462.29	98.1524
1463.86	94.4506
1465.43	92.6033
1466.99	88.7841
1468.56	84.9291
1470.13	80.1
1471.69	76.451
1473.26	73.2107
1474.82	70.6287
1476.38	68.4771
1477.95	64.8172
1479.51	62.852
1481.08	59.3589
1482.64	57.8047
1484.2	54.5206
1485.77	53.366
1487.33	52.2687
1488.89	50.4468
1490.46	49.7161
1492.02	48.4606
1493.58	46.5042
1495.14	44.4921
1496.7	43.5407
1498.26	41.179
1499.82	41.0225
1501.38	41.1332
1502.94	40.2643
1504.5	40.3832
1506.06	39.4838
1507.62	38.5797
1509.18	38.9969
1510.73	39.4091
1512.29	38.8435
1513.85	37.7813
1515.41	37.363
1516.96	36.3993
1518.52	35.6826
1520.08	35.4397
1521.63	35.6244
1523.19	36.3933
1524.75	36.0701
1526.3	35.4626
1527.85	35.9002
1529.41	35.6618
1530.96	35.2461
1532.52	34.6527
1534.07	34.392
1535.62	34.935
1537.18	35.0254
1538.73	34.6567
1540.28	34.6859
1541.84	35.5953
1543.39	36.5512
1544.94	37.466
1546.49	38.7052
1548.04	40.0075
1549.59	42.1724
1551.14	43.2913
1552.69	45.3006
1554.25	47.0523
1555.79	49.4013
1557.34	51.0428
1558.89	51.5031
1560.44	54.2307
1561.99	55.0555
1563.54	57.2306
1565.08	58.8177
1566.63	59.482
1568.18	60.6559
1569.73	60.7062
1571.27	62.8924
1572.82	63.9603
1574.37	66.096
1575.91	66.4111
1577.46	67.9595
1579	70.0491
1580.55	72.2001
1582.09	73.3014
1583.64	74.3029
1585.18	75.7032
1586.73	74.9473
1588.27	74.5128
1589.81	74.3559
1591.35	74.7182
1592.9	74.8543
1594.44	75.867
1595.98	74.5112
1597.52	72.7952
1599.06	72.9432
1600.61	71.848
1602.15	69.752
1603.69	69.4239
1605.23	69.1038
1606.77	68.7269
1608.31	68.3319
1609.85	67.8511
1611.39	66.5993
1612.93	65.9964
1614.46	64.6191
1616	64.4901
1617.54	64.566
1619.08	64.9381
1620.61	65.0901
1622.15	65.4231
1623.69	66.1849
1625.23	66.2354
1626.76	66.9253
1628.3	67.227
1629.83	68.2693
1631.37	69.0464
1632.9	68.9405
1634.44	68.9425
1635.97	70.0176
1637.51	71.443
1639.04	72.392
1640.57	73.7195
1642.11	74.3566
1643.64	75.4752
1645.17	77.2509
1646.71	78.6368
1648.24	81.3497
1649.77	82.0038
1651.3	83.1905
1652.83	83.5567
1654.36	85.5215
1655.89	87.177
1657.42	87.0359
1658.96	86.8121
1660.48	88.0691
1662.01	87.3239
1663.54	86.4317
1665.07	86.7616
1666.6	85.513
1668.13	84.6144
1669.66	82.1596
1671.19	80.8609
1672.71	77.1054
1674.24	76.0858
1675.77	74.9154
1677.29	71.7232
1678.82	70.4251
1680.35	68.9089
1681.87	66.9171
1683.4	64.0915
1684.92	60.1865
1686.45	57.7217
1687.97	53.2467
1689.5	50.7121
1691.02	47.4141
1692.54	44.4281
1694.07	40.4594
1695.59	36.9408
1697.11	34.7747
1698.64	32.3766
1700.16	30.9174
1701.68	27.8107
1703.2	26.3153
1704.72	23.8327
1706.25	22.6572
1707.77	20.7235
1709.29	19.435
1710.81	19.1227
1712.33	18.111
1713.85	16.9176
1715.37	14.7222
1716.89	14.0237
1718.41	13.2542
1719.92	13.434
1721.44	12.496
1722.96	11.8149
1724.48	11.2142
1725.99	10.9393
1727.51	10.7966
1729.03	10.7303
1730.55	11.7254
1732.06	12.0536
1733.58	11.4936
1735.09	11.8926
1736.61	11.881
1738.13	11.2915
1739.64	11.2332
1741.15	11.6023
1742.67	11.7437
1744.18	12.277
1745.7	12.2047
1747.21	13.1929
1748.72	12.7909
1750.24	13.2405
1751.75	12.9521
1753.26	12.2483
1754.77	12.4868
1756.29	11.2953
1757.8	6.97606
1759.31	5.7598
1760.82	6.44372
1762.33	7.2218
1763.84	6.97097
1765.35	8.18026
1766.86	8.01473
1768.37	8.54969
1769.88	9.42234
1771.39	10.4316
1772.9	11.7853
1774.4	12.0304
1775.91	12.4058
1777.42	12.067
1778.93	13.1871
1780.44	13.9021
1781.94	14.0239
1783.45	13.8183
1784.96	15.24
1786.46	15.7983
1787.97	16.1453
1789.47	15.6551
1790.98	15.1382
1792.48	16.4241
1793.99	16.109
1795.49	16.7289
1797	16.4774
1798.5	16.6941
1800.01	16.5949
1801.51	16.5678
1803.01	16.8692
1804.51	16.4589
1806.02	16.882
1807.52	15.6057
1809.02	14.85
1810.52	14.6425
1812.02	14.0186
1813.52	13.4436
1815.02	12.6723
1816.53	12.1544
1818.03	12.0431
1819.52	11.4904
1821.02	10.6021
1822.52	9.3064
1824.02	7.93029
1825.52	7.04657
1827.02	6.78036
1828.52	5.62165
1830.02	4.97207
1831.51	3.93563
1833.01	3.81376
1834.51	6.62283
1836.01	7.53377
1837.5	7.33047
1839	7.05221
1840.49	7.38324
1841.99	7.54426
1843.49	7.75504
1844.98	8.77921
1846.48	9.67405
1847.97	10.0332
1849.47	10.6873
1850.96	9.88755
1852.45	9.18984
1853.95	8.59857
1855.44	8.69757
1856.93	7.93784
1858.42	8.22295
1859.92	8.08821
1861.41	7.21224
1862.9	6.02617
1864.39	5.43555
1865.88	4.94616
1867.38	4.89483
1868.87	3.72252
1870.36	4.12441
1871.85	3.51578
1873.34	3.11099
1874.83	3.0328
1876.32	2.98383
1877.81	3.43213
1879.29	2.48005
1880.78	1.62954
1882.27	1.55479
1882.53	1.91314
1884.03	0.613421
1885.52	0.172161
1887.01	1.69415
1888.51	2.38032
1890	1.83444
1891.5	2.98728
1892.99	2.90431
1894.48	2.58849
1895.97	2.81691
1897.47	3.19956
1898.96	4.03862
1900.45	4.82793
1901.94	5.24658
1903.43	5.87992
1904.92	5.81628
1906.41	5.73619
1907.9	6.75968
1909.39	8.038
1910.88	8.52242
1912.37	9.12466
1913.86	9.58408
1915.35	9.83239
1916.84	9.81209
1918.33	11.3743
1919.81	10.9422
1921.3	9.4817
1922.79	9.07679
1924.28	7.54455
1925.76	8.02056
1927.25	8.76451
1928.73	8.58253
1930.22	8.63335
1931.71	9.29814
1933.19	9.22615
1934.68	9.38564
1936.16	8.27261
1937.65	9.24347
1939.13	7.99615
1940.62	8.5206
1942.1	9.12957
1943.58	9.66565
1945.07	8.91603
1946.55	9.31131
1948.03	9.1773
1949.51	9.43397
1951	9.85471
1952.48	10.2158
1953.96	11.376
1955.44	11.5554
1956.92	10.8782
1958.4	9.58604
1959.88	10.7032
1961.36	11.6553
1962.84	11.3127
1964.32	10.9489
1965.8	11.3606
1967.28	10.8963
1968.76	9.50286
1970.24	9.18647
1971.72	9.08531
1973.2	10.0889
1974.67	9.04885
1976.15	8.74819
1977.63	9.22799
1979.1	9.19889
1980.58	8.89113
1982.06	8.84247
1983.54	7.37038
1985.01	6.29984
1986.49	5.32348
1987.96	5.22024
1989.44	5.42431
1990.91	6.31465
1992.39	6.89032
1993.86	6.38258
1995.33	6.7939
1996.81	7.32429
1998.28	6.70934
1999.75	7.37479
2001.23	6.83117
2002.7	6.52708
2004.17	7.32072
2005.65	7.19003
2007.12	5.93994
2008.59	6.11101
2010.06	5.95232
2011.53	7.52173
2013	7.36602
2014.47	7.70866
2015.94	7.61626
2017.41	7.44897
2018.88	8.13592
2020.35	9.92982
2021.82	9.70091
2023.29	10.3396
2024.76	10.7264
2026.23	10.6334
2027.69	10.25
2029.16	8.84382
2030.63	9.69509
2032.1	8.99679
2033.56	9.7834
2035.03	10.6578
2036.5	11.4551
2037.96	10.7679
2039.43	11.0468
2040.89	10.4642
2042.36	10.3484
2043.83	11.4742
2045.29	12.3021
2046.75	12.6267
2048.22	11.8688
2049.68	13.2189
2051.15	13.7965
2052.61	12.2742
2054.07	11.9524
2055.54	11.6725
2057	12.2706
2058.46	12.7004
2059.92	13.504
2061.39	14.4376
2062.85	15.2033
2064.31	14.7888
2065.77	14.3623
2067.23	14.9155
2068.69	14.2878
2070.15	13.207
2071.61	12.7253
2073.07	13.4228
2074.53	12.6534
2075.99	13.3048
2077.45	13.6539
2078.91	13.1189
2080.37	12.7935
2081.82	13.6296
2083.28	13.9487
2084.74	13.567
2086.2	14.3968
2087.65	13.7591
2089.11	14.2806
2090.57	14.5797
2092.02	14.5769
2093.48	15.4919
2094.94	14.4531
2096.39	14.6118
2097.85	15.3138
2099.3	15.673
2100.76	16.1871
2102.21	16.0879
2103.66	16.8843
2105.12	16.0052
2106.57	16.1196
2108.03	16.0456
2109.48	15.1928
2110.93	14.7526
2112.38	14.2259
2113.84	13.6348
2115.29	13.8035
2116.74	12.7522
2118.19	11.8453
2119.64	11.6218
2121.09	12.0436
2122.54	12.0016
2123.99	10.7735
2125.45	10.767
2126.89	10.2818
2128.34	9.83406
2129.79	9.72539
2131.24	9.69792
2132.69	9.97706
2134.14	9.02571
2135.59	9.40071
