#Acq. time (s)=	45
#Accumulations=	2
#Range (cm-¹)=	200...3150
#Windows=	2
#Auto scanning=	Off
#Autofocus=	Off
#Macrospot=	Off
#AutoExposure=	Off
#Spike filter=	Multiple accum.
#Delay time (s)=	0
#Binning=	1
#Readout mode=	Signal
#DeNoise=	Off
#ICS correction=	On
#Dark correction=	Off
#Inst. Process=	Off
#Detector Gain=	Best Dynamic Range
#Detector ADC=	20 kHz       
#Detector temperature (°C)=	-69.85
#Instrument=	LabRAM HR Evol
#Detector=	Synapse
#Objective=	x100
#Grating=	600 gr/mm
#ND Filter=	100%
#Laser (nm)=	532 
#Hole=	100.021
#Range=	Auto
#Laser Pol.=	No
#Raman. Pol.=	No
#Laser Pol. (°)=	-0.0007625
#Raman Pol. (°)=	89.9995
#Collection=	Microscope
#StageXY=	Marzhauser
#StageZ=	Marzhauser
#X (µm)=	-1056.9
#Y (µm)=	-2874.6
#Z (µm)=	528.35
#Full time(mm:ss)=	3:18
#Project=	
#Sample=	
#Site=	
#Title=	Mb_00_13_48_2x_45s_532 nm_x100_100%_600 gr_mm
#Remark=	
#Date=	06.07.2022 13:39
#Acquired=	06.07.2022 13:39:38
#Base:Fit=	10.08.2022 10:16:56
#Base:Sub=	10.08.2022 10:17:24
#Filter:Polynom=	16.08.2022 10:36:38
#AxisType[0]=Intens
#AxisUnit[0]=Cnt
#AxisType[1]=Spectr
#AxisUnit[1]=1/cm
200.398	20.5047
202.213	13.0428
204.027	6.49106
205.843	0.892133
207.657	-3.08526
209.47	-6.7393
211.283	-8.41665
213.097	-8.11164
214.909	-7.05984
216.721	-3.14972
218.533	1.89137
220.344	9.91788
222.157	18.0811
223.967	27.8591
225.777	37.9197
227.587	47.6546
229.396	59.4778
231.205	70.0156
233.016	80.9638
234.824	90.3713
236.632	100.685
238.439	107.315
240.247	115.18
242.053	121.748
243.86	128.864
245.666	133.87
247.474	140.957
249.279	146.367
251.085	152.346
252.889	156.6
254.694	160.034
256.498	162.392
258.301	163.791
260.105	163.741
261.908	164.133
263.71	164.727
265.513	162.892
267.315	160.772
269.116	156.791
270.918	153.377
272.718	148.846
274.519	142.481
276.319	135.922
278.119	130.273
279.918	121.912
281.718	113.846
283.516	103.083
285.315	92.8462
287.113	85.1558
288.911	77.6032
290.708	71.0725
292.505	62.9993
294.302	55.6317
296.098	49.3066
297.894	42.656
299.69	39.3028
301.485	36.1388
303.278	33.098
305.073	30.9503
306.867	30.2914
308.661	29.1942
310.454	29.519
312.247	29.5435
314.04	30.2736
315.833	30.9038
317.623	31.3329
319.415	32.6084
321.206	33.047
322.997	31.9671
324.788	31.1898
326.579	32.0887
328.367	30.3057
330.156	30.9498
331.946	29.1609
333.735	28.0428
335.523	25.7915
337.31	24.7371
339.098	23.1711
340.885	22.6606
342.673	21.3355
344.458	19.3176
346.244	17.5239
348.03	16.6633
349.816	15.346
351.6	15.232
353.385	14.0075
355.17	12.3479
356.953	10.2379
358.737	9.93642
360.521	10.2714
362.304	11.2717
364.085	13.1686
365.868	15.5988
367.65	19.6117
369.431	21.8326
371.212	26.1002
372.994	29.6116
374.773	34.9481
376.554	40.7682
378.332	46.1329
380.112	52.5133
381.892	59.3316
383.669	69.1474
385.448	80.2859
387.225	91.158
389.003	102.556
390.781	113.89
392.557	123.625
394.334	133.211
396.109	142.18
397.885	151.348
399.66	158.909
401.436	165.259
403.211	170.369
404.984	174.474
406.759	177.307
408.532	179.767
410.306	180.751
412.078	181.048
413.851	181.995
415.623	180.894
417.395	177.918
419.166	174.738
420.938	170.627
422.708	166.814
424.477	162.046
426.248	156.244
428.017	148.997
429.788	141.28
431.556	133.666
433.326	125.074
435.093	115.71
436.86	105.981
438.629	96.9672
440.395	87.7364
442.163	77.9792
443.929	68.2613
445.694	59.6376
447.461	51.0146
449.226	44.3891
450.99	37.9156
452.756	32.5741
454.52	26.9654
456.285	21.8112
458.048	15.5119
459.811	10.8057
461.573	7.76432
463.337	5.96879
465.099	4.55016
466.86	5.45603
468.623	6.12299
470.384	7.61137
472.144	10.9682
473.906	11.6872
475.666	11.797
477.425	13.0519
479.184	13.9081
480.944	14.5889
482.703	16.1276
484.461	17.9684
486.218	19.5818
487.975	20.5246
489.734	22.9833
491.491	26.0645
493.247	28.5316
495.003	31.1292
496.759	34.085
498.516	36.4032
500.271	39.3038
502.025	41.1529
503.779	43.2832
505.533	46.0229
507.287	47.6378
509.042	50.2925
510.795	52.4261
512.547	54.8331
514.299	57.5125
516.051	59.2786
517.803	60.7503
519.554	62.44
521.305	63.6084
523.055	63.9855
524.805	64.553
526.555	65.9542
528.307	66.2425
530.056	64.6002
531.805	63.5784
533.553	63.246
535.301	63.7612
537.049	64.3
538.797	62.7016
540.544	62.4232
542.291	60.7211
544.037	58.698
545.783	57.1324
547.529	55.5073
549.275	54.0159
551.02	51.3675
552.765	48.3028
554.509	45.3011
556.253	42.9842
557.997	40.5364
559.738	39.0141
561.482	34.9403
563.224	33.4113
564.967	33.7022
566.709	32.2422
568.451	30.8155
570.192	29.5733
571.933	28.8366
573.674	27.364
575.415	26.06
577.153	24.6615
578.893	23.6835
580.632	23.6623
582.371	23.518
584.11	23.4131
585.849	23.245
587.587	22.4692
589.323	22.1875
591.06	22.0573
592.797	21.5462
594.534	20.9302
596.271	21.2554
598.005	20.2424
599.741	20.3626
601.476	20.086
603.211	19.3265
604.944	19.0844
606.679	19.5446
608.413	21.0823
610.147	21.09
611.878	21.2601
613.611	21.1449
615.344	20.7826
617.077	19.8781
618.807	20.3849
620.539	20.9834
622.27	21.4576
623.999	21.0649
625.73	21.5949
627.461	23.0906
629.189	24.3252
630.919	26.1264
632.648	27.4348
634.376	30.2046
636.105	32.9178
637.833	34.9814
639.559	38.1478
641.287	39.4844
643.013	41.0437
644.74	42.1602
646.467	43.9865
648.192	43.902
649.918	46.7741
651.642	48.5458
653.368	47.9721
655.091	47.0407
656.816	47.2172
658.538	47.0127
660.263	45.6196
661.987	44.6651
663.708	43.9926
665.432	44.1901
667.153	43.8289
668.875	42.1932
670.596	40.6259
672.318	38.546
674.037	35.5622
675.759	34.3309
677.478	32.2852
679.196	28.8356
680.917	25.5491
682.635	23.3923
684.355	20.805
686.072	18.6343
687.791	17.8319
689.508	16.2039
691.224	16.3438
692.942	14.8758
694.658	14.0723
696.376	11.2224
698.091	8.88189
699.805	6.31775
701.522	4.53457
703.236	3.51109
704.95	1.95529
706.665	1.58607
708.379	0.49477
710.093	1.46217
711.806	1.14301
713.518	2.11887
715.23	4.36124
716.943	5.12593
718.655	6.16558
720.366	7.89059
722.078	9.84215
723.788	10.7918
725.498	12.2239
727.208	12.7309
728.919	14.5316
730.628	15.7988
732.337	17.8191
734.045	18.1971
735.755	19.8513
737.463	20.6898
739.17	22.5107
740.877	24.6649
742.584	26.1619
744.292	27.6792
745.998	29.8312
747.704	32.76
749.409	35.5864
751.114	38.2159
752.819	40.4953
754.526	42.6912
756.23	43.6009
757.934	45.9556
759.637	46.8536
761.34	48.3537
763.043	48.8005
764.746	50.5464
766.448	51.3467
768.152	54.0792
769.853	55.8206
771.554	57.5429
773.255	60.168
774.956	61.5307
776.656	62.3508
778.356	62.798
780.056	63.984
781.755	62.1655
783.454	62.7723
785.153	64.3004
786.851	64.5914
788.549	64.8183
790.247	63.7324
791.944	63.7893
793.641	63.4202
795.338	64.1208
797.034	63.7965
798.73	66.6534
800.426	67.5448
802.121	66.7265
803.817	67.2706
805.511	66.6586
807.206	67.0424
808.9	65.5302
810.592	64.3656
812.286	63.6223
813.979	63.0303
815.672	62.8987
817.364	63.0415
819.057	61.1368
820.748	60.939
822.44	61.2863
824.129	62.1113
825.82	61.263
827.511	60.0824
829.201	60.7786
830.891	60.4691
832.581	60.1028
834.269	59.0519
835.958	57.4323
837.646	55.6681
839.335	54.3079
841.023	52.644
842.709	51.5399
844.396	48.1264
846.084	45.8014
847.77	44.1292
849.455	43.1512
851.141	40.8976
852.827	40.8319
854.513	38.7244
856.196	37.3925
857.881	35.938
859.566	33.8134
861.248	31.0461
862.932	30.7009
864.616	28.2634
866.297	26.0691
867.98	27.6762
869.663	26.0452
871.343	23.5174
873.026	22.5806
874.707	21.4662
876.387	22.2131
878.068	22.4422
879.747	21.7441
881.428	21.6013
883.108	22.334
884.786	19.6722
886.465	17.8598
888.143	17.0425
889.822	15.3666
891.498	15.1931
893.177	14.9425
894.855	15.9669
896.53	16.8975
898.208	18.0379
899.883	17.0845
901.56	16.4036
903.234	16.3331
904.91	19.2469
906.584	20.8401
908.26	21.1158
909.933	21.9704
911.608	23.5751
913.28	24.3035
914.955	24.9704
916.627	26.0439
918.298	27.0814
919.972	27.5706
921.643	28.639
923.315	29.9438
924.986	29.999
926.656	30.0354
928.328	30.2239
929.997	30.5765
931.668	31.9928
933.337	30.6015
935.006	29.7945
936.676	29.7953
938.344	28.8491
940.012	28.2905
941.681	26.169
943.348	24.4403
945.014	24.0414
946.683	23.4539
948.349	21.6352
950.015	21.3467
951.682	21.0352
953.347	18.3712
955.012	16.2271
956.676	14.6821
958.343	11.4947
960.006	10.3087
961.67	9.12171
963.333	7.51448
964.998	7.77556
966.661	8.36342
968.323	7.58364
969.985	8.64266
971.649	9.5863
973.31	11.1074
974.971	11.9013
976.632	13.3898
978.293	13.8428
979.953	13.7229
981.615	14.0539
983.274	15.2224
984.933	16.944
986.592	18.1819
988.251	18.8223
989.909	19.0749
991.567	20.5997
993.225	23.5731
994.884	25.7278
996.541	26.9861
998.198	28.729
999.855	31.7795
1001.51	35.384
1003.17	37.7038
1004.82	40.3582
1006.48	42.2266
1008.13	42.8473
1009.79	42.6819
1011.44	43.6933
1013.1	45.0203
1014.75	47.8063
1016.4	49.6057
1018.06	54.9483
1019.71	61.6319
1021.36	67.4681
1023.01	76.0444
1024.66	85.0305
1026.32	93.8175
1027.97	102.121
1029.62	110.188
1031.27	118.729
1032.92	126.375
1034.57	132.389
1036.22	137.436
1037.87	143.646
1039.52	149.528
1041.16	153.357
1042.81	159.262
1044.46	163.131
1046.11	166.774
1047.76	169.601
1049.4	172.031
1051.05	172.441
1052.7	172.359
1054.34	171.12
1055.99	168.882
1057.63	165.702
1059.28	163.296
1060.92	157.688
1062.57	152.919
1064.21	148.048
1065.85	142.355
1067.5	135.71
1069.14	129.681
1070.78	123.855
1072.43	117.839
1074.07	110.671
1075.71	102.911
1077.35	94.0308
1078.99	84.8837
1080.63	76.7054
1082.27	69.1185
1083.91	61.1882
1085.55	51.5327
1087.19	42.6282
1088.83	33.7389
1090.47	26.0715
1092.11	19.5752
1093.75	16.8671
1095.39	15.0518
1097.03	14.7038
1098.66	14.8056
1100.3	16.7061
1101.94	18.7089
1103.57	19.328
1105.21	20.4783
1106.84	20.0839
1108.48	18.7014
1110.11	17.9188
1111.75	17.0716
1113.38	17.1418
1115.02	16.5651
1116.65	16.7781
1118.29	15.2653
1119.92	15.3125
1121.55	14.193
1123.19	12.3862
1124.82	12.1348
1126.45	11.5451
1128.08	11.6298
1129.71	11.8147
1131.34	12.542
1132.97	11.5978
1134.6	10.6479
1136.23	9.37137
1137.86	9.69995
1139.49	9.7055
1141.12	8.65434
1142.75	7.97825
1144.38	7.71244
1146.01	7.70357
1147.64	6.8394
1149.26	6.7824
1150.89	6.76661
1152.52	5.62252
1154.15	4.8501
1155.77	4.11577
1157.4	2.89329
1159.02	2.06866
1160.65	1.60265
1162.27	1.36696
1163.9	1.25555
1165.52	1.96763
1167.15	2.24832
1168.77	3.41788
1170.39	5.28945
1172.02	7.19147
1173.64	8.69111
1175.26	12.1717
1176.89	13.9535
1178.51	15.9383
1180.13	18.3919
1181.75	20.1735
1183.37	22.2914
1184.99	23.353
1186.61	24.5158
1188.23	27.2523
1189.85	29.0172
1191.47	31.4291
1193.09	34.2655
1194.71	38.0078
1196.33	40.2617
1197.94	41.7075
1199.56	43.1012
1201.18	47.3233
1202.8	50.0282
1204.41	51.3182
1206.03	55.0451
1207.65	58.1293
1209.26	61.0725
1210.88	63.7567
1212.49	65.477
1214.11	67.7492
1215.72	70.3803
1217.34	73.7081
1218.95	77.2059
1220.57	78.6301
1222.18	80.0114
1223.79	81.5301
1225.41	81.9318
1227.02	84.7306
1228.63	85.3388
1230.24	87.458
1231.85	89.4107
1233.47	89.108
1235.08	90.7174
1236.69	90.905
1238.3	90.9194
1239.91	91.7839
1241.52	91.7555
1243.13	93.1182
1244.74	93.5037
1246.34	94.4418
1247.95	95.2334
1249.56	96.2612
1251.17	96.5679
1252.78	95.6001
1254.38	95.2261
1255.99	96.4697
1257.6	96.1342
1259.2	96.0195
1260.81	95.6561
1262.42	94.0157
1264.02	92.3667
1265.63	91.3064
1267.23	90.9235
1268.84	91.6685
1270.44	91.7026
1272.04	91.2633
1273.65	91.8691
1275.25	92.6402
1276.85	92.1144
1278.46	92.6738
1280.06	93.6884
1281.66	95.537
1283.26	95.3125
1284.86	95.2708
1286.46	96.7679
1288.07	97.9712
1289.67	100.165
1291.27	100.589
1292.87	102.182
1294.47	103.849
1296.06	105.902
1297.66	108.128
1299.26	110.253
1300.86	112.518
1302.46	114.886
1304.06	116.496
1305.65	117.96
1307.25	120.852
1308.85	121.126
1310.44	122.785
1312.04	124.204
1313.64	125.296
1315.23	126.516
1316.83	127.439
1318.42	126.694
1320.02	127.166
1321.61	126.409
1323.2	126.995
1324.8	127.657
1326.39	129.727
1327.99	130.786
1329.58	130.143
1331.17	128.833
1332.76	129.467
1334.36	129.28
1335.95	128.628
1337.54	126.958
1339.13	124.683
1340.72	124.232
1342.31	123.183
1343.9	119.397
1345.49	116.402
1347.08	115.972
1348.67	115.182
1350.26	114.811
1351.85	115.1
1353.43	115.073
1355.02	113.844
1356.61	111.443
1358.2	110.527
1359.78	107.901
1361.37	106.374
1362.96	104.214
1364.54	101.86
1366.13	100.705
1367.71	100.035
1369.3	98.3864
1370.88	95.5987
1372.47	95.5714
1374.05	95.2172
1375.64	94.184
1377.22	93.0312
1378.8	92.8294
1380.39	90.9922
1381.97	90.6743
1383.55	88.4151
1385.13	87.5854
1386.72	86.8952
1388.3	86.3661
1389.88	85.0912
1391.46	84.9591
1393.04	83.0142
1394.62	82.1696
1396.2	81.8341
1397.78	78.8435
1399.36	79.7687
1400.94	81.4986
1402.52	82.289
1404.1	84.8018
1405.68	86.7864
1407.25	85.9982
1408.83	88.213
1410.41	90.8765
1411.98	94.0607
1413.56	95.6945
1415.14	99.4615
1416.71	103.833
1418.29	108.016
1419.87	113.587
1421.44	118.624
1423.02	123.027
1424.59	132.146
1426.16	141.669
1427.74	147.896
1429.31	154.307
1430.89	162.059
1432.46	167.546
1434.03	173.433
1435.6	178.872
1437.18	183.94
1438.75	187.74
1440.32	192.138
1441.89	196.326
1443.46	198.921
1445.03	201.55
1446.6	203.079
1448.17	203.409
1449.74	203.282
1451.31	202.58
1452.88	201.57
1454.45	199.333
1456.02	197.622
1457.59	195.894
1459.16	193.437
1460.72	189.322
1462.29	183.406
1463.86	177.702
1465.43	172.276
1466.99	166.465
1468.56	158.758
1470.13	152.168
1471.69	144.365
1473.26	137.01
1474.82	129.973
1476.38	123.352
1477.95	118.33
1479.51	111.146
1481.08	103.589
1482.64	98.4853
1484.2	91.6997
1485.77	85.04
1487.33	81.9159
1488.89	76.0876
1490.46	71.4582
1492.02	65.8368
1493.58	62.5529
1495.14	58.2436
1496.7	55.4577
1498.26	52.5583
1499.82	49.8746
1501.38	46.8292
1502.94	46.6263
1504.5	44.7893
1506.06	45.2255
1507.62	44.8829
1509.18	45.01
1510.73	42.9457
1512.29	42.455
1513.85	42.3113
1515.41	41.9
1516.96	42.0466
1518.52	42.6696
1520.08	43.1269
1521.63	41.9791
1523.19	42.7682
1524.75	42.5199
1526.3	43.0248
1527.85	44.4001
1529.41	44.4296
1530.96	46.7625
1532.52	48.3909
1534.07	50.6887
1535.62	53.2263
1537.18	53.6573
1538.73	53.6189
1540.28	55.4286
1541.84	56.9167
1543.39	59.0931
1544.94	59.349
1546.49	60.7656
1548.04	63.1196
1549.59	64.8433
1551.14	67.1464
1552.69	69.058
1554.25	70.4879
1555.79	71.1714
1557.34	71.2355
1558.89	72.4705
1560.44	72.9319
1561.99	73.0511
1563.54	74.6303
1565.08	75.181
1566.63	75.9926
1568.18	76.4922
1569.73	78.1769
1571.27	80.9864
1572.82	82.2152
1574.37	83.6336
1575.91	84.3981
1577.46	85.5843
1579	88.3198
1580.55	91.6825
1582.09	93.1468
1583.64	95.3366
1585.18	95.4966
1586.73	95.7748
1588.27	98.627
1589.81	100.327
1591.35	101.744
1592.9	102.876
1594.44	103.184
1595.98	101.961
1597.52	100.728
1599.06	100.466
1600.61	101.663
1602.15	101.853
1603.69	102.099
1605.23	100.674
1606.77	99.9677
1608.31	100.974
1609.85	101.283
1611.39	100.857
1612.93	100.642
1614.46	99.8317
1616	98.4534
1617.54	98.1595
1619.08	96.836
1620.61	95.2946
1622.15	94.5194
1623.69	95.7298
1625.23	95.5015
1626.76	94.2051
1628.3	93.652
1629.83	92.454
1631.37	91.5504
1632.9	90.048
1634.44	90.2117
1635.97	90.7255
1637.51	91.606
1639.04	91.2588
1640.57	93.5047
1642.11	93.7934
1643.64	95.2567
1645.17	95.3356
1646.71	96.0912
1648.24	97.0768
1649.77	96.8584
1651.3	97.6197
1652.83	99.1269
1654.36	99.7263
1655.89	101.031
1657.42	100.458
1658.96	98.9356
1660.48	97.8419
1662.01	96.9571
1663.54	95.6044
1665.07	95.2549
1666.6	92.9156
1668.13	92.2005
1669.66	90.5004
1671.19	87.6801
1672.71	84.961
1674.24	82.7876
1675.77	80.4799
1677.29	78.3721
1678.82	75.9106
1680.35	71.7228
1681.87	69.0016
1683.4	66.8143
1684.92	64.2314
1686.45	61.8639
1687.97	58.4314
1689.5	55.5146
1691.02	51.5526
1692.54	47.2305
1694.07	45.1858
1695.59	42.5277
1697.11	40.0308
1698.64	38.5292
1700.16	36.3311
1701.68	34.1909
1703.2	31.3554
1704.72	28.9466
1706.25	26.2342
1707.77	24.4981
1709.29	23.4908
1710.81	21.998
1712.33	20.9147
1713.85	20.4744
1715.37	18.5627
1716.89	18.4916
1718.41	16.5543
1719.92	15.1572
1721.44	14.3964
1722.96	15.024
1724.48	15.757
1725.99	13.9241
1727.51	13.2321
1729.03	11.6806
1730.55	10.8027
1732.06	10.5567
1733.58	9.65696
1735.09	9.333
1736.61	8.57583
1738.13	7.51051
1739.64	6.39982
1741.15	6.11218
1742.67	6.63859
1744.18	5.76779
1745.7	5.02559
1747.21	3.52514
1748.72	2.02906
1750.24	1.35046
1751.75	1.70095
1753.26	2.06674
1754.77	1.53372
1756.29	0.57618
1757.8	0.583951
1759.31	0.37152
1760.82	1.09872
1762.33	0.972538
1763.84	1.08682
1765.35	1.03547
1766.86	0.0146918
1768.37	0.651675
1769.88	1.10381
1771.39	1.62484
1772.9	1.10465
1774.4	1.64653
1775.91	1.77485
1777.42	2.2217
1778.93	1.93756
1780.44	2.12305
1781.94	2.07252
1783.45	3.26595
1784.96	3.74234
1786.46	4.31633
1787.97	5.47531
1789.47	5.50175
1790.98	4.8827
1792.48	4.88572
1793.99	4.68715
1795.49	4.7675
1797	5.98049
1798.5	6.43729
1800.01	6.6021
1801.51	5.3196
1803.01	4.85847
1804.51	3.90934
1806.02	4.30211
1807.52	3.98158
1809.02	3.43393
1810.52	2.98767
1812.02	1.87715
1813.52	2.04423
1815.02	2.8
1816.53	3.08665
1818.03	3.54866
1819.52	3.27152
1821.02	2.99144
1822.52	2.71505
1824.02	3.05619
1825.52	3.69533
1827.02	3.3538
1828.52	2.90597
1830.02	3.02932
1831.51	3.86488
1833.01	4.22242
1834.51	5.26224
1836.01	5.64366
1837.5	5.84393
1839	6.4428
1840.49	7.08628
1841.99	7.26961
1843.49	8.41014
1844.98	9.54733
1846.48	10.8452
1847.97	12.1851
1849.47	12.509
1850.96	11.9663
1852.45	12.2512
1853.95	12.9808
1855.44	12.0937
1856.93	12.7879
1858.42	13.4885
1859.92	13.6108
1861.41	13.2279
1862.9	13.5619
1864.39	13.7329
1865.88	13.862
1867.38	13.6552
1868.87	13.265
1870.36	13.3297
1871.85	13.8817
1873.34	13.5725
1874.83	12.7363
1876.32	11.1359
1877.81	10.4067
1879.29	10.8196
1880.78	11.823
1882.27	11.6804
1882.53	11.337
1884.03	11.7624
1885.52	11.6916
1887.01	11.716
1888.51	11.5423
1890	10.301
1891.5	10.975
1892.99	10.6722
1894.48	10.4099
1895.97	10.4398
1897.47	10.5722
1898.96	10.7466
1900.45	9.57523
1901.94	9.96517
1903.43	11.0978
1904.92	12.4852
1906.41	12.4934
1907.9	12.8442
1909.39	11.4015
1910.88	11.5898
1912.37	11.6373
1913.86	11.4293
1915.35	10.3248
1916.84	10.6599
1918.33	10.4289
1919.81	9.52579
1921.3	9.03486
1922.79	8.71278
1924.28	8.46364
1925.76	9.04979
1927.25	9.5823
1928.73	9.98652
1930.22	11.3649
1931.71	10.9973
1933.19	10.5936
1934.68	10.2418
1936.16	9.63278
1937.65	9.31476
1939.13	7.91841
1940.62	6.71103
1942.1	6.61155
1943.58	6.83551
1945.07	6.15806
1946.55	6.47867
1948.03	6.0697
1949.51	6.15658
1951	6.71802
1952.48	6.9318
1953.96	6.73458
1955.44	6.79243
1956.92	7.14152
1958.4	6.42874
1959.88	6.06017
1961.36	5.24528
1962.84	4.91757
1964.32	5.40167
1965.8	6.94404
1967.28	7.21363
1968.76	7.70937
1970.24	7.40748
1971.72	7.60159
1973.2	7.34663
1974.67	7.00117
1976.15	9.04155
1977.63	9.55599
1979.1	10.1836
1980.58	9.92861
1982.06	9.70807
1983.54	10.4067
1985.01	11.7434
1986.49	11.0829
1987.96	10.9207
1989.44	12.3667
1990.91	13.9719
1992.39	14.7214
1993.86	15.6843
1995.33	17.6244
1996.81	18.5983
1998.28	17.8982
1999.75	19.0994
2001.23	20.6008
2002.7	21.8452
2004.17	21.8563
2005.65	20.9981
2007.12	21.7743
2008.59	22.2485
2010.06	20.857
2011.53	20.9903
2013	19.5578
2014.47	20.2273
2015.94	21.3393
2017.41	20.9544
2018.88	20.7735
2020.35	20.9397
2021.82	19.1494
2023.29	19.6823
2024.76	18.6876
2026.23	18.3693
2027.69	18.2243
2029.16	18.2426
2030.63	18.3067
2032.1	17.2232
2033.56	17.6508
2035.03	17.5378
2036.5	17.6835
2037.96	17.6863
2039.43	18.2311
2040.89	18.8432
2042.36	18.529
2043.83	18.6819
2045.29	18.5829
2046.75	19.7016
2048.22	20.6771
2049.68	20.6574
2051.15	20.3138
2052.61	21.4701
2054.07	21.4796
2055.54	20.2284
2057	21.3273
2058.46	21.7342
2059.92	21.4866
2061.39	23.4297
2062.85	24.621
2064.31	24.4971
2065.77	24.6316
2067.23	25.1538
2068.69	26.3834
2070.15	26.3619
2071.61	26.8749
2073.07	28.0054
2074.53	28.1249
2075.99	27.9433
2077.45	27.4287
2078.91	27.093
2080.37	26.9908
2081.82	24.9362
2083.28	24.3651
2084.74	24.9749
2086.2	25.1042
2087.65	25.1475
2089.11	25.3594
2090.57	23.8216
2092.02	23.5287
2093.48	22.8108
2094.94	22.3615
2096.39	23.7518
2097.85	22.6507
2099.3	22.1098
2100.76	21.9508
2102.21	22.3611
2103.66	21.809
2105.12	19.9007
2106.57	20.2585
2108.03	19.8904
2109.48	18.8938
2110.93	18.7634
2112.38	18.8178
2113.84	19.1717
2115.29	17.943
2116.74	17.5655
2118.19	16.604
2119.64	16.9605
2121.09	16.3672
2122.54	15.6312
2123.99	16.0097
2125.45	16.0838
2126.89	15.9085
2128.34	15.5052
2129.79	16.614
2131.24	16.3135
2132.69	15.9515
2134.14	16.4544
