#Acq. time (s)=	45
#Accumulations=	2
#Range (cm-¹)=	200...3150
#Windows=	2
#Auto scanning=	Off
#Autofocus=	Off
#Macrospot=	Off
#AutoExposure=	Off
#Spike filter=	Multiple accum.
#Delay time (s)=	0
#Binning=	1
#Readout mode=	Signal
#DeNoise=	Off
#ICS correction=	On
#Dark correction=	Off
#Inst. Process=	Off
#Detector Gain=	Best Dynamic Range
#Detector ADC=	20 kHz       
#Detector temperature (°C)=	-69.85
#Instrument=	LabRAM HR Evol
#Detector=	Synapse
#Objective=	x100
#Grating=	600 gr/mm
#ND Filter=	100%
#Laser (nm)=	532 
#Hole=	100.021
#Range=	Auto
#Laser Pol.=	No
#Raman. Pol.=	No
#Laser Pol. (°)=	-0.0007625
#Raman Pol. (°)=	89.9995
#Collection=	Microscope
#StageXY=	Marzhauser
#StageZ=	Marzhauser
#X (µm)=	-1023.7
#Y (µm)=	-2882.9
#Z (µm)=	528.75
#Full time(mm:ss)=	3:18
#Project=	
#Sample=	
#Site=	
#Title=	Mb_00_13_38_2x_45s_532 nm_x100_100%_600 gr_mm
#Remark=	
#Date=	06.07.2022 12:47
#Acquired=	06.07.2022 12:47:15
#Base:Fit=	10.08.2022 10:16:56
#Base:Sub=	10.08.2022 10:17:24
#Filter:Polynom=	16.08.2022 10:36:38
#AxisType[0]=Intens
#AxisUnit[0]=Cnt
#AxisType[1]=Spectr
#AxisUnit[1]=1/cm
200.398	16.3554
202.213	16.3942
204.027	15.9837
205.843	11.8563
207.657	8.90196
209.47	6.50589
211.283	5.11582
213.097	4.45937
214.909	3.95619
216.721	6.69634
218.533	11.2987
220.344	17.8411
222.157	24.6424
223.967	31.7683
225.777	39.3232
227.587	47.1265
229.396	55.0164
231.205	62.354
233.016	69.7549
234.824	75.6228
236.632	80.3332
238.439	85.7711
240.247	90.6366
242.053	95.0359
243.86	98.9177
245.666	101.85
247.474	105.905
249.279	110.29
251.085	114.117
252.889	116.717
254.694	119.613
256.498	122.697
258.301	124.393
260.105	126.776
261.908	126.701
263.71	128.092
265.513	126.675
267.315	123.444
269.116	119.57
270.918	115.113
272.718	111.308
274.519	108.13
276.319	103.121
278.119	97.6392
279.918	91.6925
281.718	84.5696
283.516	78.7671
285.315	71.8454
287.113	64.4781
288.911	56.6504
290.708	49.363
292.505	43.8753
294.302	39.4832
296.098	35.7436
297.894	31.1029
299.69	26.8655
301.485	24.1003
303.278	21.3531
305.073	19.0046
306.867	18.4253
308.661	17.4642
310.454	16.5779
312.247	15.8636
314.04	15.3465
315.833	13.8999
317.623	13.1643
319.415	11.9448
321.206	10.361
322.997	9.17088
324.788	7.82622
326.579	8.12522
328.367	8.57784
330.156	8.83996
331.946	9.38561
333.735	9.20247
335.523	8.45115
337.31	8.36892
339.098	8.6102
340.885	8.03848
342.673	7.3808
344.458	7.36998
346.244	6.41966
348.03	6.06207
349.816	4.81639
351.6	2.99842
353.385	2.16851
355.17	-0.967062
356.953	-1.96625
358.737	-2.14116
360.521	-0.769616
362.304	0.725264
364.085	2.07581
365.868	2.12305
367.65	3.50028
369.431	6.15744
371.212	9.32209
372.994	12.9548
374.773	15.1502
376.554	17.7086
378.332	22.0722
380.112	26.7781
381.892	32.4615
383.669	38.3939
385.448	44.7144
387.225	51.817
389.003	57.7712
390.781	64.2118
392.557	70.5371
394.334	75.7252
396.109	81.5687
397.885	87.6176
399.66	91.7381
401.436	96.3557
403.211	98.7729
404.984	100.279
406.759	102.329
408.532	102.558
410.306	104.169
412.078	104.517
413.851	104.708
415.623	104.321
417.395	103.866
419.166	102.118
420.938	98.5476
422.708	94.523
424.477	91.1921
426.248	87.7761
428.017	83.6066
429.788	79.6924
431.556	74.7281
433.326	69.2785
435.093	63.9157
436.86	58.3422
438.629	51.4704
440.395	45.0335
442.163	39.649
443.929	33.7911
445.694	29.6609
447.461	25.1494
449.226	20.1382
450.99	15.2966
452.756	12.1592
454.52	8.7582
456.285	6.41223
458.048	4.44371
459.811	1.86281
461.573	-0.144284
463.337	-1.98565
465.099	-1.36895
466.86	0.115839
468.623	1.27002
470.384	4.29682
472.144	5.36331
473.906	7.10349
475.666	7.95526
477.425	9.46218
479.184	10.3334
480.944	11.0379
482.703	11.2334
484.461	12.6811
486.218	13.8289
487.975	13.8322
489.734	14.6068
491.491	14.6921
493.247	14.2331
495.003	15.3266
496.759	15.474
498.516	17.5728
500.271	19.1384
502.025	20.1075
503.779	21.7432
505.533	23.654
507.287	23.5954
509.042	25.6556
510.795	27.1735
512.547	27.8747
514.299	30.0812
516.051	30.8779
517.803	32.29
519.554	32.4481
521.305	33.4177
523.055	34.0822
524.805	34.5386
526.555	33.5753
528.307	34.114
530.056	33.7328
531.805	33.3273
533.553	33.192
535.301	33.755
537.049	34.7641
538.797	35.6296
540.544	35.4104
542.291	34.3206
544.037	33.1247
545.783	32.0053
547.529	30.4763
549.275	28.989
551.02	28.0637
552.765	26.5794
554.509	25.1309
556.253	24.4121
557.997	22.8596
559.738	20.8093
561.482	20.0792
563.224	18.4554
564.967	16.4861
566.709	14.0864
568.451	12.9179
570.192	11.5613
571.933	10.1703
573.674	8.20553
575.415	5.49495
577.153	4.20031
578.893	3.69389
580.632	2.68393
582.371	2.50722
584.11	1.63198
585.849	2.26994
587.587	3.00221
589.323	1.54971
591.06	2.94268
592.797	2.69285
594.534	1.62221
596.271	2.02015
598.005	1.54471
599.741	1.2846
601.476	2.08241
603.211	0.778931
604.944	0.983805
606.679	1.1672
608.413	2.04482
610.147	1.87539
611.878	1.93686
613.611	1.21653
615.344	2.77611
617.077	2.7086
618.807	3.38718
620.539	2.57721
622.27	3.21256
623.999	2.26835
625.73	1.45192
627.461	0.913877
629.189	1.52852
630.919	2.33069
632.648	3.66358
634.376	5.05721
636.105	6.86811
637.833	7.70746
639.559	7.69976
641.287	8.94586
643.013	9.45623
644.74	9.42332
646.467	11.5484
648.192	11.9364
649.918	12.3265
651.642	12.2446
653.368	13.0656
655.091	14.0312
656.816	13.2427
658.538	12.7714
660.263	13.0674
661.987	13.7353
663.708	15.4078
665.432	15.6577
667.153	16.3253
668.875	15.9848
670.596	16.3753
672.318	17.5971
674.037	17.514
675.759	16.9636
677.478	16.9094
679.196	15.1494
680.917	15.479
682.635	15.7101
684.355	14.3093
686.072	12.9122
687.791	13.2095
689.508	12.8952
691.224	12.2205
692.942	11.1622
694.658	10.6765
696.376	10.6028
698.091	10.1895
699.805	9.11536
701.522	9.04241
703.236	7.71047
704.95	6.26097
706.665	6.43913
708.379	7.17726
710.093	8.14708
711.806	8.43883
713.518	8.60241
715.23	9.7585
716.943	10.5346
718.655	11.62
720.366	11.9062
722.078	11.0345
723.788	11.6983
725.498	12.8719
727.208	12.1286
728.919	11.876
730.628	11.4899
732.337	12.0976
734.045	11.5036
735.755	11.8522
737.463	12.0674
739.17	14.2709
740.877	14.2618
742.584	12.9651
744.292	14.1314
745.998	14.0429
747.704	15.1376
749.409	15.7542
751.114	16.7703
752.819	18.5922
754.526	20.0015
756.23	21.5375
757.934	23.7214
759.637	24.8837
761.34	26.1709
763.043	27.0691
764.746	27.5642
766.448	29.9531
768.152	31.2805
769.853	32.5063
771.554	34.592
773.255	35.486
774.956	36.1319
776.656	37.4736
778.356	39.7455
780.056	41.4832
781.755	42.6678
783.454	42.5157
785.153	44.0211
786.851	45.8989
788.549	46.7015
790.247	47.7574
791.944	50.3494
793.641	51.3504
795.338	52.6685
797.034	53.3022
798.73	53.6138
800.426	53.9815
802.121	53.4314
803.817	52.7701
805.511	52.6976
807.206	52.3083
808.9	53.4623
810.592	52.4736
812.286	51.4243
813.979	52.7023
815.672	52.7543
817.364	53.8192
819.057	54.0473
820.748	54.0967
822.44	53.8214
824.129	53.8869
825.82	52.0704
827.511	50.689
829.201	51.1109
830.891	50.1296
832.581	51.7511
834.269	52.1559
835.958	51.3237
837.646	50.7015
839.335	50.0851
841.023	49.5638
842.709	49.2725
844.396	48.553
846.084	46.0779
847.77	44.3869
849.455	43.4737
851.141	43.5491
852.827	42.2365
854.513	40.1492
856.196	39.3381
857.881	36.9426
859.566	35.5307
861.248	33.5461
862.932	32.1227
864.616	31.1829
866.297	30.7088
867.98	30.4701
869.663	29.5239
871.343	28.0263
873.026	26.265
874.707	25.105
876.387	24.4169
878.068	22.6311
879.747	21.4584
881.428	19.8541
883.108	16.9393
884.786	14.8848
886.465	13.0118
888.143	11.5543
889.822	12.0131
891.498	10.092
893.177	9.71325
894.855	9.16035
896.53	8.40568
898.208	7.80691
899.883	7.56061
901.56	7.765
903.234	8.19022
904.91	7.73128
906.584	9.42425
908.26	9.0682
909.933	8.44388
911.608	7.9746
913.28	9.88767
914.955	10.4899
916.627	11.1665
918.298	11.1491
919.972	11.1424
921.643	12.8338
923.315	14.3232
924.986	16.0766
926.656	16.6261
928.328	17.1115
929.997	16.9172
931.668	16.8666
933.337	18.8001
935.006	19.3552
936.676	19.1449
938.344	19.2685
940.012	19.7506
941.681	18.9184
943.348	18.8631
945.014	19.7314
946.683	19.8395
948.349	20.8436
950.015	20.69
951.682	20.1097
953.347	20.0222
955.012	18.8001
956.676	16.7552
958.343	14.8106
960.006	13.8845
961.67	13.5508
963.333	14.3467
964.998	14.3249
966.661	13.6741
968.323	15.4158
969.985	17.6411
971.649	19.8983
973.31	21.7901
974.971	24.2958
976.632	27.8927
978.293	31.4443
979.953	34.8225
981.615	38.3721
983.274	41.875
984.933	44.0532
986.592	45.9253
988.251	48.8001
989.909	51.0582
991.567	50.7298
993.225	53.2643
994.884	55.1778
996.541	57.9822
998.198	58.8203
999.855	59.1838
1001.51	59.7547
1003.17	59.2696
1004.82	59.5086
1006.48	59.1575
1008.13	56.5469
1009.79	56.9277
1011.44	55.8372
1013.1	55.1743
1014.75	55.8167
1016.4	57.1523
1018.06	58.9931
1019.71	61.3662
1021.36	64.7997
1023.01	68.1727
1024.66	71.4877
1026.32	77.1061
1027.97	82.7061
1029.62	86.9127
1031.27	91.7741
1032.92	94.7071
1034.57	97.5715
1036.22	99.3736
1037.87	100.946
1039.52	103.8
1041.16	107.543
1042.81	112.136
1044.46	114.936
1046.11	117.943
1047.76	118.955
1049.4	119.454
1051.05	120.334
1052.7	119.278
1054.34	118.82
1055.99	118.84
1057.63	119.322
1059.28	116.686
1060.92	114.917
1062.57	112.896
1064.21	109.054
1065.85	104.846
1067.5	99.7191
1069.14	94.9152
1070.78	89.6105
1072.43	82.702
1074.07	76.2882
1075.71	70.8564
1077.35	65.4504
1078.99	58.8381
1080.63	52.1207
1082.27	43.7236
1083.91	35.6519
1085.55	29.0718
1087.19	24.0271
1088.83	19.3052
1090.47	15.7331
1092.11	15.7909
1093.75	13.6659
1095.39	14.0082
1097.03	15.0906
1098.66	16.1951
1100.3	18.3994
1101.94	19.1516
1103.57	21.8551
1105.21	23.6605
1106.84	25.6328
1108.48	27.0496
1110.11	26.9342
1111.75	26.8674
1113.38	26.012
1115.02	25.5914
1116.65	24.7656
1118.29	23.8485
1119.92	24.2909
1121.55	23.5844
1123.19	22.1044
1124.82	20.3492
1126.45	19.5735
1128.08	19.1852
1129.71	17.5154
1131.34	16.6076
1132.97	15.2582
1134.6	15.3129
1136.23	15.9733
1137.86	15.6406
1139.49	14.4956
1141.12	14.1638
1142.75	14.8359
1144.38	14.2948
1146.01	12.268
1147.64	10.5745
1149.26	9.02527
1150.89	8.3136
1152.52	7.47155
1154.15	8.46399
1155.77	8.08763
1157.4	6.99609
1159.02	6.11552
1160.65	3.41866
1162.27	2.23168
1163.9	-0.108507
1165.52	0.287625
1167.15	2.22198
1168.77	2.05683
1170.39	3.03542
1172.02	4.56396
1173.64	6.11328
1175.26	7.66349
1176.89	8.15891
1178.51	9.14454
1180.13	9.98603
1181.75	11.0409
1183.37	12.2144
1184.99	14.0764
1186.61	14.0259
1188.23	15.5568
1189.85	16.2514
1191.47	18.4188
1193.09	19.8886
1194.71	20.9422
1196.33	22.8077
1197.94	25.1071
1199.56	27.9716
1201.18	30.6453
1202.8	32.6944
1204.41	35.6343
1206.03	39.1164
1207.65	43.2089
1209.26	47.0859
1210.88	50.0597
1212.49	52.6957
1214.11	55.9132
1215.72	59.3244
1217.34	62.9063
1218.95	66.2189
1220.57	69.5428
1222.18	72.1339
1223.79	75.0993
1225.41	76.5534
1227.02	76.894
1228.63	78.2634
1230.24	80.7334
1231.85	82.4708
1233.47	83.8111
1235.08	85.8673
1236.69	84.9864
1238.3	84.3615
1239.91	84.8963
1241.52	86.071
1243.13	87.8611
1244.74	87.662
1246.34	88.3794
1247.95	88.3503
1249.56	87.7952
1251.17	88.0428
1252.78	87.6704
1254.38	86.0631
1255.99	86.3824
1257.6	85.9598
1259.2	86.1194
1260.81	87.2772
1262.42	87.8373
1264.02	88.8822
1265.63	90.5278
1267.23	91.4222
1268.84	93.7546
1270.44	94.388
1272.04	95.9898
1273.65	98.3575
1275.25	99.9978
1276.85	101.502
1278.46	104.211
1280.06	105.222
1281.66	107.209
1283.26	110.488
1284.86	114.564
1286.46	117.7
1288.07	121.22
1289.67	124.644
1291.27	125.442
1292.87	127.237
1294.47	129.164
1296.06	130.796
1297.66	134.014
1299.26	136.326
1300.86	137.213
1302.46	138.607
1304.06	140.847
1305.65	141.529
1307.25	141.928
1308.85	143.307
1310.44	146.032
1312.04	147.555
1313.64	148.504
1315.23	150.227
1316.83	147.836
1318.42	147.48
1320.02	147.698
1321.61	148.615
1323.2	147.6
1324.8	145.08
1326.39	142.828
1327.99	141.486
1329.58	140.438
1331.17	138.216
1332.76	138.429
1334.36	139.143
1335.95	139.785
1337.54	139.734
1339.13	139.762
1340.72	140.247
1342.31	139.318
1343.9	139.436
1345.49	138.089
1347.08	135.938
1348.67	134.136
1350.26	132.151
1351.85	131.027
1353.43	129.332
1355.02	128.398
1356.61	126.612
1358.2	127.371
1359.78	126.192
1361.37	126.519
1362.96	124.65
1364.54	121.999
1366.13	119.33
1367.71	116.861
1369.3	114.329
1370.88	111.583
1372.47	109.004
1374.05	106.727
1375.64	104.795
1377.22	103.47
1378.8	101.004
1380.39	98.4901
1381.97	97.7469
1383.55	96.3931
1385.13	94.7999
1386.72	92.8446
1388.3	92.3259
1389.88	92.652
1391.46	89.9751
1393.04	87.7871
1394.62	86.1685
1396.2	82.64
1397.78	83.7934
1399.36	83.3958
1400.94	84.582
1402.52	84.368
1404.1	86.4808
1405.68	89.2838
1407.25	94.0439
1408.83	98.2883
1410.41	101.76
1411.98	107.562
1413.56	111.175
1415.14	116.975
1416.71	123.587
1418.29	128.158
1419.87	134.575
1421.44	142.824
1423.02	150.124
1424.59	157.774
1426.16	165.556
1427.74	173.529
1429.31	181.223
1430.89	188.809
1432.46	197.216
1434.03	206.114
1435.6	212.36
1437.18	220.085
1438.75	223.411
1440.32	228.008
1441.89	230.613
1443.46	234.581
1445.03	238.301
1446.6	240.928
1448.17	242.958
1449.74	244.01
1451.31	242.683
1452.88	241.47
1454.45	239.437
1456.02	238.097
1457.59	234.447
1459.16	229.542
1460.72	225.139
1462.29	218.566
1463.86	211.231
1465.43	204.038
1466.99	194.909
1468.56	186.211
1470.13	176.499
1471.69	167.652
1473.26	159.963
1474.82	151.487
1476.38	144.098
1477.95	135.894
1479.51	128.95
1481.08	121.749
1482.64	115.34
1484.2	107.832
1485.77	100.329
1487.33	94.7372
1488.89	88.758
1490.46	83.2434
1492.02	78.3351
1493.58	74.227
1495.14	70.1066
1496.7	67.7172
1498.26	66.4444
1499.82	65.1683
1501.38	63.6861
1502.94	63.2547
1504.5	62.2113
1506.06	61.6502
1507.62	61.3963
1509.18	62.711
1510.73	62.7514
1512.29	62.4848
1513.85	62.9191
1515.41	63.5618
1516.96	64.8376
1518.52	66.0434
1520.08	67.1071
1521.63	70.0225
1523.19	70.6185
1524.75	71.6235
1526.3	72.0715
1527.85	73.0585
1529.41	73.3567
1530.96	73.9762
1532.52	75.3604
1534.07	76.6685
1535.62	75.8417
1537.18	76.4028
1538.73	77.5859
1540.28	77.6821
1541.84	78.5664
1543.39	78.9276
1544.94	79.7205
1546.49	81.3109
1548.04	82.3273
1549.59	83.6512
1551.14	84.6739
1552.69	84.1276
1554.25	85.4322
1555.79	86.638
1557.34	85.5166
1558.89	85.4074
1560.44	84.9062
1561.99	84.5551
1563.54	85.1653
1565.08	86.8596
1566.63	86.817
1568.18	87.4915
1569.73	88.7078
1571.27	90.0643
1572.82	93.8801
1574.37	94.9658
1575.91	96.3871
1577.46	99.7619
1579	102.728
1580.55	104.6
1582.09	105.927
1583.64	106.44
1585.18	107.719
1586.73	108.904
1588.27	109.876
1589.81	112.638
1591.35	115.541
1592.9	117.769
1594.44	118.885
1595.98	117.886
1597.52	118.426
1599.06	117.728
1600.61	115.904
1602.15	116.216
1603.69	114.619
1605.23	114.613
1606.77	113.609
1608.31	112.814
1609.85	112.065
1611.39	111.436
1612.93	110.363
1614.46	110.13
1616	108.961
1617.54	109.087
1619.08	107.723
1620.61	106.32
1622.15	106.02
1623.69	105.76
1625.23	105.602
1626.76	105.327
1628.3	104.096
1629.83	104.698
1631.37	105.977
1632.9	105.741
1634.44	105.518
1635.97	107.805
1637.51	109.889
1639.04	111.039
1640.57	114.061
1642.11	116.507
1643.64	117.887
1645.17	120.052
1646.71	122.226
1648.24	124.657
1649.77	126.797
1651.3	128.741
1652.83	131.786
1654.36	132.254
1655.89	132.765
1657.42	133.31
1658.96	132.596
1660.48	132.458
1662.01	132.481
1663.54	131.365
1665.07	129.643
1666.6	128.901
1668.13	126.799
1669.66	122.284
1671.19	118.974
1672.71	115.521
1674.24	111.553
1675.77	107.902
1677.29	104.748
1678.82	100.544
1680.35	96.8365
1681.87	92.908
1683.4	89.6562
1684.92	84.8463
1686.45	80.8138
1687.97	76.4259
1689.5	71.7869
1691.02	66.6019
1692.54	62.5799
1694.07	59.0478
1695.59	54.1487
1697.11	50.2116
1698.64	47.6723
1700.16	44.5763
1701.68	40.8574
1703.2	37.8607
1704.72	35.8286
1706.25	34.245
1707.77	32.346
1709.29	30.1197
1710.81	28.3507
1712.33	26.915
1713.85	24.8963
1715.37	22.4003
1716.89	21.9826
1718.41	20.2784
1719.92	20.1319
1721.44	19.5482
1722.96	19.4696
1724.48	18.4467
1725.99	17.938
1727.51	17.6868
1729.03	16.482
1730.55	14.734
1732.06	14.6176
1733.58	14.4838
1735.09	13.0247
1736.61	13.0478
1738.13	12.0885
1739.64	12.0933
1741.15	11.3145
1742.67	11.4211
1744.18	10.7824
1745.7	10.3505
1747.21	10.8075
1748.72	10.0784
1750.24	9.33755
1751.75	9.41675
1753.26	9.73716
1754.77	8.42133
1756.29	8.74904
1757.8	7.90229
1759.31	8.27321
1760.82	6.78944
1762.33	7.45103
1763.84	6.3246
1765.35	5.587
1766.86	4.91179
1768.37	4.92117
1769.88	4.13068
1771.39	3.07266
1772.9	1.87243
1774.4	1.9572
1775.91	1.70116
1777.42	2.47693
1778.93	2.63398
1780.44	2.89152
1781.94	2.56292
1783.45	3.3891
1784.96	3.16908
1786.46	2.92669
1787.97	2.7005
1789.47	2.27192
1790.98	2.66305
1792.48	3.83624
1793.99	3.99108
1795.49	4.72325
1797	3.71417
1798.5	4.22006
1800.01	4.0769
1801.51	4.56016
1803.01	5.73986
1804.51	6.23261
1806.02	6.70898
1807.52	7.29096
1809.02	7.50796
1810.52	6.95529
1812.02	7.5608
1813.52	7.91477
1815.02	8.62032
1816.53	8.55178
1818.03	9.39235
1819.52	10.734
1821.02	10.8225
1822.52	10.3553
1824.02	10.6021
1825.52	10.6518
1827.02	10.7434
1828.52	10.9974
1830.02	10.2675
1831.51	10.303
1833.01	9.33727
1834.51	9.33767
1836.01	9.19959
1837.5	9.62847
1839	9.39074
1840.49	9.82914
1841.99	11.0377
1843.49	10.9546
1844.98	11.2464
1846.48	11.4105
1847.97	11.7128
1849.47	12.5718
1850.96	14.3055
1852.45	13.9667
1853.95	13.9643
1855.44	14.014
1856.93	13.6197
1858.42	13.9869
1859.92	13.1126
1861.41	12.5534
1862.9	12.0129
1864.39	12.0069
1865.88	11.0344
1867.38	10.0551
1868.87	9.47125
1870.36	8.9112
1871.85	9.02258
1873.34	8.9128
1874.83	9.02229
1876.32	8.18561
1877.81	8.37183
1879.29	9.09297
1880.78	9.13881
1882.27	9.43257
1882.53	8.98044
1884.03	9.83151
1885.52	11.5377
1887.01	11.8948
1888.51	12.166
1890	11.9256
1891.5	10.811
1892.99	9.88265
1894.48	7.73026
1895.97	6.78176
1897.47	6.76683
1898.96	6.73616
1900.45	6.96462
1901.94	6.45889
1903.43	5.34622
1904.92	6.05958
1906.41	6.51283
1907.9	7.68642
1909.39	8.49709
1910.88	9.27571
1912.37	8.94944
1913.86	7.90724
1915.35	7.95422
1916.84	7.36775
1918.33	7.3856
1919.81	6.24883
1921.3	6.99583
1922.79	6.39131
1924.28	6.82412
1925.76	5.22852
1927.25	5.56217
1928.73	5.60271
1930.22	5.69548
1931.71	6.10077
1933.19	5.91861
1934.68	4.83099
1936.16	4.05023
1937.65	3.21855
1939.13	2.08915
1940.62	1.17644
1942.1	1.05005
1943.58	1.1043
1945.07	3.31498
1946.55	5.08835
1948.03	7.64743
1949.51	9.66181
1951	13.0882
1952.48	15.2413
1953.96	15.7096
1955.44	17.3252
1956.92	17.896
1958.4	20.0058
1959.88	20.8063
1961.36	20.6732
1962.84	21.4461
1964.32	20.6587
1965.8	21.1993
1967.28	21.556
1968.76	22.1019
1970.24	23.0981
1971.72	24.7519
1973.2	24.9691
1974.67	25.746
1976.15	25.3571
1977.63	25.5608
1979.1	26.4392
1980.58	26.1786
1982.06	26.6994
1983.54	25.846
1985.01	25.4836
1986.49	23.2224
1987.96	21.8617
1989.44	21.9102
1990.91	21.2189
1992.39	21.0729
1993.86	20.2984
1995.33	20.5691
1996.81	20.0385
1998.28	20.1652
1999.75	19.892
2001.23	19.7525
2002.7	18.152
2004.17	16.7096
2005.65	15.1741
2007.12	12.7127
2008.59	10.2325
2010.06	10.1867
2011.53	9.36424
2013	7.99455
2014.47	8.39991
2015.94	9.87951
2017.41	10.9108
2018.88	11.6214
2020.35	11.658
2021.82	11.8741
2023.29	11.6708
2024.76	11.8125
2026.23	12.1412
2027.69	11.3506
2029.16	11.335
2030.63	10.9022
2032.1	10.3505
2033.56	10.3322
2035.03	10.1733
2036.5	9.74277
2037.96	8.89031
2039.43	9.31203
2040.89	8.13235
2042.36	8.06845
2043.83	8.08022
2045.29	9.55803
2046.75	9.38099
2048.22	10.2764
2049.68	10.1386
2051.15	11.2019
2052.61	12.356
2054.07	12.9774
2055.54	12.4859
2057	11.9658
2058.46	11.7359
2059.92	10.3734
2061.39	11.7542
2062.85	13.2645
2064.31	13.4982
2065.77	14.4129
2067.23	14.9503
2068.69	15.6321
2070.15	16.2547
2071.61	15.8537
2073.07	14.8917
2074.53	13.7427
2075.99	14.1213
2077.45	14.3265
2078.91	13.8257
2080.37	13.9115
2081.82	14.8433
2083.28	16.1263
2084.74	15.5272
2086.2	15.1719
2087.65	16.3763
2089.11	16.0268
2090.57	16.3593
2092.02	16.9781
2093.48	17.7967
2094.94	18.052
2096.39	18.3008
2097.85	17.9758
2099.3	17.2116
2100.76	15.7496
2102.21	15.728
2103.66	15.551
2105.12	15.0269
2106.57	15.7481
2108.03	15.2189
2109.48	15.1149
2110.93	15.1312
2112.38	15.1275
2113.84	14.6852
2115.29	14.8193
2116.74	14.993
2118.19	14.7844
2119.64	14.366
2121.09	13.1896
2122.54	12.8127
2123.99	13.1576
2125.45	11.9618
2126.89	10.9347
2128.34	8.88218
2129.79	8.5639
2131.24	7.22638
2132.69	7.16599
