#Acq. time (s)=	45
#Accumulations=	2
#Range (cm-¹)=	200...3150
#Windows=	2
#Auto scanning=	Off
#Autofocus=	Off
#Macrospot=	Off
#AutoExposure=	Off
#Spike filter=	Multiple accum.
#Delay time (s)=	0
#Binning=	1
#Readout mode=	Signal
#DeNoise=	Off
#ICS correction=	On
#Dark correction=	Off
#Inst. Process=	Off
#Detector Gain=	Best Dynamic Range
#Detector ADC=	20 kHz       
#Detector temperature (°C)=	-69.85
#Instrument=	LabRAM HR Evol
#Detector=	Synapse
#Objective=	x100
#Grating=	600 gr/mm
#ND Filter=	100%
#Laser (nm)=	532 
#Hole=	100.021
#Range=	Auto
#Laser Pol.=	No
#Raman. Pol.=	No
#Laser Pol. (°)=	-0.0007625
#Raman Pol. (°)=	89.9995
#Collection=	Microscope
#StageXY=	Marzhauser
#StageZ=	Marzhauser
#X (µm)=	-984.8
#Y (µm)=	-2824
#Z (µm)=	528.1
#Full time(mm:ss)=	3:18
#Project=	
#Sample=	
#Site=	
#Title=	Mb_00_13_25_2x_45s_532 nm_x100_100%_600 gr_mm
#Remark=	
#Date=	06.07.2022 11:39
#Acquired=	06.07.2022 11:39:04
#Base:Fit=	10.08.2022 10:16:56
#Base:Sub=	10.08.2022 10:17:24
#Filter:Polynom=	16.08.2022 10:36:38
#AxisType[0]=Intens
#AxisUnit[0]=Cnt
#AxisType[1]=Spectr
#AxisUnit[1]=1/cm
200.398	75.4913
202.213	62.2836
204.027	50.2753
205.843	38.5914
207.657	27.6367
209.47	18.35
211.283	11.6582
213.097	7.28392
214.909	6.2562
216.721	8.9517
218.533	12.8043
220.344	20.2203
222.157	28.5856
223.967	40.0542
225.777	52.0578
227.587	63.4104
229.396	75.7929
231.205	87.4776
233.016	98.2537
234.824	107.624
236.632	118.494
238.439	126.236
240.247	134.409
242.053	140.498
243.86	146.332
245.666	151.098
247.474	160.408
249.279	168.448
251.085	174.005
252.889	178.832
254.694	183.276
256.498	186.147
258.301	190.151
260.105	195.452
261.908	196.072
263.71	195.386
265.513	193.424
267.315	188.762
269.116	186.77
270.918	182.774
272.718	175.557
274.519	169.41
276.319	161.331
278.119	151.739
279.918	142.196
281.718	130.76
283.516	120.831
285.315	109.512
287.113	98.7474
288.911	86.5106
290.708	74.1485
292.505	65.2142
294.302	55.1138
296.098	46.1329
297.894	39.5827
299.69	34.0756
301.485	29.3486
303.278	24.78
305.073	22.2703
306.867	19.891
308.661	17.4119
310.454	16.3953
312.247	14.7209
314.04	13.2926
315.833	11.739
317.623	9.86514
319.415	9.1916
321.206	7.87887
322.997	6.77478
324.788	5.73847
326.579	5.80824
328.367	3.84709
330.156	3.49432
331.946	2.18958
333.735	2.6302
335.523	2.03263
337.31	2.45199
339.098	0.15688
340.885	-1.91564
342.673	-1.78303
344.458	-2.48252
346.244	-2.78173
348.03	-1.6625
349.816	-2.2906
351.6	-5.93847
353.385	-6.14701
355.17	-6.21787
356.953	-6.27868
358.737	-4.8847
360.521	-5.02558
362.304	-4.00267
364.085	0.354158
365.868	4.6608
367.65	7.43394
369.431	12.2838
371.212	17.5436
372.994	22.6399
374.773	27.2105
376.554	31.9915
378.332	37.3417
380.112	44.9985
381.892	53.4422
383.669	61.347
385.448	72.5525
387.225	84.8043
389.003	94.7577
390.781	105.938
392.557	117.816
394.334	128.679
396.109	137.997
397.885	146.45
399.66	154.427
401.436	161.427
403.211	167.73
404.984	172.527
406.759	176.158
408.532	179.893
410.306	182.124
412.078	181.814
413.851	181.357
415.623	179.568
417.395	176.458
419.166	173.47
420.938	169.485
422.708	164.175
424.477	157.261
426.248	151.005
428.017	142.973
429.788	133.716
431.556	125.237
433.326	116.231
435.093	107.343
436.86	97.1568
438.629	86.8153
440.395	75.8084
442.163	67.4862
443.929	57.285
445.694	48.5726
447.461	41.25
449.226	33.168
450.99	25.8923
452.756	18.9289
454.52	11.6411
456.285	4.50759
458.048	-0.0762054
459.811	-5.74615
461.573	-10.2657
463.337	-13.2067
465.099	-14.85
466.86	-13.8634
468.623	-11.9226
470.384	-10.05
472.144	-7.34605
473.906	-3.47763
475.666	-1.14187
477.425	2.02862
479.184	6.08047
480.944	10.068
482.703	11.4945
484.461	13.1185
486.218	15.5669
487.975	17.9905
489.734	20.0746
491.491	21.7496
493.247	24.0407
495.003	27.3327
496.759	30.5415
498.516	32.3957
500.271	32.9743
502.025	35.8349
503.779	37.8851
505.533	41.4058
507.287	43.9194
509.042	45.0314
510.795	46.376
512.547	47.8069
514.299	48.7578
516.051	50.2574
517.803	52.0598
519.554	53.5934
521.305	54.6667
523.055	56.015
524.805	55.8515
526.555	56.4811
528.307	54.8318
530.056	53.9594
531.805	53.2552
533.553	52.2153
535.301	51.0515
537.049	49.2292
538.797	48.8817
540.544	47.616
542.291	45.3063
544.037	43.4749
545.783	41.3356
547.529	39.3524
549.275	37.6049
551.02	35.569
552.765	33.6071
554.509	30.9032
556.253	29.2218
557.997	27.3387
559.738	24.9614
561.482	24.3353
563.224	24.0852
564.967	22.5866
566.709	20.7633
568.451	20.1618
570.192	17.6634
571.933	16.216
573.674	14.4573
575.415	12.8844
577.153	12.292
578.893	11.6508
580.632	11.2386
582.371	10.0347
584.11	9.34181
585.849	8.38853
587.587	7.57921
589.323	7.57505
591.06	8.4807
592.797	8.7717
594.534	6.76748
596.271	6.63379
598.005	7.13135
599.741	7.26238
601.476	6.38666
603.211	8.05755
604.944	8.47819
606.679	8.45485
608.413	9.3057
610.147	9.25587
611.878	8.16581
613.611	8.26809
615.344	8.03585
617.077	8.63471
618.807	9.03708
620.539	9.76719
622.27	10.379
623.999	11.1393
625.73	12.5065
627.461	12.149
629.189	12.4941
630.919	14.8377
632.648	17.6807
634.376	18.9661
636.105	19.5807
637.833	20.479
639.559	22.7146
641.287	25.1929
643.013	27.2405
644.74	27.549
646.467	28.0337
648.192	29.5375
649.918	30.0128
651.642	29.1057
653.368	28.5047
655.091	27.365
656.816	26.072
658.538	25.7041
660.263	24.4496
661.987	24.8869
663.708	24.238
665.432	24.0162
667.153	23.1687
668.875	22.5773
670.596	22.4803
672.318	21.6497
674.037	20.7045
675.759	19.0101
677.478	18.1537
679.196	16.1369
680.917	14.0366
682.635	13.5659
684.355	11.7079
686.072	9.35687
687.791	7.77065
689.508	7.8608
691.224	6.10019
692.942	5.52382
694.658	3.53455
696.376	2.15713
698.091	1.57432
699.805	2.20497
701.522	2.20132
703.236	2.46602
704.95	4.01305
706.665	5.58307
708.379	5.31826
710.093	5.94048
711.806	6.8006
713.518	8.22146
715.23	9.11173
716.943	12.2321
718.655	12.1161
720.366	11.0825
722.078	10.6971
723.788	10.984
725.498	12.1483
727.208	12.0319
728.919	11.8871
730.628	12.9545
732.337	13.9221
734.045	14.5505
735.755	14.467
737.463	14.1988
739.17	14.3658
740.877	14.9927
742.584	17.2346
744.292	19.6965
745.998	20.6475
747.704	23.1803
749.409	24.8458
751.114	27.4598
752.819	28.6223
754.526	28.8457
756.23	30.8284
757.934	30.7188
759.637	31.9751
761.34	33.3564
763.043	34.9087
764.746	35.5764
766.448	36.4959
768.152	37.7468
769.853	37.2235
771.554	38.8663
773.255	40.5594
774.956	41.9318
776.656	42.6028
778.356	43.8811
780.056	43.9286
781.755	44.7181
783.454	46.1219
785.153	48.769
786.851	50.9904
788.549	52.0838
790.247	52.3975
791.944	52.2034
793.641	51.0182
795.338	50.9518
797.034	52.3087
798.73	53.163
800.426	51.9575
802.121	52.9101
803.817	50.2843
805.511	50.7163
807.206	52.35
808.9	53.5651
810.592	52.8895
812.286	53.0782
813.979	53.4128
815.672	53.9924
817.364	54.3501
819.057	54.4733
820.748	54.1623
822.44	54.8362
824.129	55.7271
825.82	56.7184
827.511	58.9069
829.201	59.8471
830.891	58.9256
832.581	59.7681
834.269	59.0089
835.958	57.8059
837.646	56.7099
839.335	54.6776
841.023	53.7028
842.709	52.2169
844.396	51.9815
846.084	49.3602
847.77	47.7096
849.455	47.749
851.141	46.9478
852.827	46.7899
854.513	45.1951
856.196	44.7389
857.881	44.0158
859.566	41.7818
861.248	40.9373
862.932	40.4875
864.616	40.6049
866.297	41.3059
867.98	42.058
869.663	42.9334
871.343	41.4893
873.026	39.1207
874.707	38.0527
876.387	36.6759
878.068	34.6072
879.747	34.2573
881.428	32.5749
883.108	31.0726
884.786	28.6519
886.465	28.4553
888.143	26.6927
889.822	26.0635
891.498	24.5881
893.177	23.2782
894.855	22.1957
896.53	22.9414
898.208	22.9524
899.883	22.3241
901.56	21.8535
903.234	20.5174
904.91	20.249
906.584	20.5029
908.26	19.7232
909.933	19.1258
911.608	18.4284
913.28	18.3389
914.955	17.4116
916.627	16.954
918.298	17.1978
919.972	17.039
921.643	16.8838
923.315	16.1824
924.986	15.9553
926.656	17.0041
928.328	17.0509
929.997	17.2985
931.668	19.0446
933.337	19.7445
935.006	19.5969
936.676	20.1275
938.344	19.896
940.012	21.457
941.681	23.3037
943.348	23.2043
945.014	23.7041
946.683	23.4156
948.349	21.9758
950.015	20.2276
951.682	18.273
953.347	18.3804
955.012	16.4347
956.676	13.8342
958.343	12.1368
960.006	10.3725
961.67	8.02431
963.333	7.06026
964.998	6.2756
966.661	8.82398
968.323	9.29494
969.985	11.8195
971.649	14.5123
973.31	17.385
974.971	19.5287
976.632	22.8394
978.293	24.5006
979.953	27.0512
981.615	28.9221
983.274	31.6982
984.933	34.6052
986.592	36.7343
988.251	40.8696
989.909	42.2409
991.567	45.2638
993.225	48.5741
994.884	52.0594
996.541	54.8735
998.198	56.8173
999.855	58.3423
1001.51	60.6944
1003.17	61.3594
1004.82	60.3944
1006.48	59.3228
1008.13	58.4441
1009.79	57.1468
1011.44	55.0131
1013.1	53.4629
1014.75	51.65
1016.4	51.0705
1018.06	53.898
1019.71	59.5721
1021.36	66.784
1023.01	78.0317
1024.66	90.816
1026.32	103.731
1027.97	115.405
1029.62	128.405
1031.27	139.777
1032.92	153.601
1034.57	165.976
1036.22	176.649
1037.87	184.733
1039.52	192.464
1041.16	201.713
1042.81	209.866
1044.46	216.627
1046.11	224.303
1047.76	231.665
1049.4	236.961
1051.05	239.629
1052.7	243.082
1054.34	245.165
1055.99	244.263
1057.63	242.312
1059.28	240.898
1060.92	238.665
1062.57	235.739
1064.21	231.546
1065.85	226.784
1067.5	219.735
1069.14	211.353
1070.78	203.827
1072.43	193.859
1074.07	183.164
1075.71	171.499
1077.35	158.014
1078.99	143.505
1080.63	126.271
1082.27	109.698
1083.91	91.5587
1085.55	73.8244
1087.19	58.3871
1088.83	45.8023
1090.47	38.3891
1092.11	32.4622
1093.75	28.8822
1095.39	28.0202
1097.03	29.6696
1098.66	34.2537
1100.3	41.8819
1101.94	50.6435
1103.57	58.1007
1105.21	67.2756
1106.84	72.1505
1108.48	75.2193
1110.11	76.5189
1111.75	78.4594
1113.38	80.0411
1115.02	80.612
1116.65	80.1372
1118.29	79.965
1119.92	80.1806
1121.55	79.0018
1123.19	78.2194
1124.82	76.2233
1126.45	73.4633
1128.08	71.1538
1129.71	68.5108
1131.34	65.0047
1132.97	61.3107
1134.6	59.7109
1136.23	57.7083
1137.86	53.8425
1139.49	52.6808
1141.12	50.87
1142.75	46.5977
1144.38	43.2017
1146.01	39.0659
1147.64	35.529
1149.26	31.1665
1150.89	25.6049
1152.52	22.2904
1154.15	16.5008
1155.77	11.5453
1157.4	7.39139
1159.02	1.47634
1160.65	-3.06355
1162.27	-7.16835
1163.9	-8.40984
1165.52	-8.1994
1167.15	-5.28478
1168.77	-0.903095
1170.39	2.28663
1172.02	6.48534
1173.64	8.39378
1175.26	8.54555
1176.89	9.10559
1178.51	9.80261
1180.13	10.4623
1181.75	13.109
1183.37	14.6512
1184.99	14.3355
1186.61	14.5759
1188.23	14.1035
1189.85	13.9724
1191.47	13.208
1193.09	13.355
1194.71	14.5292
1196.33	15.2015
1197.94	18.0681
1199.56	18.5488
1201.18	19.2102
1202.8	19.6
1204.41	21.8512
1206.03	24.3569
1207.65	25.9712
1209.26	28.3504
1210.88	30.8745
1212.49	33.2525
1214.11	34.936
1215.72	38.6406
1217.34	42.2627
1218.95	45.8175
1220.57	49.138
1222.18	50.2137
1223.79	51.5976
1225.41	54.7315
1227.02	58.0679
1228.63	60.1298
1230.24	62.1105
1231.85	63.2841
1233.47	66.6684
1235.08	68.785
1236.69	71.4972
1238.3	72.5225
1239.91	73.7261
1241.52	76.9879
1243.13	78.1459
1244.74	79.4351
1246.34	79.9932
1247.95	78.3524
1249.56	74.95
1251.17	71.7094
1252.78	70.4507
1254.38	71.3123
1255.99	74.3262
1257.6	78.884
1259.2	84.9453
1260.81	91.6235
1262.42	98.1672
1264.02	103.61
1265.63	109.391
1267.23	114.738
1268.84	120.195
1270.44	125.94
1272.04	131.903
1273.65	137.211
1275.25	142.809
1276.85	149.081
1278.46	155.108
1280.06	159.751
1281.66	165.698
1283.26	170.569
1284.86	175.549
1286.46	178.157
1288.07	181.002
1289.67	182.744
1291.27	184.355
1292.87	184.037
1294.47	183.69
1296.06	185.891
1297.66	186.038
1299.26	184.358
1300.86	182.251
1302.46	179.631
1304.06	177.577
1305.65	176.307
1307.25	172.751
1308.85	168.748
1310.44	166.611
1312.04	161.534
1313.64	158.47
1315.23	152.636
1316.83	147.186
1318.42	141.019
1320.02	135.222
1321.61	128.546
1323.2	119.859
1324.8	112.098
1326.39	103.42
1327.99	96.8083
1329.58	91.6917
1331.17	90.2844
1332.76	91.8665
1334.36	94.4125
1335.95	98.056
1337.54	99.2531
1339.13	99.4292
1340.72	99.5336
1342.31	99.5845
1343.9	98.8276
1345.49	97.5662
1347.08	96.8656
1348.67	97.2513
1350.26	95.2357
1351.85	94.7804
1353.43	94.3571
1355.02	95.4104
1356.61	97.8799
1358.2	97.6179
1359.78	96.9453
1361.37	96.2163
1362.96	94.2598
1364.54	93.4405
1366.13	91.5346
1367.71	90.0033
1369.3	86.6717
1370.88	85.0964
1372.47	81.0438
1374.05	80.1829
1375.64	79.4919
1377.22	76.307
1378.8	74.0407
1380.39	72.8866
1381.97	72.2956
1383.55	72.3674
1385.13	73.2417
1386.72	71.5633
1388.3	72.5247
1389.88	71.7818
1391.46	70.5684
1393.04	68.988
1394.62	66.9902
1396.2	66.304
1397.78	66.2484
1399.36	69.5904
1400.94	72.7251
1402.52	79.2537
1404.1	88.6589
1405.68	100.016
1407.25	111.724
1408.83	124.156
1410.41	137.794
1411.98	152.944
1413.56	167.478
1415.14	182.617
1416.71	195.717
1418.29	210.154
1419.87	225.416
1421.44	239.914
1423.02	254.17
1424.59	270.124
1426.16	285.471
1427.74	301.011
1429.31	315.404
1430.89	332.096
1432.46	346.575
1434.03	361.367
1435.6	374.249
1437.18	383.169
1438.75	391.556
1440.32	399.915
1441.89	406.45
1443.46	413.158
1445.03	415.801
1446.6	418.819
1448.17	417.674
1449.74	415.574
1451.31	410.311
1452.88	406.181
1454.45	398.676
1456.02	390.139
1457.59	382.415
1459.16	372.179
1460.72	359.831
1462.29	345.946
1463.86	331.504
1465.43	313.925
1466.99	298.191
1468.56	279.095
1470.13	262.083
1471.69	244.035
1473.26	229.225
1474.82	214.482
1476.38	202.182
1477.95	190.589
1479.51	177.903
1481.08	167.668
1482.64	155.717
1484.2	142.405
1485.77	130.229
1487.33	120.009
1488.89	110.81
1490.46	100.005
1492.02	90.1891
1493.58	81.45
1495.14	73.6352
1496.7	67.2676
1498.26	60.7224
1499.82	56.2997
1501.38	51.8552
1502.94	49.3915
1504.5	46.0337
1506.06	44.8986
1507.62	43.5754
1509.18	41.5564
1510.73	38.8668
1512.29	37.1302
1513.85	35.275
1515.41	33.6833
1516.96	33.3426
1518.52	33.2039
1520.08	33.4663
1521.63	32.991
1523.19	30.6377
1524.75	31.6652
1526.3	29.7334
1527.85	30.0392
1529.41	29.0769
1530.96	28.8389
1532.52	29.404
1534.07	30.3272
1535.62	32.1063
1537.18	32.2229
1538.73	33.9217
1540.28	35.0976
1541.84	36.3446
1543.39	37.7546
1544.94	39.869
1546.49	40.3462
1548.04	43.3307
1549.59	44.3109
1551.14	45.8746
1552.69	47.4528
1554.25	49.7666
1555.79	51.2675
1557.34	52.8526
1558.89	55.0488
1560.44	56.9135
1561.99	58.7723
1563.54	61.6169
1565.08	62.5882
1566.63	64.2804
1568.18	66.2826
1569.73	69.0131
1571.27	71.8584
1572.82	75.0258
1574.37	77.3719
1575.91	78.8921
1577.46	80.4587
1579	82.4129
1580.55	84.5803
1582.09	86.4401
1583.64	88.7315
1585.18	89.7652
1586.73	89.8137
1588.27	91.7055
1589.81	93.5767
1591.35	94.5853
1592.9	95.9497
1594.44	97.9196
1595.98	98.7671
1597.52	100.013
1599.06	99.5984
1600.61	100.042
1602.15	100.479
1603.69	99.6531
1605.23	98.6023
1606.77	96.8905
1608.31	97.229
1609.85	97.9947
1611.39	97.5047
1612.93	97.9549
1614.46	96.3397
1616	95.6846
1617.54	93.6908
1619.08	94.3103
1620.61	93.5557
1622.15	91.5674
1623.69	91.1188
1625.23	90.2108
1626.76	89.2299
1628.3	87.6678
1629.83	87.2594
1631.37	87.1138
1632.9	85.8284
1634.44	83.4167
1635.97	81.2572
1637.51	79.7669
1639.04	79.4543
1640.57	78.7726
1642.11	77.886
1643.64	79.0264
1645.17	80.4812
1646.71	79.711
1648.24	79.7402
1649.77	79.7788
1651.3	78.5917
1652.83	78.1202
1654.36	79.1589
1655.89	80.1939
1657.42	79.74
1658.96	81.0173
1660.48	80.5459
1662.01	78.9455
1663.54	79.0453
1665.07	78.9663
1666.6	79.1433
1668.13	78.4753
1669.66	78.1408
1671.19	76.0771
1672.71	73.2063
1674.24	72.8095
1675.77	70.7761
1677.29	68.9572
1678.82	66.243
1680.35	64.8699
1681.87	62.7278
1683.4	61.0311
1684.92	58.0822
1686.45	54.9711
1687.97	52.5443
1689.5	49.3945
1691.02	45.1926
1692.54	42.7318
1694.07	40.6055
1695.59	39.3807
1697.11	36.2943
1698.64	33.7708
1700.16	31.9788
1701.68	29.2353
1703.2	27.5084
1704.72	24.0199
1706.25	22.1693
1707.77	20.0208
1709.29	15.5987
1710.81	11.6985
1712.33	11.3926
1713.85	10.675
1715.37	10.1957
1716.89	8.13961
1718.41	6.97577
1719.92	5.75172
1721.44	4.79942
1722.96	3.01331
1724.48	3.05534
1725.99	2.51083
1727.51	1.72464
1729.03	2.12062
1730.55	1.87851
1732.06	1.74974
1733.58	1.58121
1735.09	1.67218
1736.61	0.471667
1738.13	0.972981
1739.64	3.25842
1741.15	3.40108
1742.67	4.34105
1744.18	4.6162
1745.7	5.26716
1747.21	5.19035
1748.72	6.61393
1750.24	8.49293
1751.75	8.3277
1753.26	10.1894
1754.77	11.1621
1756.29	12.8894
1757.8	13.3803
1759.31	13.7299
1760.82	13.385
1762.33	14.7945
1763.84	15.3116
1765.35	15.6069
1766.86	16.5516
1768.37	17.2516
1769.88	19.0779
1771.39	17.992
1772.9	16.8086
1774.4	16.7108
1775.91	15.6948
1777.42	15.9593
1778.93	15.0194
1780.44	13.7607
1781.94	14.1224
1783.45	14.144
1784.96	12.558
1786.46	12.4075
1787.97	13.3465
1789.47	12.3497
1790.98	12.5477
1792.48	11.2655
1793.99	9.97184
1795.49	9.48064
1797	9.92461
1798.5	9.20201
1800.01	9.01199
1801.51	7.30245
1803.01	6.50885
1804.51	6.79079
1806.02	6.59076
1807.52	6.67628
1809.02	6.69627
1810.52	7.79365
1812.02	7.93554
1813.52	9.67018
1815.02	9.92997
1816.53	9.31896
1818.03	9.79666
1819.52	9.96729
1821.02	9.86052
1822.52	10.0643
1824.02	11.6665
1825.52	12.1999
1827.02	12.8943
1828.52	13.3421
1830.02	12.5867
1831.51	12.6466
1833.01	12.7752
1834.51	13.0032
1836.01	11.8442
1837.5	12.6328
1839	13.1741
1840.49	13.2726
1841.99	12.457
1843.49	11.4591
1844.98	11.5779
1846.48	10.2319
1847.97	9.92216
1849.47	10.2085
1850.96	10.3901
1852.45	10.3934
1853.95	10.1936
1855.44	11.6371
1856.93	11.665
1858.42	11.5179
1859.92	10.4996
1861.41	11.3387
1862.9	10.3148
1864.39	9.88198
1865.88	8.68505
1867.38	7.06733
1868.87	7.61815
1870.36	7.31301
1871.85	7.52479
1873.34	5.84927
1874.83	6.63912
1876.32	5.16721
1877.81	5.14395
1879.29	5.12102
1880.78	4.86071
1882.27	4.02382
1882.53	3.74416
1884.03	3.72288
1885.52	3.13262
1887.01	4.02306
1888.51	3.34216
1890	3.52769
1891.5	4.39885
1892.99	3.77522
1894.48	4.01402
1895.97	3.98232
1897.47	3.01724
1898.96	3.13419
1900.45	3.82033
1901.94	1.66792
1903.43	1.98476
1904.92	1.6517
1906.41	1.26021
1907.9	0.781678
1909.39	0.673
1910.88	3.39339
1912.37	1.56693
1913.86	0.771625
1915.35	1.24569
1916.84	3.36244
1918.33	3.51122
1919.81	3.85793
1921.3	3.17351
1922.79	4.6069
1924.28	6.26161
1925.76	7.01542
1927.25	8.68065
1928.73	9.07433
1930.22	7.62798
1931.71	4.33993
1933.19	2.19067
1934.68	4.58593
1936.16	5.30186
1937.65	6.68857
1939.13	8.26567
1940.62	10.3537
1942.1	13.0765
1943.58	13.7835
1945.07	15.793
1946.55	16.2539
1948.03	17.4291
1949.51	16.4336
1951	17.4685
1952.48	17.683
1953.96	18.2702
1955.44	17.1839
1956.92	18.6164
1958.4	19.2349
1959.88	20.0564
1961.36	21.5753
1962.84	21.8351
1964.32	23.2886
1965.8	23.3707
1967.28	22.687
1968.76	21.5648
1970.24	21.2652
1971.72	19.8333
1973.2	19.0254
1974.67	18.5483
1976.15	16.5774
1977.63	17.5823
1979.1	15.5518
1980.58	15.4246
1982.06	14.5279
1983.54	14.1674
1985.01	13.9102
1986.49	12.2346
1987.96	12.498
1989.44	13.2868
1990.91	12.2198
1992.39	9.04889
1993.86	8.86067
1995.33	8.02029
1996.81	6.93666
1998.28	7.02606
1999.75	5.93405
2001.23	3.92957
2002.7	2.00735
2004.17	0.781418
2005.65	0.663304
2007.12	3.91844
2008.59	7.44237
2010.06	7.33095
2011.53	6.83592
2013	7.23497
2014.47	7.95683
2015.94	7.80834
2017.41	8.03929
2018.88	9.26035
2020.35	8.43386
2021.82	7.90153
2023.29	8.91831
2024.76	9.35263
2026.23	10.2392
2027.69	10.0412
2029.16	8.98364
2030.63	10.675
2032.1	9.76579
2033.56	11.9554
2035.03	13.6229
2036.5	13.0474
2037.96	13.1192
2039.43	11.559
2040.89	11.1109
2042.36	11.4173
2043.83	12.2498
2045.29	11.4083
2046.75	11.9583
2048.22	13.8215
2049.68	12.5604
2051.15	14.1252
2052.61	14.1822
2054.07	15.0221
2055.54	16.2441
2057	17.1236
2058.46	17.4895
2059.92	16.3559
2061.39	16.463
2062.85	18.3927
2064.31	17.0398
2065.77	17.289
2067.23	17.7776
2068.69	17.4696
2070.15	16.6474
2071.61	17.8354
2073.07	16.4117
2074.53	15.3699
2075.99	14.9529
2077.45	14.5377
2078.91	14.8993
2080.37	14.1612
2081.82	13.0396
2083.28	13.4065
2084.74	13.5155
2086.2	14.92
2087.65	15.1433
2089.11	14.2108
2090.57	14.3128
2092.02	14.4526
2093.48	13.8249
2094.94	13.4061
2096.39	13.2581
2097.85	12.4121
2099.3	13.0862
2100.76	10.7251
2102.21	9.86266
2103.66	10.4458
2105.12	10.9042
2106.57	11.3211
2108.03	11.3969
2109.48	10.368
2110.93	9.87734
2112.38	9.07631
2113.84	9.02734
2115.29	9.61177
2116.74	8.96433
2118.19	8.88018
2119.64	9.26487
2121.09	9.38006
2122.54	8.45735
2123.99	8.28422
2125.45	7.49859
2126.89	6.43289
2128.34	6.25381
2129.79	4.55196
2131.24	4.53205
2132.69	4.91802
