#Acq. time (s)=	45
#Accumulations=	2
#Range (cm-¹)=	200...3150
#Windows=	2
#Auto scanning=	Off
#Autofocus=	Off
#Macrospot=	Off
#AutoExposure=	Off
#Spike filter=	Multiple accum.
#Delay time (s)=	0
#Binning=	1
#Readout mode=	Signal
#DeNoise=	Off
#ICS correction=	On
#Dark correction=	Off
#Inst. Process=	Off
#Detector Gain=	Best Dynamic Range
#Detector ADC=	20 kHz       
#Detector temperature (°C)=	-69.85
#Instrument=	LabRAM HR Evol
#Detector=	Synapse
#Objective=	x100
#Grating=	600 gr/mm
#ND Filter=	100%
#Laser (nm)=	532 
#Hole=	100.021
#Range=	Auto
#Laser Pol.=	No
#Raman. Pol.=	No
#Laser Pol. (°)=	-0.0007625
#Raman Pol. (°)=	89.9995
#Collection=	Microscope
#StageXY=	Marzhauser
#StageZ=	Marzhauser
#X (µm)=	-1056.9
#Y (µm)=	-2876.3
#Z (µm)=	527.9
#Full time(mm:ss)=	3:18
#Project=	
#Sample=	
#Site=	
#Title=	Mb_00_13_47_2x_45s_532 nm_x100_100%_600 gr_mm
#Remark=	
#Date=	06.07.2022 13:35
#Acquired=	06.07.2022 13:35:50
#Base:Fit=	10.08.2022 10:16:56
#Base:Sub=	10.08.2022 10:17:24
#Filter:Polynom=	16.08.2022 10:36:38
#AxisType[0]=Intens
#AxisUnit[0]=Cnt
#AxisType[1]=Spectr
#AxisUnit[1]=1/cm
200.398	14.347
202.213	12.7318
204.027	7.14363
205.843	2.04232
207.657	-3.04252
209.47	-6.28541
211.283	-7.78263
213.097	-8.04567
214.909	-5.63191
216.721	0.150729
218.533	5.8737
220.344	13.6116
222.157	26.0397
223.967	37.9401
225.777	48.647
227.587	62.5999
229.396	76.7252
231.205	91.6309
233.016	104.581
234.824	116.579
236.632	128.211
238.439	140.177
240.247	149.351
242.053	159.244
243.86	166.906
245.666	173.991
247.474	182.339
249.279	191.808
251.085	198.625
252.889	202.101
254.694	206.826
256.498	211.922
258.301	216.193
260.105	218.567
261.908	217.069
263.71	217.226
265.513	216.354
267.315	214.226
269.116	208.907
270.918	204.863
272.718	199.358
274.519	191.448
276.319	182.956
278.119	174.034
279.918	162.74
281.718	149.635
283.516	138.185
285.315	125.261
287.113	113.021
288.911	98.7471
290.708	89.0827
292.505	79.0037
294.302	69.0916
296.098	60.6974
297.894	53.4701
299.69	46.0128
301.485	39.3028
303.278	33.604
305.073	29.502
306.867	26.1181
308.661	22.8008
310.454	20.3695
312.247	19.2238
314.04	15.3825
315.833	14.2709
317.623	14.7286
319.415	14.9536
321.206	14.601
322.997	13.4098
324.788	13.8798
326.579	13.2824
328.367	13.2271
330.156	11.1916
331.946	11.8137
333.735	10.4977
335.523	9.99527
337.31	9.55685
339.098	10.0363
340.885	6.94982
342.673	6.26782
344.458	8.13258
346.244	8.1715
348.03	8.09254
349.816	6.42891
351.6	6.30014
353.385	6.5241
355.17	4.89874
356.953	1.18193
358.737	0.42899
360.521	1.04173
362.304	0.98705
364.085	3.06073
365.868	7.30786
367.65	12.7611
369.431	16.9247
371.212	22.063
372.994	27.634
374.773	32.0085
376.554	39.0213
378.332	45.4135
380.112	54.1885
381.892	61.549
383.669	71.5504
385.448	84.085
387.225	96.3436
389.003	107.282
390.781	119.645
392.557	130.245
394.334	139.725
396.109	150.617
397.885	159.887
399.66	167.114
401.436	175.248
403.211	182.444
404.984	188.967
406.759	194.218
408.532	198.321
410.306	199.933
412.078	200.916
413.851	200.765
415.623	199.464
417.395	198.004
419.166	195.928
420.938	194.049
422.708	190.498
424.477	184.969
426.248	179.54
428.017	171.97
429.788	162.951
431.556	154.792
433.326	144.829
435.093	133.895
436.86	123.111
438.629	111.171
440.395	99.848
442.163	87.3137
443.929	76.6953
445.694	66.6109
447.461	59.4805
449.226	50.8092
450.99	44.0123
452.756	38.2419
454.52	30.4607
456.285	23.6581
458.048	15.6883
459.811	9.0543
461.573	3.85745
463.337	0.670032
465.099	-2.31185
466.86	-3.51879
468.623	-3.16934
470.384	-0.557259
472.144	1.33568
473.906	2.90783
475.666	4.9768
477.425	4.14986
479.184	5.60934
480.944	7.34077
482.703	9.00547
484.461	12.7666
486.218	14.7976
487.975	17.7151
489.734	20.0827
491.491	23.5127
493.247	26.1585
495.003	30.0988
496.759	33.3677
498.516	36.557
500.271	39.8709
502.025	43.9829
503.779	48.2349
505.533	52.1146
507.287	55.5527
509.042	58.6376
510.795	60.8853
512.547	63.6521
514.299	66.9488
516.051	68.5361
517.803	70.4055
519.554	71.7155
521.305	74.0549
523.055	76.1306
524.805	78.1231
526.555	78.6141
528.307	80.2938
530.056	81.308
531.805	82.4757
533.553	82.3624
535.301	81.0796
537.049	78.9119
538.797	78.0604
540.544	76.1434
542.291	74.5011
544.037	71.5662
545.783	68.8348
547.529	65.7
549.275	62.8355
551.02	59.071
552.765	55.1876
554.509	53.4336
556.253	50.8193
557.997	48.5848
559.738	44.2397
561.482	42.25
563.224	38.4716
564.967	35.0995
566.709	33.3448
568.451	32.5795
570.192	30.545
571.933	27.2681
573.674	24.3547
575.415	21.5779
577.153	18.0658
578.893	19.0182
580.632	17.0708
582.371	15.4525
584.11	14.5909
585.849	13.9886
587.587	13.1358
589.323	12.2989
591.06	11.4099
592.797	10.8957
594.534	10.8566
596.271	11.3176
598.005	10.7551
599.741	10.9567
601.476	11.6758
603.211	11.3099
604.944	11.3432
606.679	12.4906
608.413	13.981
610.147	14.275
611.878	15.5988
613.611	16.9522
615.344	17.0525
617.077	16.3631
618.807	17.2394
620.539	16.5843
622.27	16.1626
623.999	18.4327
625.73	20.6428
627.461	22.5187
629.189	22.7673
630.919	25.4469
632.648	28.8663
634.376	30.953
636.105	34.1933
637.833	36.5091
639.559	39.9942
641.287	42.8237
643.013	45.395
644.74	46.9607
646.467	48.3436
648.192	49.5541
649.918	50.2833
651.642	52.2412
653.368	51.6989
655.091	52.1998
656.816	50.8412
658.538	49.6995
660.263	50.1379
661.987	49.97
663.708	48.8041
665.432	48.8651
667.153	46.502
668.875	45.2212
670.596	44.5295
672.318	41.8762
674.037	39.6675
675.759	37.2832
677.478	35.5884
679.196	32.6358
680.917	29.7809
682.635	27.501
684.355	24.3664
686.072	21.814
687.791	20.1442
689.508	15.9403
691.224	13.4236
692.942	12.43
694.658	10.9697
696.376	8.67911
698.091	7.01367
699.805	4.03852
701.522	0.428799
703.236	-0.809941
704.95	-1.27155
706.665	-1.62659
708.379	-1.24422
710.093	-1.27226
711.806	-0.896081
713.518	-0.653228
715.23	0.0588521
716.943	2.57156
718.655	1.92248
720.366	3.62959
722.078	4.50637
723.788	4.2143
725.498	5.03182
727.208	5.92003
728.919	6.61764
730.628	6.96746
732.337	7.45914
734.045	8.77284
735.755	9.3824
737.463	10.6566
739.17	12.2385
740.877	13.6448
742.584	14.2754
744.292	16.6413
745.998	17.7487
747.704	18.8759
749.409	20.8824
751.114	24.1129
752.819	27.8293
754.526	30.5395
756.23	34.4433
757.934	36.6866
759.637	40.0522
761.34	42.4861
763.043	45.0599
764.746	47.4378
766.448	50.443
768.152	54.2297
769.853	56.3627
771.554	58.6398
773.255	59.909
774.956	62.0547
776.656	63.6082
778.356	65.5679
780.056	65.8057
781.755	65.5355
783.454	67.1869
785.153	66.6585
786.851	67.0346
788.549	67.5904
790.247	69.3253
791.944	69.9008
793.641	68.5806
795.338	68.939
797.034	67.8758
798.73	66.1581
800.426	65.2526
802.121	64.3683
803.817	62.6709
805.511	61.6891
807.206	58.9582
808.9	56.7747
810.592	56.3854
812.286	55.9683
813.979	54.668
815.672	54.0857
817.364	51.0925
819.057	49.9379
820.748	47.8754
822.44	49.0313
824.129	46.909
825.82	46.0378
827.511	46.2135
829.201	48.0106
830.891	47.2458
832.581	47.8755
834.269	48.5487
835.958	47.5109
837.646	47.9505
839.335	47.7253
841.023	47.1625
842.709	44.8557
844.396	43.0022
846.084	40.9028
847.77	39.0086
849.455	37.6552
851.141	37.1274
852.827	35.1667
854.513	30.6
856.196	27.43
857.881	24.7041
859.566	24.2942
861.248	22.7136
862.932	21.8732
864.616	20.3258
866.297	19.5096
867.98	17.3697
869.663	14.9042
871.343	13.7038
873.026	13.3346
874.707	12.5258
876.387	10.863
878.068	8.65617
879.747	7.08094
881.428	4.74781
883.108	3.87271
884.786	3.25227
886.465	2.46671
888.143	3.16943
889.822	2.21437
891.498	3.11856
893.177	2.1737
894.855	2.47467
896.53	2.06584
898.208	2.27497
899.883	2.03717
901.56	0.763507
903.234	2.93496
904.91	4.1999
906.584	5.97551
908.26	5.31484
909.933	8.40112
911.608	8.18034
913.28	9.97115
914.955	8.82338
916.627	8.84218
918.298	8.44573
919.972	7.5106
921.643	9.11169
923.315	8.33879
924.986	7.73982
926.656	7.11651
928.328	7.31432
929.997	7.32811
931.668	8.24857
933.337	8.67852
935.006	9.96523
936.676	7.40722
938.344	7.09685
940.012	9.35728
941.681	9.22931
943.348	9.87549
945.014	9.15652
946.683	8.06355
948.349	7.62872
950.015	8.03065
951.682	6.57698
953.347	7.07948
955.012	6.34089
956.676	5.04571
958.343	2.41714
960.006	0.36904
961.67	-0.617015
963.333	1.11592
964.998	4.07582
966.661	7.06251
968.323	10.0047
969.985	11.9545
971.649	15.2756
973.31	16.9991
974.971	20.1184
976.632	22.0383
978.293	25.1256
979.953	29.6996
981.615	32.4775
983.274	33.8538
984.933	36.1467
986.592	39.1716
988.251	40.2424
989.909	43.2924
991.567	46.2301
993.225	48.3291
994.884	48.0803
996.541	51.1521
998.198	52.5835
999.855	53.8428
1001.51	55.812
1003.17	55.1731
1004.82	57.4889
1006.48	56.5757
1008.13	57.1115
1009.79	57.1341
1011.44	57.2891
1013.1	56.4816
1014.75	58.9886
1016.4	62.7964
1018.06	68.792
1019.71	74.7225
1021.36	84.8763
1023.01	95.8329
1024.66	106.37
1026.32	118.25
1027.97	129.457
1029.62	140.647
1031.27	150.567
1032.92	160.263
1034.57	167.868
1036.22	175.896
1037.87	181.617
1039.52	187.805
1041.16	194.901
1042.81	201.292
1044.46	208.069
1046.11	214.278
1047.76	218.549
1049.4	221.022
1051.05	223.674
1052.7	223.074
1054.34	223.289
1055.99	221.676
1057.63	219.853
1059.28	215.435
1060.92	211.158
1062.57	206.297
1064.21	199.523
1065.85	192.246
1067.5	184.719
1069.14	175.157
1070.78	165.703
1072.43	157.087
1074.07	147.198
1075.71	134.806
1077.35	123.484
1078.99	113.09
1080.63	100.232
1082.27	87.1578
1083.91	74.2723
1085.55	60.2986
1087.19	50.2038
1088.83	39.1551
1090.47	30.7724
1092.11	22.3125
1093.75	16.7922
1095.39	13.487
1097.03	12.7595
1098.66	12.5544
1100.3	13.2119
1101.94	14.9274
1103.57	15.4956
1105.21	16.1523
1106.84	15.6272
1108.48	14.8329
1110.11	14.0104
1111.75	12.0353
1113.38	10.3646
1115.02	10.3531
1116.65	8.88169
1118.29	7.18773
1119.92	4.5575
1121.55	3.85655
1123.19	3.05287
1124.82	2.12718
1126.45	2.84005
1128.08	2.10718
1129.71	2.6704
1131.34	1.65504
1132.97	2.96064
1134.6	-0.213525
1136.23	-0.13194
1137.86	1.17544
1139.49	2.55672
1141.12	2.64855
1142.75	4.99371
1144.38	6.53629
1146.01	7.65714
1147.64	7.41555
1149.26	7.93025
1150.89	8.82187
1152.52	9.74569
1154.15	10.7034
1155.77	12.0611
1157.4	11.4951
1159.02	12.4954
1160.65	12.9892
1162.27	12.4783
1163.9	13.545
1165.52	12.1065
1167.15	13.5906
1168.77	14.2478
1170.39	14.2321
1172.02	14.113
1173.64	14.5205
1175.26	15.5238
1176.89	15.3217
1178.51	15.7003
1180.13	17.6379
1181.75	19.1955
1183.37	19.2517
1184.99	19.4923
1186.61	19.629
1188.23	20.7791
1189.85	22.9358
1191.47	25.3328
1193.09	27.3974
1194.71	30.4099
1196.33	33.2966
1197.94	35.9488
1199.56	39.574
1201.18	42.7346
1202.8	48.0616
1204.41	53.249
1206.03	57.8015
1207.65	61.9083
1209.26	65.3131
1210.88	70.5326
1212.49	73.8073
1214.11	78.9379
1215.72	83.3782
1217.34	89.8601
1218.95	96.0888
1220.57	101.2
1222.18	106.111
1223.79	109.605
1225.41	112.173
1227.02	113.804
1228.63	116.666
1230.24	119.006
1231.85	121.475
1233.47	123.012
1235.08	126.223
1236.69	129.285
1238.3	130.805
1239.91	131.433
1241.52	131.307
1243.13	132.179
1244.74	131.777
1246.34	130.92
1247.95	132.141
1249.56	130.085
1251.17	129.06
1252.78	128.301
1254.38	126.699
1255.99	124.537
1257.6	122.922
1259.2	122.274
1260.81	119.814
1262.42	115.283
1264.02	113.079
1265.63	114.801
1267.23	111.435
1268.84	112.874
1270.44	110.474
1272.04	110.23
1273.65	110.568
1275.25	111.834
1276.85	113.698
1278.46	114.575
1280.06	114.662
1281.66	115.963
1283.26	116.453
1284.86	118.955
1286.46	119.22
1288.07	120.388
1289.67	121.11
1291.27	123.149
1292.87	125.551
1294.47	128.078
1296.06	131.511
1297.66	132.352
1299.26	134.63
1300.86	136.554
1302.46	137.896
1304.06	139.807
1305.65	142.416
1307.25	144.805
1308.85	148.676
1310.44	151.044
1312.04	155.122
1313.64	159.14
1315.23	162.332
1316.83	164.15
1318.42	165.943
1320.02	165.559
1321.61	165.517
1323.2	167.781
1324.8	168.272
1326.39	168.88
1327.99	166.645
1329.58	164.898
1331.17	165.258
1332.76	163.205
1334.36	160.736
1335.95	159.192
1337.54	157.164
1339.13	155.551
1340.72	152.155
1342.31	150.159
1343.9	151.45
1345.49	149.527
1347.08	145.419
1348.67	145.897
1350.26	142.63
1351.85	142.526
1353.43	139.744
1355.02	136.673
1356.61	132.653
1358.2	130.24
1359.78	128.63
1361.37	127.306
1362.96	124.559
1364.54	124.703
1366.13	121.093
1367.71	119.468
1369.3	116.576
1370.88	115.08
1372.47	113.095
1374.05	111.173
1375.64	109.948
1377.22	108.627
1378.8	108.547
1380.39	107.024
1381.97	107.541
1383.55	107.837
1385.13	105.655
1386.72	105.613
1388.3	106.29
1389.88	105.863
1391.46	105.936
1393.04	104.558
1394.62	101.539
1396.2	100.577
1397.78	98.7993
1399.36	95.8978
1400.94	96.2773
1402.52	97.0565
1404.1	97.2558
1405.68	96.9906
1407.25	98.8231
1408.83	102.922
1410.41	105.384
1411.98	106.88
1413.56	112.104
1415.14	118.371
1416.71	124.079
1418.29	130.35
1419.87	137.143
1421.44	145.342
1423.02	154.401
1424.59	160.52
1426.16	168.366
1427.74	174.94
1429.31	180.422
1430.89	187.352
1432.46	196.28
1434.03	205.443
1435.6	213.106
1437.18	220.923
1438.75	225.114
1440.32	231.147
1441.89	237.619
1443.46	242.209
1445.03	244.226
1446.6	246.58
1448.17	247.186
1449.74	247.17
1451.31	247.751
1452.88	248.045
1454.45	245.838
1456.02	243.934
1457.59	241.098
1459.16	237.684
1460.72	234.514
1462.29	227.598
1463.86	219.413
1465.43	212.857
1466.99	206.624
1468.56	198.261
1470.13	190.155
1471.69	180.12
1473.26	170.917
1474.82	163.911
1476.38	156.311
1477.95	148.913
1479.51	142.509
1481.08	135.501
1482.64	127.726
1484.2	120.808
1485.77	114.297
1487.33	107.187
1488.89	101.145
1490.46	97.6661
1492.02	93.4659
1493.58	89.4312
1495.14	84.1648
1496.7	80.9079
1498.26	78.0725
1499.82	75.4208
1501.38	71.8992
1502.94	68.4093
1504.5	65.8874
1506.06	64.3587
1507.62	64.056
1509.18	64.566
1510.73	64.2782
1512.29	63.0583
1513.85	61.3846
1515.41	61.7695
1516.96	61.2816
1518.52	61.6402
1520.08	60.8508
1521.63	59.6278
1523.19	59.8786
1524.75	58.648
1526.3	59.0285
1527.85	59.9419
1529.41	61.4096
1530.96	61.9013
1532.52	61.0146
1534.07	62.344
1535.62	63.5294
1537.18	64.2826
1538.73	64.9235
1540.28	64.4707
1541.84	65.9446
1543.39	68.4504
1544.94	71.4487
1546.49	71.9247
1548.04	74.2115
1549.59	75.5239
1551.14	78.927
1552.69	81.7813
1554.25	82.8264
1555.79	83.4119
1557.34	84.8373
1558.89	85.8161
1560.44	87.2463
1561.99	89.4235
1563.54	91.2744
1565.08	94.2417
1566.63	97.0357
1568.18	100.03
1569.73	101.941
1571.27	106.412
1572.82	108.728
1574.37	113.377
1575.91	116.036
1577.46	119.204
1579	122.285
1580.55	126.511
1582.09	128.832
1583.64	133.134
1585.18	136.627
1586.73	139.772
1588.27	141.299
1589.81	145.095
1591.35	146.335
1592.9	147.879
1594.44	149.152
1595.98	150.427
1597.52	151.116
1599.06	149.741
1600.61	150.342
1602.15	148.209
1603.69	147.861
1605.23	146.72
1606.77	144.731
1608.31	144.185
1609.85	142.428
1611.39	142.557
1612.93	141.715
1614.46	140.729
1616	139.697
1617.54	139.911
1619.08	140.441
1620.61	139.684
1622.15	139.387
1623.69	139.425
1625.23	139.476
1626.76	137.627
1628.3	138.483
1629.83	138.453
1631.37	137.381
1632.9	137.982
1634.44	138.807
1635.97	140.211
1637.51	140.53
1639.04	141.102
1640.57	142.952
1642.11	144.699
1643.64	146.971
1645.17	149.527
1646.71	152.577
1648.24	154.282
1649.77	153.777
1651.3	156.294
1652.83	157.184
1654.36	159.025
1655.89	159.908
1657.42	158.766
1658.96	158.808
1660.48	160.441
1662.01	159.937
1663.54	156.253
1665.07	153.516
1666.6	151.641
1668.13	148.593
1669.66	145.791
1671.19	142.235
1672.71	136.164
1674.24	130.339
1675.77	124.734
1677.29	121.07
1678.82	115.733
1680.35	111.691
1681.87	107.328
1683.4	101.332
1684.92	95.9136
1686.45	90.2441
1687.97	86.4864
1689.5	82.7578
1691.02	79.1003
1692.54	75.2558
1694.07	69.809
1695.59	64.7841
1697.11	59.2877
1698.64	54.5831
1700.16	49.3063
1701.68	43.9049
1703.2	40.3915
1704.72	38.1549
1706.25	34.3641
1707.77	31.0129
1709.29	28.4271
1710.81	25.7511
1712.33	22.6358
1713.85	19.5828
1715.37	19.0492
1716.89	17.7793
1718.41	17.5723
1719.92	16.5198
1721.44	15.4894
1722.96	14.5281
1724.48	13.5167
1725.99	13.8975
1727.51	14.6668
1729.03	13.8715
1730.55	13.7963
1732.06	13.8743
1733.58	14.1082
1735.09	15.9148
1736.61	15.898
1738.13	14.598
1739.64	12.9872
1741.15	13.9864
1742.67	13.9275
1744.18	13.6207
1745.7	12.7903
1747.21	11.9004
1748.72	10.8453
1750.24	11.6213
1751.75	11.8021
1753.26	11.8877
1754.77	11.9575
1756.29	11.0851
1757.8	9.75024
1759.31	9.45767
1760.82	10.7729
1762.33	11.6226
1763.84	12.0113
1765.35	12.0749
1766.86	11.363
1768.37	9.37428
1769.88	7.49751
1771.39	7.326
1772.9	5.7055
1774.4	4.27499
1775.91	3.84746
1777.42	4.65786
1778.93	5.58483
1780.44	4.6959
1781.94	3.78239
1783.45	2.55554
1784.96	1.73768
1786.46	1.86979
1787.97	1.32021
1789.47	2.03102
1790.98	2.37059
1792.48	1.59744
1793.99	2.63319
1795.49	1.80834
1797	2.40051
1798.5	2.99883
1800.01	3.59254
1801.51	2.761
1803.01	3.04832
1804.51	4.02963
1806.02	4.83281
1807.52	5.16813
1809.02	5.10702
1810.52	4.49406
1812.02	3.47076
1813.52	2.71125
1815.02	1.90484
1816.53	2.30609
1818.03	2.01737
1819.52	2.06838
1821.02	2.40364
1822.52	2.40442
1824.02	2.66884
1825.52	3.63925
1827.02	3.99656
1828.52	2.90357
1830.02	2.65574
1831.51	3.53376
1833.01	4.17391
1834.51	5.11693
1836.01	5.72478
1837.5	5.73906
1839	5.02091
1840.49	5.43184
1841.99	5.7152
1843.49	6.2325
1844.98	7.294
1846.48	7.64388
1847.97	7.79392
1849.47	8.62047
1850.96	8.61632
1852.45	9.17582
1853.95	9.40385
1855.44	9.39756
1856.93	9.4088
1858.42	10.4874
1859.92	11.6565
1861.41	12.0289
1862.9	12.4692
1864.39	12.8746
1865.88	12.3567
1867.38	12.042
1868.87	11.7569
1870.36	9.74716
1871.85	9.47636
1873.34	8.67041
1874.83	7.61306
1876.32	7.74527
1877.81	8.40811
1879.29	8.29135
1880.78	7.80788
1882.27	7.71959
1882.53	7.54192
1884.03	7.2742
1885.52	7.07678
1887.01	6.80951
1888.51	7.78203
1890	9.41274
1891.5	9.02715
1892.99	9.38111
1894.48	9.03363
1895.97	8.40823
1897.47	9.28366
1898.96	9.37825
1900.45	9.43033
1901.94	8.73061
1903.43	9.16991
1904.92	10.3348
1906.41	9.94667
1907.9	10.9492
1909.39	11.9916
1910.88	12.9145
1912.37	13.0662
1913.86	15.9596
1915.35	16.8459
1916.84	17.5049
1918.33	16.6188
1919.81	16.3219
1921.3	15.95
1922.79	16.0554
1924.28	14.6337
1925.76	15.3139
1927.25	15.1523
1928.73	14.9312
1930.22	13.915
1931.71	13.9144
1933.19	12.7977
1934.68	11.6978
1936.16	10.5907
1937.65	7.84172
1939.13	5.94909
1940.62	4.69664
1942.1	3.43409
1943.58	3.27167
1945.07	3.87766
1946.55	3.11857
1948.03	3.72231
1949.51	4.70949
1951	5.08589
1952.48	5.3835
1953.96	5.22126
1955.44	4.45999
1956.92	4.33482
1958.4	4.38204
1959.88	4.34914
1961.36	4.49587
1962.84	5.34268
1964.32	5.76523
1965.8	5.53486
1967.28	6.1541
1968.76	6.77179
1970.24	6.49358
1971.72	6.77813
1973.2	6.60635
1974.67	6.32552
1976.15	6.13559
1977.63	6.48637
1979.1	7.41765
1980.58	8.50082
1982.06	10.3903
1983.54	10.8293
1985.01	10.7762
1986.49	11.1694
1987.96	11.894
1989.44	11.1856
1990.91	12.0291
1992.39	12.1424
1993.86	12.9335
1995.33	12.5479
1996.81	13.4581
1998.28	12.7452
1999.75	13.5651
2001.23	14.1392
2002.7	13.6381
2004.17	13.1064
2005.65	14.3137
2007.12	14.6704
2008.59	13.9748
2010.06	13.0385
2011.53	12.9923
2013	13.5074
2014.47	14.4
2015.94	14.1163
2017.41	14.9956
2018.88	14.9656
2020.35	15.0595
2021.82	16.0618
2023.29	16.6938
2024.76	15.8895
2026.23	14.883
2027.69	13.7205
2029.16	13.3136
2030.63	14.4664
2032.1	14.6263
2033.56	14.3699
2035.03	15.402
2036.5	16.1379
2037.96	16.2577
2039.43	15.9222
2040.89	15.9841
2042.36	15.2381
2043.83	12.875
2045.29	12.9017
2046.75	12.4508
2048.22	12.3273
2049.68	13.2964
2051.15	13.5656
2052.61	14.0702
2054.07	15.1512
2055.54	15.5697
2057	15.7884
2058.46	17.298
2059.92	18.7093
2061.39	18.07
2062.85	18.8555
2064.31	18.419
2065.77	18.0494
2067.23	18.1428
2068.69	18.0341
2070.15	18.3335
2071.61	17.9603
2073.07	18.7177
2074.53	19.7667
2075.99	19.8028
2077.45	20.3958
2078.91	20.0772
2080.37	19.3578
2081.82	18.2492
2083.28	18.2689
2084.74	18.0581
2086.2	18.1637
2087.65	18.2607
2089.11	18.4119
2090.57	19.2933
2092.02	19.4929
2093.48	18.9717
2094.94	18.6054
2096.39	17.424
2097.85	16.168
2099.3	15.4598
2100.76	15.4116
2102.21	17.3478
2103.66	19.3636
2105.12	19.6785
2106.57	18.9972
2108.03	19.7694
2109.48	19.2932
2110.93	18.4501
2112.38	19.5666
2113.84	19.6365
2115.29	18.7528
2116.74	17.4748
2118.19	18.3261
2119.64	17.9664
2121.09	18.5584
2122.54	18.957
2123.99	19.5474
2125.45	19.7511
2126.89	20.0094
2128.34	20.0481
2129.79	19.6688
2131.24	19.1442
2132.69	17.9558
