#Acq. time (s)=	45
#Accumulations=	2
#Range (cm-¹)=	200...3150
#Windows=	2
#Auto scanning=	Off
#Autofocus=	Off
#Macrospot=	Off
#AutoExposure=	Off
#Spike filter=	Multiple accum.
#Delay time (s)=	0
#Binning=	1
#Readout mode=	Signal
#DeNoise=	Off
#ICS correction=	On
#Dark correction=	Off
#Inst. Process=	Off
#Detector Gain=	Best Dynamic Range
#Detector ADC=	20 kHz       
#Detector temperature (°C)=	-69.85
#Instrument=	LabRAM HR Evol
#Detector=	Synapse
#Objective=	x100
#Grating=	600 gr/mm
#ND Filter=	100%
#Laser (nm)=	532 
#Hole=	100.021
#Range=	Auto
#Laser Pol.=	No
#Raman. Pol.=	No
#Laser Pol. (°)=	-0.0007625
#Raman Pol. (°)=	89.9995
#Collection=	Microscope
#StageXY=	Marzhauser
#StageZ=	Marzhauser
#X (µm)=	-1031
#Y (µm)=	-2917.4
#Z (µm)=	527.85
#Full time(mm:ss)=	3:18
#Project=	
#Sample=	
#Site=	
#Title=	Mb_00_13_17_2x_45s_532 nm_x100_100%_600 gr_mm
#Remark=	
#Date=	06.07.2022 10:54
#Acquired=	06.07.2022 10:54:19
#Base:Fit=	06.07.2022 10:56:24
#Base:Fit=	06.07.2022 10:56:30
#Base:Fit=	06.07.2022 10:56:33
#Base:Fit=	06.07.2022 10:56:36
#Edit:Spike=	06.07.2022 10:57:31
#Edit:Spike=	06.07.2022 10:57:32
#Base:Fit=	10.08.2022 10:16:56
#Base:Sub=	10.08.2022 10:17:24
#Filter:Polynom=	16.08.2022 10:36:38
#AxisType[0]=Intens
#AxisUnit[0]=Cnt
#AxisType[1]=Spectr
#AxisUnit[1]=1/cm
200.398	29.0628
202.213	19.4923
204.027	13.5828
205.843	7.8676
207.657	1.42041
209.47	-2.82002
211.283	-6.07758
213.097	-7.38225
214.909	-6.66702
216.721	-5.52444
218.533	1.21408
220.344	8.71008
222.157	17.6304
223.967	27.416
225.777	38.9052
227.587	50.2336
229.396	64.3159
231.205	77.1479
233.016	87.7915
234.824	99.5997
236.632	110.178
238.439	123.157
240.247	135.503
242.053	147.28
243.86	157.092
245.666	166.113
247.474	177.419
249.279	189.688
251.085	199.909
252.889	208.257
254.694	216.173
256.498	219.698
258.301	223.138
260.105	227.82
261.908	231.284
263.71	230.362
265.513	232.383
267.315	229.798
269.116	229.832
270.918	225.046
272.718	218.719
274.519	211.731
276.319	203.363
278.119	195.468
279.918	185.054
281.718	176.455
283.516	164.338
285.315	154.256
287.113	143.721
288.911	132.043
290.708	123.109
292.505	110.657
294.302	99.7322
296.098	90.1272
297.894	82.1553
299.69	72.2569
301.485	62.7213
303.278	53.6107
305.073	46.6689
306.867	41.1447
308.661	37.5694
310.454	32.4376
312.247	28.395
314.04	25.2991
315.833	23.4113
317.623	20.754
319.415	19.6944
321.206	19.6055
322.997	18.2055
324.788	19.3018
326.579	20.6144
328.367	21.208
330.156	20.3073
331.946	19.8253
333.735	19.2569
335.523	19.2334
337.31	18.1381
339.098	18.7804
340.885	16.9659
342.673	14.615
344.458	12.7288
346.244	12.072
348.03	9.78525
349.816	11.9121
351.6	10.4877
353.385	7.81858
355.17	7.12978
356.953	5.32616
358.737	5.85452
360.521	4.53281
362.304	5.91272
364.085	10.4905
365.868	12.3955
367.65	17.7038
369.431	22.0033
371.212	25.9457
372.994	29.2057
374.773	34.4872
376.554	40.9283
378.332	47.1915
380.112	52.6056
381.892	60.7705
383.669	71.8321
385.448	81.3313
387.225	91.1814
389.003	102.621
390.781	112.012
392.557	123.369
394.334	137.231
396.109	149.046
397.885	160.813
399.66	171.147
401.436	180.874
403.211	189.244
404.984	197.433
406.759	202.936
408.532	209.228
410.306	213.748
412.078	215.333
413.851	217.361
415.623	218.307
417.395	216.684
419.166	214.78
420.938	210.882
422.708	207.49
424.477	202.902
426.248	196.909
428.017	189.746
429.788	178.754
431.556	170.179
433.326	160.32
435.093	150.029
436.86	138.428
438.629	128.899
440.395	114.484
442.163	102.022
443.929	92.4692
445.694	81.172
447.461	71.3595
449.226	60.1274
450.99	51.2987
452.756	45.3919
454.52	35.7403
456.285	26.8308
458.048	17.5998
459.811	8.07489
461.573	4.03923
463.337	-1.00765
465.099	-2.51283
466.86	-5.05551
468.623	-5.92981
470.384	-3.72681
472.144	-3.50005
473.906	-2.69411
475.666	0.0550563
477.425	1.72984
479.184	4.03355
480.944	7.83529
482.703	9.52467
484.461	11.3426
486.218	14.6624
487.975	16.861
489.734	19.9482
491.491	22.798
493.247	29.6669
495.003	32.3215
496.759	36.5427
498.516	41.6739
500.271	45.1976
502.025	49.5007
503.779	52.5899
505.533	53.7867
507.287	56.2746
509.042	58.7421
510.795	61.594
512.547	63.3858
514.299	64.1743
516.051	65.2903
517.803	67.4146
519.554	71.0563
521.305	71.0021
523.055	71.5496
524.805	72.5636
526.555	72.6156
528.307	71.8103
530.056	72.2789
531.805	72.215
533.553	69.9893
535.301	69.3823
537.049	66.3537
538.797	64.2965
540.544	61.6601
542.291	56.1213
544.037	51.2529
545.783	48.3681
547.529	45.8549
549.275	41.6568
551.02	37.3631
552.765	33.0911
554.509	29.4887
556.253	25.7269
557.997	24.4718
559.738	21.5117
561.482	18.9934
563.224	18.2347
564.967	14.7011
566.709	13.9814
568.451	11.5327
570.192	7.73833
571.933	8.36841
573.674	6.57796
575.415	5.24539
577.153	4.64197
578.893	5.06224
580.632	7.32796
582.371	6.14419
584.11	6.85469
585.849	7.59534
587.587	5.58219
589.323	5.14118
591.06	4.40357
592.797	1.79122
594.534	1.0323
596.271	0.755032
598.005	0.50788
599.741	2.29129
601.476	4.35576
603.211	6.87236
604.944	10.4894
606.679	11.7576
608.413	13.3711
610.147	15.037
611.878	15.9468
613.611	16.212
615.344	17.6618
617.077	19.7131
618.807	21.0362
620.539	21.1907
622.27	22.2451
623.999	24.1236
625.73	24.5282
627.461	27.6686
629.189	30.2239
630.919	36.0201
632.648	41.6536
634.376	45.6465
636.105	48.8009
637.833	54.1027
639.559	57.3868
641.287	62.4186
643.013	64.6553
644.74	70.9375
646.467	73.4952
648.192	75.6847
649.918	76.5953
651.642	74.9046
653.368	74.2571
655.091	72.3244
656.816	71.3896
658.538	70.708
660.263	68.9564
661.987	70.657
663.708	70.3151
665.432	69.5675
667.153	68.2198
668.875	63.3523
670.596	59.7447
672.318	56.0557
674.037	51.5686
675.759	49.759
677.478	47.341
679.196	43.0021
680.917	40.3565
682.635	39.0501
684.355	34.7719
686.072	33.2329
687.791	29.071
689.508	26.3958
691.224	21.5525
692.942	16.7071
694.658	11.7862
696.376	9.80663
698.091	5.98045
699.805	4.17658
701.522	3.72851
703.236	1.97984
704.95	1.48752
706.665	-0.863091
708.379	-0.17046
710.093	3.04917
711.806	3.26829
713.518	6.62621
715.23	8.76766
716.943	10.7483
718.655	10.3301
720.366	9.20411
722.078	8.37355
723.788	9.10286
725.498	8.91367
727.208	8.79703
728.919	10.3305
730.628	12.132
732.337	9.93151
734.045	8.54134
735.755	8.58143
737.463	9.51691
739.17	12.8186
740.877	14.3323
742.584	18.4594
744.292	20.5359
745.998	27.0649
747.704	30.3389
749.409	31.3947
751.114	32.9882
752.819	35.6995
754.526	38.4214
756.23	42.6494
757.934	45.9301
759.637	47.5645
761.34	50.9095
763.043	51.0089
764.746	51.5578
766.448	52.902
768.152	55.1145
769.853	54.9978
771.554	58.015
773.255	57.7388
774.956	59.9226
776.656	59.4823
778.356	62.5033
780.056	63.2772
781.755	66.0387
783.454	65.581
785.153	67.4801
786.851	67.2587
788.549	66.7942
790.247	68.3246
791.944	66.2335
793.641	67.6756
795.338	67.9512
797.034	68.1461
798.73	67.4726
800.426	66.4619
802.121	66.3617
803.817	65.0603
805.511	63.404
807.206	63.955
808.9	63.0924
810.592	62.0986
812.286	61.286
813.979	61.7005
815.672	60.1315
817.364	58.7859
819.057	59.7234
820.748	59.6379
822.44	59.7478
824.129	59.4078
825.82	59.027
827.511	62.1802
829.201	62.89
830.891	62.6375
832.581	59.4826
834.269	57.87
835.958	57.1951
837.646	57.7256
839.335	56.7045
841.023	55.1248
842.709	52.6001
844.396	48.9003
846.084	48.7852
847.77	46.312
849.455	44.5002
851.141	44.1141
852.827	42.0653
854.513	40.0374
856.196	38.6723
857.881	34.7535
859.566	33.9565
861.248	30.8814
862.932	28.0785
864.616	25.4993
866.297	22.697
867.98	22.5834
869.663	20.087
871.343	19.7753
873.026	20.4442
874.707	19.3817
876.387	16.6466
878.068	17.3944
879.747	20.1515
881.428	19.5805
883.108	18.2446
884.786	16.3852
886.465	14.395
888.143	11.6436
889.822	11.3367
891.498	12.3812
893.177	10.1075
894.855	10.6007
896.53	12.0594
898.208	12.4601
899.883	11.7104
901.56	12.5376
903.234	14.1071
904.91	15.1743
906.584	16.7367
908.26	19.5608
909.933	21.7505
911.608	22.0848
913.28	20.1083
914.955	19.9945
916.627	20.0319
918.298	23.0774
919.972	23.9298
921.643	26.4408
923.315	26.8676
924.986	26.0967
926.656	27.173
928.328	29.8311
929.997	31.1387
931.668	31.3708
933.337	32.9897
935.006	34.5054
936.676	35.226
938.344	35.2562
940.012	34.448
941.681	34.0862
943.348	33.4419
945.014	31.7922
946.683	32.823
948.349	32.2076
950.015	33.652
951.682	35.091
953.347	33.5175
955.012	34.2169
956.676	31.8512
958.343	28.9158
960.006	27.926
961.67	28.2876
963.333	30.1428
964.998	29.5447
966.661	31.8843
968.323	33.7207
969.985	36.6197
971.649	41.5703
973.31	48.1735
974.971	51.23
976.632	53.7545
978.293	58.2967
979.953	60.7436
981.615	61.0371
983.274	63.8802
984.933	66.9579
986.592	68.7719
988.251	70.3288
989.909	70.8876
991.567	70.9967
993.225	71.0997
994.884	71.7128
996.541	73.3359
998.198	78.2558
999.855	80.196
1001.51	82.5731
1003.17	83.83
1004.82	84.8515
1006.48	83.4488
1008.13	84.3257
1009.79	85.1525
1011.44	85.3311
1013.1	85.1731
1014.75	88.5616
1016.4	91.8561
1018.06	95.6716
1019.71	102.445
1021.36	108.053
1023.01	115.933
1024.66	125.264
1026.32	132.996
1027.97	142.65
1029.62	150.137
1031.27	157.661
1032.92	165.432
1034.57	169.35
1036.22	173.018
1037.87	178.218
1039.52	183.744
1041.16	187.181
1042.81	190.626
1044.46	195.739
1046.11	198.937
1047.76	201.306
1049.4	202.37
1051.05	203.73
1052.7	201.668
1054.34	200.864
1055.99	196.915
1057.63	190.158
1059.28	185.057
1060.92	177.34
1062.57	168.114
1064.21	161.802
1065.85	155.523
1067.5	146.983
1069.14	141.64
1070.78	133.003
1072.43	124.304
1074.07	115.102
1075.71	107.312
1077.35	97.405
1078.99	87.2883
1080.63	76.7856
1082.27	65.1029
1083.91	53.8066
1085.55	43.4568
1087.19	33.1939
1088.83	24.5174
1090.47	19.2663
1092.11	12.2798
1093.75	11.2538
1095.39	10.1904
1097.03	9.77606
1098.66	10.3779
1100.3	12.058
1101.94	14.9995
1103.57	17.7613
1105.21	19.8552
1106.84	18.3457
1108.48	18.4303
1110.11	19.2024
1111.75	18.3539
1113.38	18.3124
1115.02	17.1604
1116.65	16.5933
1118.29	14.5541
1119.92	15.3974
1121.55	16.2174
1123.19	15.8162
1124.82	15.7052
1126.45	18.4487
1128.08	17.9203
1129.71	19.3952
1131.34	20.7234
1132.97	21.9344
1134.6	19.3828
1136.23	19.4195
1137.86	19.2009
1139.49	19.7208
1141.12	20.8122
1142.75	22.0744
1144.38	24.56
1146.01	28.3544
1147.64	28.7678
1149.26	29.826
1150.89	32.5856
1152.52	30.0152
1154.15	28.7512
1155.77	25.839
1157.4	27.2051
1159.02	27.4492
1160.65	25.0749
1162.27	25.3948
1163.9	25.6902
1165.52	26.24
1167.15	27.5736
1168.77	30.8829
1170.39	32.1014
1172.02	34.4145
1173.64	35.7313
1175.26	39.9682
1176.89	40.5233
1178.51	43.8409
1180.13	46.6514
1181.75	50.0459
1183.37	54.5167
1184.99	59.5168
1186.61	61.7573
1188.23	65.3348
1189.85	73.2431
1191.47	79.3475
1193.09	84.1956
1194.71	88.6277
1196.33	94.8296
1197.94	100.217
1199.56	107.075
1201.18	115.471
1202.8	121.791
1204.41	127.16
1206.03	132.754
1207.65	140.389
1209.26	146.929
1210.88	155.935
1212.49	161.734
1214.11	168.048
1215.72	173.362
1217.34	181.563
1218.95	188.497
1220.57	194.463
1222.18	200.757
1223.79	205.959
1225.41	212.201
1227.02	214.618
1228.63	217.609
1230.24	221.473
1231.85	225.624
1233.47	228.55
1235.08	230.91
1236.69	235.311
1238.3	242.051
1239.91	244.161
1241.52	244.759
1243.13	250.438
1244.74	252.34
1246.34	257.129
1247.95	258.808
1249.56	261.465
1251.17	263.324
1252.78	264.851
1254.38	267.333
1255.99	268.551
1257.6	271.146
1259.2	273.591
1260.81	276.428
1262.42	279.884
1264.02	282.12
1265.63	283.398
1267.23	285.77
1268.84	287.735
1270.44	290.395
1272.04	292.051
1273.65	295.457
1275.25	299.414
1276.85	303.293
1278.46	306.671
1280.06	310.254
1281.66	315.147
1283.26	321.964
1284.86	330.171
1286.46	336.492
1288.07	342.549
1289.67	351.602
1291.27	355.7
1292.87	360.549
1294.47	367.215
1296.06	371.952
1297.66	377.004
1299.26	382.307
1300.86	389.555
1302.46	396.139
1304.06	402.567
1305.65	409.409
1307.25	415.058
1308.85	423.625
1310.44	428.256
1312.04	436.423
1313.64	441.685
1315.23	447.06
1316.83	454.406
1318.42	457.903
1320.02	460.261
1321.61	464.137
1323.2	469.96
1324.8	471.418
1326.39	474.554
1327.99	474.276
1329.58	473.592
1331.17	475.147
1332.76	475.289
1334.36	476.155
1335.95	476.442
1337.54	478.7
1339.13	476.771
1340.72	475.732
1342.31	471.99
1343.9	471.314
1345.49	469.625
1347.08	467.259
1348.67	463.79
1350.26	461.515
1351.85	460.873
1353.43	459.078
1355.02	454.995
1356.61	450.16
1358.2	447.896
1359.78	443.948
1361.37	442.861
1362.96	438.26
1364.54	433.256
1366.13	427.5
1367.71	424.169
1369.3	420.995
1370.88	414.225
1372.47	413.483
1374.05	409.617
1375.64	403.239
1377.22	400.88
1378.8	397.758
1380.39	395.778
1381.97	394.053
1383.55	391.954
1385.13	389.603
1386.72	388.798
1388.3	385.5
1389.88	381.099
1391.46	380.269
1393.04	376.123
1394.62	372.654
1396.2	368.834
1397.78	363.548
1399.36	360.485
1400.94	358.777
1402.52	356.216
1404.1	351.888
1405.68	352.135
1407.25	351.473
1408.83	349.207
1410.41	352.89
1411.98	354.068
1413.56	356.111
1415.14	358.088
1416.71	361.362
1418.29	363.113
1419.87	366.4
1421.44	374.631
1423.02	379.754
1424.59	384.095
1426.16	389.397
1427.74	395.101
1429.31	400.956
1430.89	406.567
1432.46	411.2
1434.03	415.838
1435.6	418.818
1437.18	423.665
1438.75	426.779
1440.32	429.625
1441.89	430.611
1443.46	433.371
1445.03	432.597
1446.6	432.785
1448.17	431.375
1449.74	429.02
1451.31	427.956
1452.88	423.838
1454.45	418.476
1456.02	416.537
1457.59	408.638
1459.16	403.853
1460.72	399.811
1462.29	392.477
1463.86	384.841
1465.43	373.849
1466.99	363.604
1468.56	352.236
1470.13	341.253
1471.69	326.958
1473.26	314.061
1474.82	303.359
1476.38	292.387
1477.95	283.494
1479.51	272.641
1481.08	262.372
1482.64	253.915
1484.2	246.704
1485.77	237.895
1487.33	228.38
1488.89	224.87
1490.46	220.707
1492.02	217.836
1493.58	214.601
1495.14	213.032
1496.7	211.027
1498.26	210.037
1499.82	211.938
1501.38	210.063
1502.94	210.152
1504.5	210.719
1506.06	211.648
1507.62	214.301
1509.18	213.92
1510.73	215.942
1512.29	218.053
1513.85	218.73
1515.41	222.449
1516.96	224.976
1518.52	227.778
1520.08	231.008
1521.63	234.894
1523.19	235.749
1524.75	241.104
1526.3	244.436
1527.85	248.24
1529.41	253.88
1530.96	257.564
1532.52	260.772
1534.07	265.214
1535.62	268.905
1537.18	276.639
1538.73	283.576
1540.28	286.437
1541.84	292.044
1543.39	295.274
1544.94	303.098
1546.49	307.655
1548.04	310.541
1549.59	315.457
1551.14	323.132
1552.69	329.904
1554.25	335.125
1555.79	341.004
1557.34	345.248
1558.89	351.979
1560.44	357.677
1561.99	362.536
1563.54	366.602
1565.08	373.013
1566.63	380.999
1568.18	386.545
1569.73	392.491
1571.27	397.593
1572.82	404.525
1574.37	410.183
1575.91	416.205
1577.46	423.803
1579	429.608
1580.55	434.304
1582.09	439.564
1583.64	444.046
1585.18	449.006
1586.73	450.611
1588.27	456.405
1589.81	458.963
1591.35	458.738
1592.9	462.734
1594.44	462.519
1595.98	461.354
1597.52	458.645
1599.06	457.244
1600.61	453.535
1602.15	451.081
1603.69	447.147
1605.23	442.277
1606.77	436.362
1608.31	428.765
1609.85	422.105
1611.39	414.458
1612.93	407.576
1614.46	399.357
1616	391.144
1617.54	379.755
1619.08	373.287
1620.61	362.692
1622.15	354.603
1623.69	345.346
1625.23	334.009
1626.76	327.174
1628.3	317.565
1629.83	307.032
1631.37	295.9
1632.9	287.525
1634.44	277.636
1635.97	268.68
1637.51	257.434
1639.04	248.825
1640.57	241.743
1642.11	235.791
1643.64	229.057
1645.17	224.626
1646.71	221.437
1648.24	217.397
1649.77	215.082
1651.3	210.228
1652.83	207.411
1654.36	204.497
1655.89	200.417
1657.42	198.324
1658.96	194.552
1660.48	191.671
1662.01	187.974
1663.54	182.455
1665.07	180.549
1666.6	174.096
1668.13	168.461
1669.66	164.738
1671.19	157.273
1672.71	149.985
1674.24	144.477
1675.77	139.078
1677.29	131.799
1678.82	125.047
1680.35	119.044
1681.87	111.881
1683.4	105.506
1684.92	98.0627
1686.45	92.1614
1687.97	84.7924
1689.5	77.8289
1691.02	70.3562
1692.54	65.2805
1694.07	57.9739
1695.59	54.1597
1697.11	48.7371
1698.64	44.0866
1700.16	37.553
1701.68	31.2026
1703.2	27.0569
1704.72	22.4682
1706.25	16.8699
1707.77	12.7718
1709.29	10.7596
1710.81	6.59887
1712.33	3.13678
1713.85	0.0226115
1715.37	-0.414454
1716.89	-0.587022
1718.41	-0.723081
1719.92	0.559015
1721.44	0.458772
1722.96	-0.463
1724.48	0.437114
1725.99	1.75808
1727.51	3.03102
1729.03	4.22057
1730.55	5.67089
1732.06	8.51172
1733.58	11.1869
1735.09	12.0695
1736.61	14.5554
1738.13	16.0996
1739.64	19.1318
1741.15	22.4097
1742.67	23.5195
1744.18	25.1786
1745.7	27.8218
1747.21	30.8615
1748.72	34.529
1750.24	39.1875
1751.75	42.0881
1753.26	44.7269
1754.77	47.5195
1756.29	51.0867
1757.8	52.8441
1759.31	54.8869
1760.82	57.7017
1762.33	60.6953
1763.84	62.9578
1765.35	66.2836
1766.86	68.158
1768.37	71.8876
1769.88	73.9535
1771.39	77.1098
1772.9	80.5239
1774.4	80.822
1775.91	81.4335
1777.42	84.0392
1778.93	85.7629
1780.44	88.5141
1781.94	88.6517
1783.45	89.5764
1784.96	91.3067
1786.46	92.0474
1787.97	92.9222
1789.47	93.4901
1790.98	93.3966
1792.48	95.3717
1793.99	94.5464
1795.49	94.5746
1797	94.1301
1798.5	94.7335
1800.01	96.6015
1801.51	96.0039
1803.01	95.7731
1804.51	93.7113
1806.02	93.9741
1807.52	94.1792
1809.02	93.1351
1810.52	92.8456
1812.02	92.3385
1813.52	90.8798
1815.02	91.9634
1816.53	90.5679
1818.03	88.8287
1819.52	87.8307
1821.02	89.6729
1822.52	88.9447
1824.02	88.4205
1825.52	85.5993
1827.02	84.739
1828.52	84.0761
1830.02	83.6638
1831.51	84.1506
1833.01	84.4863
1834.51	85.5215
1836.01	86.8023
1837.5	87.2149
1839	87.2068
1840.49	87.4554
1841.99	86.5389
1843.49	88.9633
1844.98	88.1114
1846.48	87.3822
1847.97	85.6956
1849.47	82.5279
1850.96	80.6829
1852.45	81.2872
1853.95	80.327
1855.44	79.5229
1856.93	77.2689
1858.42	75.6474
1859.92	73.6728
1861.41	71.2793
1862.9	68.9889
1864.39	65.2831
1865.88	64.1492
1867.38	62.551
1868.87	59.8365
1870.36	59.3061
1871.85	56.9952
1873.34	53.3175
1874.83	51.6507
1876.32	49.0987
1877.81	46.5609
1879.29	45.6409
1880.78	45.6478
1882.27	44.7428
1882.53	43.4958
1884.03	43.1302
1885.52	42.2612
1887.01	42.5521
1888.51	39.8157
1890	38.3249
1891.5	37.4165
1892.99	36.5058
1894.48	34.3509
1895.97	32.3267
1897.47	32.9641
1898.96	30.7101
1900.45	31.1839
1901.94	30.015
1903.43	30.0165
1904.92	32.1791
1906.41	32.7951
1907.9	32.1981
1909.39	31.7187
1910.88	30.0711
1912.37	27.5836
1913.86	26.4688
1915.35	26.0126
1916.84	24.7205
1918.33	23.63
1919.81	21.8886
1921.3	20.3551
1922.79	18.8073
1924.28	20.1601
1925.76	18.5353
1927.25	15.3786
1928.73	14.8263
1930.22	12.9017
1931.71	11.5257
1933.19	9.31151
1934.68	9.71276
1936.16	9.57182
1937.65	9.04743
1939.13	7.93932
1940.62	7.93293
1942.1	8.48216
1943.58	8.13453
1945.07	7.42703
1946.55	7.41998
1948.03	8.08585
1949.51	9.90605
1951	8.80768
1952.48	9.33646
1953.96	7.61094
1955.44	6.06245
1956.92	5.47482
1958.4	5.90929
1959.88	4.97386
1961.36	4.68421
1962.84	2.3885
1964.32	4.27255
1965.8	2.99879
1967.28	0.38836
1968.76	0.244839
1970.24	-0.78092
1971.72	-1.79267
1973.2	-3.42368
1974.67	-1.95912
1976.15	0.502854
1977.63	1.74203
1979.1	2.74866
1980.58	1.07226
1982.06	1.18487
1983.54	1.84684
1985.01	3.05321
1986.49	5.58407
1987.96	6.6518
1989.44	9.42223
1990.91	9.23431
1992.39	11.7248
1993.86	12.7524
1995.33	14.8033
1996.81	15.645
1998.28	16.4808
1999.75	15.4553
2001.23	16.3708
2002.7	19.9322
2004.17	22.0956
2005.65	25.4509
2007.12	27.3301
2008.59	29.6441
2010.06	30.3997
2011.53	31.6942
2013	32.4937
2014.47	35.4603
2015.94	37.2943
2017.41	37.7751
2018.88	38.5545
2020.35	40.4062
2021.82	41.645
2023.29	41.2919
2024.76	38.8171
2026.23	39.0262
2027.69	38.7273
2029.16	38.3503
2030.63	38.8402
2032.1	38.9417
2033.56	37.9084
2035.03	38.53
2036.5	35.7606
2037.96	32.8111
2039.43	29.8775
2040.89	29.4005
2042.36	29.3315
2043.83	25.9957
2045.29	26.4582
2046.75	27.0963
2048.22	29.1484
2049.68	30.3997
2051.15	30.7371
2052.61	33.0179
2054.07	32.1502
2055.54	31.707
2057	31.789
2058.46	32.0057
2059.92	31.4121
2061.39	32.3727
2062.85	33.1221
2064.31	33.4341
2065.77	34.8627
2067.23	34.4797
2068.69	34.6377
2070.15	32.6307
2071.61	31.3383
2073.07	31.1543
2074.53	31.9277
2075.99	33.4728
2077.45	34.1107
2078.91	33.2535
2080.37	31.902
2081.82	31.9314
2083.28	33.6737
2084.74	31.7914
2086.2	29.5686
2087.65	30.5428
2089.11	32.8511
2090.57	32.1839
2092.02	32.7454
2093.48	31.7542
2094.94	27.9539
2096.39	25.8702
2097.85	26.1185
2099.3	24.6727
2100.76	21.2083
2102.21	20.1977
2103.66	21.8982
2105.12	21.2265
2106.57	20.183
2108.03	19.5432
2109.48	17.4015
2110.93	18.0527
2112.38	17.8704
2113.84	19.1678
