#Acq. time (s)=	45
#Accumulations=	2
#Range (cm-¹)=	200...3150
#Windows=	2
#Auto scanning=	Off
#Autofocus=	Off
#Macrospot=	Off
#AutoExposure=	Off
#Spike filter=	Multiple accum.
#Delay time (s)=	0
#Binning=	1
#Readout mode=	Signal
#DeNoise=	Off
#ICS correction=	On
#Dark correction=	Off
#Inst. Process=	Off
#Detector Gain=	Best Dynamic Range
#Detector ADC=	20 kHz       
#Detector temperature (°C)=	-69.85
#Instrument=	LabRAM HR Evol
#Detector=	Synapse
#Objective=	x100
#Grating=	600 gr/mm
#ND Filter=	100%
#Laser (nm)=	532 
#Hole=	100.021
#Range=	Auto
#Laser Pol.=	No
#Raman. Pol.=	No
#Laser Pol. (°)=	-0.0007625
#Raman Pol. (°)=	89.9995
#Collection=	Microscope
#StageXY=	Marzhauser
#StageZ=	Marzhauser
#X (µm)=	-959.3
#Y (µm)=	-2852.3
#Z (µm)=	528.45
#Full time(mm:ss)=	3:19
#Project=	
#Sample=	
#Site=	
#Title=	Mb_00_13_26_2x_45s_532 nm_x100_100%_600 gr_mm
#Remark=	
#Date=	06.07.2022 11:44
#Acquired=	06.07.2022 11:44:08
#Base:Fit=	10.08.2022 10:16:56
#Base:Sub=	10.08.2022 10:17:24
#Filter:Polynom=	16.08.2022 10:36:38
#AxisType[0]=Intens
#AxisUnit[0]=Cnt
#AxisType[1]=Spectr
#AxisUnit[1]=1/cm
200.398	43.1491
202.213	39.2921
204.027	32.1686
205.843	25.2994
207.657	18.7017
209.47	13.983
211.283	10.4818
213.097	8.58189
214.909	8.58896
216.721	10.9101
218.533	14.2508
220.344	19.0046
222.157	23.442
223.967	29.6375
225.777	35.9269
227.587	41.7696
229.396	46.1766
231.205	52.7217
233.016	59.1371
234.824	64.8304
236.632	68.0673
238.439	72.8436
240.247	76.3112
242.053	80.7248
243.86	84.5011
245.666	88.2284
247.474	91.7228
249.279	96.7481
251.085	100.969
252.889	103.576
254.694	104.648
256.498	107.958
258.301	109.938
260.105	112.699
261.908	113.015
263.71	114.104
265.513	115.244
267.315	112.299
269.116	110.951
270.918	110.17
272.718	106.223
274.519	101.73
276.319	99.1745
278.119	94.5218
279.918	90.9572
281.718	86.5796
283.516	81.8143
285.315	75.5569
287.113	70.5273
288.911	63.7175
290.708	57.3996
292.505	51.2106
294.302	48.966
296.098	44.9344
297.894	43.3874
299.69	41.1017
301.485	40.3496
303.278	40.5294
305.073	39.1887
306.867	38.1607
308.661	36.5727
310.454	35.2298
312.247	33.3025
314.04	32.8391
315.833	30.4775
317.623	29.2437
319.415	28.1195
321.206	27.7398
322.997	26.5788
324.788	24.3366
326.579	23.6167
328.367	24.6225
330.156	23.5445
331.946	23.2914
333.735	22.7723
335.523	21.6422
337.31	20.1191
339.098	20.4444
340.885	18.9716
342.673	18.6363
344.458	18.3532
346.244	19.1551
348.03	17.2821
349.816	16.1742
351.6	15.2929
353.385	16.0691
355.17	16.2058
356.953	15.5645
358.737	17.0797
360.521	17.9676
362.304	17.73
364.085	20.3628
365.868	22.0587
367.65	24.6049
369.431	27.5334
371.212	30.3961
372.994	32.3624
374.773	33.776
376.554	36.6966
378.332	42.4188
380.112	48.8107
381.892	55.707
383.669	62.3642
385.448	68.0331
387.225	74.823
389.003	82.0311
390.781	87.7296
392.557	92.3824
394.334	96.9461
396.109	102.138
397.885	106.639
399.66	108.79
401.436	111.529
403.211	113.179
404.984	115.21
406.759	117.248
408.532	118.64
410.306	119.107
412.078	119.771
413.851	119.788
415.623	120.026
417.395	119.655
419.166	117.949
420.938	115.9
422.708	113.819
424.477	110.912
426.248	107.521
428.017	103.64
429.788	99.5175
431.556	94.3916
433.326	89.204
435.093	84.2434
436.86	78.3722
438.629	73.9106
440.395	70.1786
442.163	67.1278
443.929	63.444
445.694	59.6245
447.461	57.7825
449.226	54.529
450.99	52.9421
452.756	51.742
454.52	49.3854
456.285	48.5989
458.048	47.3272
459.811	47.226
461.573	45.7937
463.337	46.4923
465.099	48.8418
466.86	51.3064
468.623	51.7605
470.384	52.6186
472.144	53.761
473.906	55.1654
475.666	54.9436
477.425	57.18
479.184	57.2327
480.944	58.2676
482.703	58.0474
484.461	58.7232
486.218	57.9605
487.975	57.7738
489.734	58.8099
491.491	59.1748
493.247	61.0063
495.003	61.5362
496.759	63.34
498.516	63.6303
500.271	65.3627
502.025	67.8215
503.779	68.286
505.533	69.5657
507.287	68.0774
509.042	68.088
510.795	68.4022
512.547	68.3222
514.299	67.9861
516.051	67.6378
517.803	66.9945
519.554	66.7519
521.305	67.1519
523.055	67.1807
524.805	67.4206
526.555	67.5939
528.307	68.8732
530.056	70.1825
531.805	68.9377
533.553	68.4796
535.301	68.4993
537.049	66.8479
538.797	66.7149
540.544	65.9381
542.291	65.5786
544.037	66.0816
545.783	64.6093
547.529	62.1517
549.275	59.8105
551.02	58.556
552.765	56.1766
554.509	53.2076
556.253	52.1422
557.997	50.5521
559.738	48.6389
561.482	46.9785
563.224	45.4082
564.967	45.0003
566.709	44.4296
568.451	42.8252
570.192	41.4948
571.933	40.9395
573.674	38.0906
575.415	36.3696
577.153	35.5944
578.893	34.8916
580.632	34.0137
582.371	34.4842
584.11	33.5768
585.849	33.1312
587.587	32.7479
589.323	31.9413
591.06	29.6872
592.797	27.6599
594.534	25.8481
596.271	25.912
598.005	25.4576
599.741	24.7476
601.476	24.9447
603.211	24.8155
604.944	25.5819
606.679	25.7192
608.413	25.7599
610.147	25.4205
611.878	26.0495
613.611	25.0881
615.344	25.7204
617.077	24.091
618.807	22.7936
620.539	22.0293
622.27	21.6035
623.999	21.2814
625.73	21.8716
627.461	22.5487
629.189	23.3735
630.919	22.4602
632.648	23.0185
634.376	22.789
636.105	25.3409
637.833	26.4364
639.559	27.7342
641.287	29.2998
643.013	30.6355
644.74	29.5881
646.467	30.3889
648.192	30.456
649.918	30.5622
651.642	30.4208
653.368	29.8765
655.091	28.5237
656.816	27.8004
658.538	28.1445
660.263	27.589
661.987	27.5614
663.708	28.3905
665.432	27.2001
667.153	26.4298
668.875	26.1669
670.596	24.7899
672.318	24.5379
674.037	22.8271
675.759	21.0143
677.478	18.8818
679.196	17.0125
680.917	16.7399
682.635	15.6771
684.355	15.1611
686.072	13.998
687.791	14.2872
689.508	14.209
691.224	13.0377
692.942	11.824
694.658	10.7675
696.376	9.7117
698.091	9.52139
699.805	7.76961
701.522	7.05153
703.236	5.35055
704.95	4.89195
706.665	4.9601
708.379	5.68848
710.093	6.03557
711.806	6.27116
713.518	6.63525
715.23	6.89826
716.943	6.63581
718.655	7.43346
720.366	6.63954
722.078	7.38826
723.788	5.47017
725.498	4.89624
727.208	5.43022
728.919	2.82433
730.628	1.9691
732.337	3.26777
734.045	2.17794
735.755	1.8063
737.463	1.2274
739.17	1.30823
740.877	2.64887
742.584	2.65134
744.292	5.32854
745.998	5.4116
747.704	5.70364
749.409	6.52605
751.114	8.73901
752.819	10.9505
754.526	13.0422
756.23	13.9425
757.934	13.9249
759.637	14.4135
761.34	14.4826
763.043	17.0362
764.746	18.4262
766.448	20.0405
768.152	22.0509
769.853	24.5247
771.554	26.1861
773.255	28.3082
774.956	30.4748
776.656	30.7533
778.356	33.1716
780.056	33.6808
781.755	34.8245
783.454	35.8994
785.153	36.7579
786.851	38.0469
788.549	38.6761
790.247	39.0908
791.944	40.7816
793.641	40.1589
795.338	40.1192
797.034	40.3065
798.73	39.2564
800.426	40.5608
802.121	41.6325
803.817	40.0929
805.511	41.1704
807.206	40.1237
808.9	40.2562
810.592	40.5574
812.286	41.2058
813.979	39.9744
815.672	41.6329
817.364	42.3214
819.057	42.626
820.748	43.2278
822.44	45.3759
824.129	46.8959
825.82	46.7794
827.511	47.2812
829.201	49.7271
830.891	49.1383
832.581	49.6618
834.269	51.0388
835.958	50.906
837.646	49.6586
839.335	47.604
841.023	46.132
842.709	45.0203
844.396	44.6016
846.084	43.3051
847.77	42.6365
849.455	41.3925
851.141	40.5386
852.827	39.3517
854.513	37.1075
856.196	35.6004
857.881	34.0859
859.566	31.5796
861.248	29.396
862.932	27.8026
864.616	24.556
866.297	22.8983
867.98	21.4745
869.663	19.8416
871.343	17.9864
873.026	16.0599
874.707	14.1427
876.387	13.3383
878.068	12.6087
879.747	11.9817
881.428	10.0449
883.108	7.67719
884.786	7.78084
886.465	6.04938
888.143	5.05588
889.822	6.18749
891.498	5.81734
893.177	7.42541
894.855	7.24889
896.53	7.34562
898.208	7.46542
899.883	8.29556
901.56	8.21696
903.234	9.88112
904.91	11.015
906.584	10.0461
908.26	9.65662
909.933	9.83802
911.608	12.1405
913.28	12.3823
914.955	13.011
916.627	13.2944
918.298	13.6009
919.972	13.1465
921.643	14.4519
923.315	15.6566
924.986	16.1876
926.656	16.8363
928.328	17.1697
929.997	17.6375
931.668	18.4737
933.337	18.8311
935.006	17.4577
936.676	16.9704
938.344	16.8034
940.012	17.4178
941.681	17.9224
943.348	18.0312
945.014	17.0056
946.683	16.4884
948.349	15.3521
950.015	16.4859
951.682	16.14
953.347	16.7411
955.012	15.6397
956.676	14.222
958.343	11.9475
960.006	11.4458
961.67	12.1565
963.333	12.2272
964.998	13.0224
966.661	15.4223
968.323	18.0212
969.985	20.5398
971.649	24.9222
973.31	28.6045
974.971	32.7311
976.632	36.986
978.293	41.5358
979.953	46.5278
981.615	52.4402
983.274	56.67
984.933	58.4659
986.592	62.4806
988.251	64.6492
989.909	65.1754
991.567	69.0101
993.225	71.4297
994.884	73.2604
996.541	74.9519
998.198	76.5383
999.855	76.3963
1001.51	77.7641
1003.17	78.4356
1004.82	77.8061
1006.48	75.956
1008.13	74.1845
1009.79	73.0117
1011.44	71.9408
1013.1	72.1273
1014.75	72.8827
1016.4	75.135
1018.06	77.9165
1019.71	82.0063
1021.36	86.0904
1023.01	88.9986
1024.66	91.648
1026.32	93.9739
1027.97	96.3007
1029.62	99.8377
1031.27	101.183
1032.92	103.734
1034.57	103.758
1036.22	104.508
1037.87	104.238
1039.52	104.942
1041.16	105.454
1042.81	107.511
1044.46	110.51
1046.11	112.192
1047.76	113.034
1049.4	113.679
1051.05	113.358
1052.7	114.578
1054.34	115.099
1055.99	114.378
1057.63	112.241
1059.28	111.26
1060.92	108.855
1062.57	104.147
1064.21	99.8208
1065.85	93.431
1067.5	87.7368
1069.14	82.9932
1070.78	76.7868
1072.43	70.2728
1074.07	66.0921
1075.71	59.7806
1077.35	52.3129
1078.99	44.5372
1080.63	37.5354
1082.27	31.0666
1083.91	25.2854
1085.55	19.7222
1087.19	13.846
1088.83	11.373
1090.47	10.2377
1092.11	8.97182
1093.75	9.47133
1095.39	10.3051
1097.03	12.5713
1098.66	13.9685
1100.3	14.3193
1101.94	15.6456
1103.57	16.7312
1105.21	16.7953
1106.84	18.0026
1108.48	19.4548
1110.11	19.4254
1111.75	17.9467
1113.38	17.619
1115.02	17.111
1116.65	17.489
1118.29	17.3672
1119.92	17.2689
1121.55	16.0872
1123.19	15.4389
1124.82	15.2623
1126.45	15.9198
1128.08	14.836
1129.71	14.999
1131.34	15.8252
1132.97	15.0141
1134.6	16.0699
1136.23	16.4643
1137.86	15.9577
1139.49	16.071
1141.12	16.9425
1142.75	16.5553
1144.38	15.7986
1146.01	16.7177
1147.64	14.9432
1149.26	13.8115
1150.89	13.3262
1152.52	12.8698
1154.15	13.1058
1155.77	11.3408
1157.4	9.2268
1159.02	7.55697
1160.65	8.09508
1162.27	10.0311
1163.9	9.36423
1165.52	10.688
1167.15	11.1752
1168.77	10.6774
1170.39	12.19
1172.02	11.1944
1173.64	11.2377
1175.26	11.678
1176.89	12.1091
1178.51	13.0193
1180.13	12.2516
1181.75	12.4067
1183.37	13.7152
1184.99	15.0872
1186.61	15.5357
1188.23	17.0766
1189.85	18.2808
1191.47	19.0738
1193.09	20.5401
1194.71	22.9512
1196.33	23.9493
1197.94	26.4729
1199.56	27.6137
1201.18	31.4202
1202.8	35.2066
1204.41	39.3169
1206.03	42.9027
1207.65	47.1168
1209.26	52.118
1210.88	57.2164
1212.49	60.6045
1214.11	63.5596
1215.72	69.4481
1217.34	73.9904
1218.95	76.5956
1220.57	80.8104
1222.18	83.8256
1223.79	87.5202
1225.41	90.9552
1227.02	94.0913
1228.63	96.0626
1230.24	99.3446
1231.85	101.528
1233.47	103.896
1235.08	106.109
1236.69	106.308
1238.3	109.072
1239.91	110.909
1241.52	113.388
1243.13	114.65
1244.74	115.092
1246.34	116.159
1247.95	116.836
1249.56	117.379
1251.17	117.47
1252.78	116.224
1254.38	116.578
1255.99	115.878
1257.6	115.186
1259.2	114.762
1260.81	113.881
1262.42	113.794
1264.02	113.41
1265.63	112.8
1267.23	111.488
1268.84	112.306
1270.44	112.109
1272.04	112.163
1273.65	111.948
1275.25	111.17
1276.85	112.788
1278.46	116.224
1280.06	118.49
1281.66	122.996
1283.26	124.359
1284.86	125.943
1286.46	127.585
1288.07	129.712
1289.67	131.978
1291.27	131.8
1292.87	133.311
1294.47	135.796
1296.06	140.048
1297.66	141.616
1299.26	144.082
1300.86	147.411
1302.46	151.092
1304.06	153.507
1305.65	155.629
1307.25	157.663
1308.85	159.084
1310.44	160.33
1312.04	162.73
1313.64	165.111
1315.23	165.322
1316.83	166.129
1318.42	167.594
1320.02	169.471
1321.61	170.691
1323.2	171.25
1324.8	171.641
1326.39	172.511
1327.99	172.086
1329.58	170.976
1331.17	170.231
1332.76	170.268
1334.36	169.47
1335.95	169.364
1337.54	169.393
1339.13	168.34
1340.72	168.2
1342.31	166.206
1343.9	164.908
1345.49	164.009
1347.08	162.247
1348.67	161.338
1350.26	158.727
1351.85	156.754
1353.43	155.775
1355.02	155.442
1356.61	155.112
1358.2	153.368
1359.78	150.004
1361.37	147.628
1362.96	144.406
1364.54	141.948
1366.13	138.814
1367.71	136.542
1369.3	132.568
1370.88	128.643
1372.47	128.377
1374.05	126.845
1375.64	126.615
1377.22	122.958
1378.8	120.803
1380.39	118.599
1381.97	116.23
1383.55	113.902
1385.13	112.447
1386.72	110.231
1388.3	108.697
1389.88	106.409
1391.46	105.377
1393.04	102.649
1394.62	101.068
1396.2	100.539
1397.78	99.8057
1399.36	100.385
1400.94	100.201
1402.52	101.24
1404.1	103.286
1405.68	104.986
1407.25	107.319
1408.83	111.658
1410.41	116.246
1411.98	120.184
1413.56	124.7
1415.14	130.892
1416.71	135.931
1418.29	141.219
1419.87	147.692
1421.44	153.331
1423.02	160.753
1424.59	167.084
1426.16	173.778
1427.74	180.813
1429.31	187.288
1430.89	195.13
1432.46	202.657
1434.03	209.09
1435.6	215.063
1437.18	220.927
1438.75	225.282
1440.32	230.556
1441.89	234.574
1443.46	236.883
1445.03	238.255
1446.6	240.421
1448.17	239.628
1449.74	240.173
1451.31	239.901
1452.88	238.068
1454.45	236.185
1456.02	232.042
1457.59	229.343
1459.16	224.869
1460.72	220.279
1462.29	214.85
1463.86	208.122
1465.43	201.548
1466.99	195.61
1468.56	188.06
1470.13	180.873
1471.69	171.569
1473.26	162.35
1474.82	153.704
1476.38	146.861
1477.95	141.136
1479.51	134.803
1481.08	129.364
1482.64	122.236
1484.2	116.684
1485.77	111.593
1487.33	105.497
1488.89	100.813
1490.46	95.7397
1492.02	92.3109
1493.58	88.7934
1495.14	85.3224
1496.7	83.4204
1498.26	81.8644
1499.82	79.5687
1501.38	78.0135
1502.94	75.9445
1504.5	75.6068
1506.06	74.9124
1507.62	75.1837
1509.18	75.8329
1510.73	75.9841
1512.29	76.5134
1513.85	76.8886
1515.41	77.0881
1516.96	76.5009
1518.52	76.3517
1520.08	78.0551
1521.63	78.7105
1523.19	79.7709
1524.75	80.4153
1526.3	80.1147
1527.85	80.895
1529.41	81.4879
1530.96	83.0147
1532.52	83.4729
1534.07	83.7252
1535.62	83.0526
1537.18	84.1501
1538.73	84.5893
1540.28	84.5899
1541.84	84.8585
1543.39	85.5941
1544.94	85.8418
1546.49	85.3179
1548.04	84.389
1549.59	84.3053
1551.14	85.5673
1552.69	86.707
1554.25	88.0692
1555.79	88.2951
1557.34	87.6364
1558.89	87.3447
1560.44	86.9115
1561.99	87.6155
1563.54	87.435
1565.08	89.3985
1566.63	92.1532
1568.18	93.6351
1569.73	94.9333
1571.27	96.1559
1572.82	99.2422
1574.37	102.176
1575.91	105.008
1577.46	107.399
1579	110.97
1580.55	113.522
1582.09	117.334
1583.64	119.129
1585.18	123.118
1586.73	124.992
1588.27	127.098
1589.81	129.912
1591.35	132.194
1592.9	134.713
1594.44	135.882
1595.98	139.144
1597.52	141.947
1599.06	142.169
1600.61	142.841
1602.15	142.772
1603.69	142.613
1605.23	142.677
1606.77	142.653
1608.31	142.24
1609.85	141.014
1611.39	140.481
1612.93	140.241
1614.46	141.549
1616	140.441
1617.54	140.829
1619.08	141.244
1620.61	140.488
1622.15	140.257
1623.69	140.879
1625.23	140.083
1626.76	139.186
1628.3	138.424
1629.83	138.157
1631.37	138.854
1632.9	139.766
1634.44	140.825
1635.97	142.369
1637.51	142.956
1639.04	143.229
1640.57	145.345
1642.11	148.118
1643.64	149.366
1645.17	150.263
1646.71	151.103
1648.24	153.553
1649.77	155.285
1651.3	155.284
1652.83	155.263
1654.36	156.051
1655.89	156.348
1657.42	156.718
1658.96	156.301
1660.48	155.397
1662.01	155.76
1663.54	152.173
1665.07	150.063
1666.6	147.889
1668.13	145.463
1669.66	143.168
1671.19	139.045
1672.71	135.832
1674.24	130.543
1675.77	125.907
1677.29	121.061
1678.82	117.305
1680.35	111.914
1681.87	109.272
1683.4	104.647
1684.92	100.148
1686.45	95.4129
1687.97	91.8271
1689.5	87.3718
1691.02	81.5799
1692.54	76.3269
1694.07	71.3106
1695.59	66.7247
1697.11	61.8289
1698.64	58.9562
1700.16	55.1698
1701.68	50.8962
1703.2	48.194
1704.72	45.6618
1706.25	43.223
1707.77	40.0306
1709.29	37.4244
1710.81	33.9358
1712.33	30.6063
1713.85	26.9292
1715.37	25.4814
1716.89	23.5144
1718.41	22.0173
1719.92	19.6765
1721.44	18.1014
1722.96	17.1559
1724.48	16.2467
1725.99	15.0307
1727.51	14.5143
1729.03	14.2234
1730.55	14.2793
1732.06	13.1324
1733.58	12.3991
1735.09	11.021
1736.61	9.74866
1738.13	8.49022
1739.64	6.21812
1741.15	5.50521
1742.67	5.54712
1744.18	5.9607
1745.7	5.46342
1747.21	4.26071
1748.72	4.17006
1750.24	3.83775
1751.75	4.60458
1753.26	4.42764
1754.77	4.98393
1756.29	4.42228
1757.8	4.87986
1759.31	4.06482
1760.82	3.6771
1762.33	3.92279
1763.84	4.12601
1765.35	2.94661
1766.86	2.42816
1768.37	3.30438
1769.88	3.76477
1771.39	4.39796
1772.9	4.9995
1774.4	5.55292
1775.91	5.40348
1777.42	5.47626
1778.93	5.75536
1780.44	5.498
1781.94	5.13481
1783.45	5.20748
1784.96	5.78229
1786.46	5.40808
1787.97	5.52075
1789.47	5.27403
1790.98	5.45284
1792.48	5.53581
1793.99	6.21206
1795.49	5.6561
1797	6.1616
1798.5	6.09876
1800.01	6.04752
1801.51	5.74896
1803.01	5.09628
1804.51	3.91777
1806.02	3.14293
1807.52	3.17092
1809.02	2.8544
1810.52	2.16983
1812.02	1.33824
1813.52	1.25323
1815.02	0.589322
1816.53	0.138836
1818.03	0.438829
1819.52	0.27587
1821.02	-0.638887
1822.52	-1.92642
1824.02	-1.65962
1825.52	-1.53058
1827.02	-1.26501
1828.52	-1.03625
1830.02	-0.541264
1831.51	-0.613877
1833.01	-0.130456
1834.51	1.39659
1836.01	1.86617
1837.5	2.38079
1839	2.33725
1840.49	2.73853
1841.99	3.48353
1843.49	4.42314
1844.98	5.08924
1846.48	5.41797
1847.97	5.97717
1849.47	6.61258
1850.96	7.31657
1852.45	7.83931
1853.95	8.35884
1855.44	9.04752
1856.93	8.98814
1858.42	9.40658
1859.92	9.91686
1861.41	9.99801
1862.9	9.74389
1864.39	9.33011
1865.88	9.36114
1867.38	9.14588
1868.87	8.22593
1870.36	8.06374
1871.85	7.91394
1873.34	7.76445
1874.83	7.7758
1876.32	7.52264
1877.81	6.9184
1879.29	6.39189
1880.78	6.95938
1882.27	6.82483
1882.53	5.97733
1884.03	4.85021
1885.52	3.99501
1887.01	3.70732
1888.51	3.82321
1890	3.21939
1891.5	3.7158
1892.99	2.9554
1894.48	3.29472
1895.97	4.4036
1897.47	5.82551
1898.96	6.34667
1900.45	7.01615
1901.94	7.4208
1903.43	7.30873
1904.92	8.50362
1906.41	9.15559
1907.9	10.0411
1909.39	9.30029
1910.88	8.6348
1912.37	8.55027
1913.86	9.94303
1915.35	10.2746
1916.84	10.8448
1918.33	11.3286
1919.81	11.3485
1921.3	11.5055
1922.79	12.3411
1924.28	12.3079
1925.76	12.5157
1927.25	13.0436
1928.73	12.4009
1930.22	11.8876
1931.71	12.1992
1933.19	11.9321
1934.68	11.0695
1936.16	10.0468
1937.65	9.07144
1939.13	8.80047
1940.62	8.08522
1942.1	8.49092
1943.58	7.93262
1945.07	8.14638
1946.55	8.54633
1948.03	8.47013
1949.51	8.26269
1951	6.79343
1952.48	6.99556
1953.96	6.3962
1955.44	5.51027
1956.92	6.56867
1958.4	6.32355
1959.88	6.63494
1961.36	6.6856
1962.84	7.09453
1964.32	6.02131
1965.8	6.44611
1967.28	5.45087
1968.76	6.58015
1970.24	6.87463
1971.72	6.12215
1973.2	6.10578
1974.67	5.47298
1976.15	6.01643
1977.63	6.02469
1979.1	6.39899
1980.58	6.19426
1982.06	6.86944
1983.54	6.02208
1985.01	7.10847
1986.49	7.87894
1987.96	9.80152
1989.44	9.82044
1990.91	9.71439
1992.39	10.4958
1993.86	10.5773
1995.33	10.521
1996.81	10.6346
1998.28	10.9724
1999.75	9.84464
2001.23	9.12189
2002.7	8.26288
2004.17	8.86172
2005.65	8.24203
2007.12	7.56341
2008.59	6.35479
2010.06	6.19373
2011.53	6.66361
2013	7.14042
2014.47	7.5326
2015.94	8.20445
2017.41	7.88943
2018.88	8.07092
2020.35	7.27762
2021.82	7.29661
2023.29	6.85322
2024.76	6.02481
2026.23	6.0877
2027.69	4.8072
2029.16	4.28135
2030.63	3.91445
2032.1	2.64718
2033.56	2.55046
2035.03	2.67848
2036.5	2.83548
2037.96	1.62373
2039.43	2.41714
2040.89	2.65463
2042.36	3.33196
2043.83	3.75403
2045.29	2.87531
2046.75	3.70196
2048.22	4.25774
2049.68	5.48301
2051.15	5.28182
2052.61	5.75429
2054.07	5.7539
2055.54	6.12753
2057	5.61692
2058.46	7.37166
2059.92	7.53672
2061.39	8.03896
2062.85	7.12783
2064.31	6.80129
2065.77	7.33259
2067.23	7.29111
2068.69	6.45641
2070.15	5.75094
2071.61	6.17718
2073.07	5.42378
2074.53	6.84415
2075.99	7.80357
2077.45	8.27524
2078.91	8.05596
2080.37	9.25725
2081.82	9.54613
2083.28	10.5518
2084.74	10.6136
2086.2	10.5845
2087.65	10.7749
2089.11	9.61692
2090.57	9.77297
2092.02	8.81572
2093.48	8.56044
2094.94	7.97329
2096.39	7.60771
2097.85	7.87145
2099.3	7.48282
2100.76	7.90356
2102.21	8.77792
2103.66	9.35952
2105.12	10.3611
2106.57	10.007
2108.03	10.0297
2109.48	9.26417
2110.93	8.45571
2112.38	8.36459
2113.84	8.19908
2115.29	8.12309
2116.74	8.89985
2118.19	8.61971
2119.64	9.01502
2121.09	9.37642
2122.54	8.21163
2123.99	8.57255
2125.45	8.1776
2126.89	7.84272
2128.34	8.88933
2129.79	8.65411
2131.24	8.60243
2132.69	7.041
2134.14	6.755
