#Acq. time (s)=	45
#Accumulations=	2
#Range (cm-¹)=	200...3150
#Windows=	2
#Auto scanning=	Off
#Autofocus=	Off
#Macrospot=	Off
#AutoExposure=	Off
#Spike filter=	Multiple accum.
#Delay time (s)=	0
#Binning=	1
#Readout mode=	Signal
#DeNoise=	Off
#ICS correction=	On
#Dark correction=	Off
#Inst. Process=	Off
#Detector Gain=	Best Dynamic Range
#Detector ADC=	20 kHz       
#Detector temperature (°C)=	-69.85
#Instrument=	LabRAM HR Evol
#Detector=	Synapse
#Objective=	x100
#Grating=	600 gr/mm
#ND Filter=	100%
#Laser (nm)=	532 
#Hole=	100.021
#Range=	Auto
#Laser Pol.=	No
#Raman. Pol.=	No
#Laser Pol. (°)=	-0.0007625
#Raman Pol. (°)=	89.9995
#Collection=	Microscope
#StageXY=	Marzhauser
#StageZ=	Marzhauser
#X (µm)=	-973.2
#Y (µm)=	-2856.8
#Z (µm)=	529.05
#Full time(mm:ss)=	3:18
#Project=	
#Sample=	
#Site=	
#Title=	Mb_00_13_28_2x_45s_532 nm_x100_100%_600 gr_mm
#Remark=	
#Date=	06.07.2022 11:52
#Acquired=	06.07.2022 11:52:00
#Base:Fit=	10.08.2022 10:16:56
#Base:Sub=	10.08.2022 10:17:24
#Filter:Polynom=	16.08.2022 10:36:38
#AxisType[0]=Intens
#AxisUnit[0]=Cnt
#AxisType[1]=Spectr
#AxisUnit[1]=1/cm
200.398	9.51891
202.213	7.04804
204.027	6.16771
205.843	4.56152
207.657	2.09001
209.47	0.133567
211.283	-0.717206
213.097	-2.77034
214.909	0.969425
216.721	4.67274
218.533	7.79857
220.344	14.6451
222.157	20.9576
223.967	29.4082
225.777	37.9724
227.587	46.2689
229.396	54.2208
231.205	59.3058
233.016	65.7139
234.824	71.423
236.632	76.858
238.439	83.1332
240.247	88.5679
242.053	94.759
243.86	100.342
245.666	103.17
247.474	107.508
249.279	112.85
251.085	117.557
252.889	120.454
254.694	123.576
256.498	124.804
258.301	127.294
260.105	127.927
261.908	128.008
263.71	127.734
265.513	127.545
267.315	127.192
269.116	125.58
270.918	122.619
272.718	119.632
274.519	116.548
276.319	111.48
278.119	107.712
279.918	102.294
281.718	98.0217
283.516	92.3034
285.315	86.3172
287.113	79.8682
288.911	73.404
290.708	68.1999
292.505	62.9297
294.302	57.3656
296.098	53.2285
297.894	49.1952
299.69	45.9683
301.485	43.2723
303.278	40.6777
305.073	41.9537
306.867	39.4709
308.661	37.969
310.454	38.5045
312.247	36.2442
314.04	35.0742
315.833	32.4421
317.623	28.8617
319.415	26.8858
321.206	25.3218
322.997	25.9341
324.788	26.1998
326.579	25.1037
328.367	25.6091
330.156	25.2426
331.946	24.2604
333.735	21.838
335.523	19.8968
337.31	18.845
339.098	17.8653
340.885	16.2288
342.673	14.6416
344.458	14.3265
346.244	11.5815
348.03	11.0363
349.816	9.01003
351.6	8.88974
353.385	8.22368
355.17	7.06808
356.953	6.30513
358.737	6.34676
360.521	6.76004
362.304	8.14656
364.085	8.79195
365.868	10.6481
367.65	14.0142
369.431	16.5375
371.212	19.2333
372.994	21.8274
374.773	25.994
376.554	30.7836
378.332	35.6467
380.112	41.5
381.892	48.65
383.669	54.5006
385.448	62.2027
387.225	69.2587
389.003	77.5026
390.781	84.529
392.557	90.7436
394.334	97.4982
396.109	104.155
397.885	108.746
399.66	112.484
401.436	115.281
403.211	118.603
404.984	121.078
406.759	123.397
408.532	126.35
410.306	127.747
412.078	127.348
413.851	126.709
415.623	125.57
417.395	125.438
419.166	123.348
420.938	118.982
422.708	115.406
424.477	111.549
426.248	106.71
428.017	103.104
429.788	98.2241
431.556	92.7712
433.326	86.7739
435.093	80.2612
436.86	74.1361
438.629	67.8264
440.395	61.8603
442.163	56.7451
443.929	51.1615
445.694	46.1316
447.461	41.6055
449.226	36.6339
450.99	32.3041
452.756	29.4998
454.52	27.2949
456.285	24.0184
458.048	21.3988
459.811	18.905
461.573	17.8394
463.337	17.8096
465.099	17.2432
466.86	17.4728
468.623	17.0239
470.384	19.8133
472.144	20.3897
473.906	21.6245
475.666	22.3005
477.425	22.4468
479.184	23.0413
480.944	24.8569
482.703	26.824
484.461	27.5404
486.218	28.4499
487.975	28.6355
489.734	29.6313
491.491	32.0268
493.247	32.6564
495.003	33.2695
496.759	34.0989
498.516	34.9572
500.271	36.6704
502.025	39.1259
503.779	40.1757
505.533	40.7569
507.287	41.8365
509.042	43.0714
510.795	45.9343
512.547	48.1114
514.299	50.5956
516.051	52.0938
517.803	53.2551
519.554	54.6317
521.305	55.9193
523.055	57.7962
524.805	57.8549
526.555	59.1984
528.307	59.106
530.056	59.8836
531.805	59.3276
533.553	59.9863
535.301	61.1891
537.049	60.6122
538.797	60.9464
540.544	60.8479
542.291	59.6348
544.037	57.0591
545.783	55.2406
547.529	53.1812
549.275	51.7452
551.02	49.9178
552.765	47.5419
554.509	44.0501
556.253	40.6163
557.997	38.9932
559.738	34.7548
561.482	31.8256
563.224	30.6166
564.967	29.1185
566.709	28.556
568.451	27.5795
570.192	26.9223
571.933	26.5032
573.674	25.8246
575.415	24.2542
577.153	24.4196
578.893	24.7276
580.632	23.2966
582.371	23.8199
584.11	24.0694
585.849	24.4728
587.587	25.2016
589.323	24.7852
591.06	24.8847
592.797	26.234
594.534	26.8278
596.271	26.7682
598.005	25.8825
599.741	25.2208
601.476	24.9195
603.211	23.8855
604.944	24.1009
606.679	23.3283
608.413	23.7106
610.147	23.6478
611.878	22.2052
613.611	21.8155
615.344	22.6191
617.077	24.1698
618.807	23.9575
620.539	24.6438
622.27	25.2747
623.999	24.7381
625.73	24.9961
627.461	24.7788
629.189	25.1392
630.919	24.8687
632.648	25.3633
634.376	25.5819
636.105	24.622
637.833	23.7955
639.559	23.1175
641.287	21.616
643.013	20.9129
644.74	21.711
646.467	21.9542
648.192	22.2199
649.918	22.4467
651.642	22.3933
653.368	22.6476
655.091	22.7286
656.816	23.518
658.538	23.8618
660.263	22.5197
661.987	23.098
663.708	23.0722
665.432	23.914
667.153	23.5029
668.875	23.3744
670.596	22.4209
672.318	21.4184
674.037	18.7654
675.759	17.6337
677.478	17.606
679.196	16.4602
680.917	14.1595
682.635	12.7782
684.355	10.9172
686.072	10.3277
687.791	9.70099
689.508	9.69945
691.224	9.30275
692.942	8.3416
694.658	8.43121
696.376	6.66773
698.091	6.14753
699.805	6.19038
701.522	6.13972
703.236	4.60909
704.95	3.69615
706.665	3.89653
708.379	3.79906
710.093	4.09581
711.806	5.01792
713.518	6.42869
715.23	7.248
716.943	6.96232
718.655	6.18328
720.366	5.02196
722.078	4.65652
723.788	5.58598
725.498	6.3651
727.208	5.78777
728.919	4.61547
730.628	4.57952
732.337	4.13188
734.045	3.22327
735.755	4.60976
737.463	4.85618
739.17	4.91937
740.877	5.49149
742.584	7.85637
744.292	8.54638
745.998	9.82249
747.704	12.8794
749.409	15.1025
751.114	17.2886
752.819	18.2805
754.526	19.7441
756.23	21.5304
757.934	21.9049
759.637	22.8042
761.34	26.9565
763.043	29.5396
764.746	30.9048
766.448	33.1661
768.152	35.092
769.853	37.2086
771.554	39.3644
773.255	40.0475
774.956	41.4669
776.656	40.9695
778.356	40.3696
780.056	40.3168
781.755	39.2207
783.454	39.4416
785.153	39.6771
786.851	38.6337
788.549	39.0786
790.247	40.0506
791.944	39.9487
793.641	41.0361
795.338	41.5918
797.034	42.4031
798.73	42.7269
800.426	42.4259
802.121	41.685
803.817	41.6788
805.511	41.1375
807.206	42.1991
808.9	42.2968
810.592	41.7717
812.286	40.8333
813.979	39.4208
815.672	39.2057
817.364	39.0621
819.057	38.7532
820.748	39.2225
822.44	38.638
824.129	39.515
825.82	40.7948
827.511	41.7813
829.201	41.7734
830.891	42.686
832.581	42.0314
834.269	41.0468
835.958	40.1178
837.646	39.3877
839.335	38.3705
841.023	38.6728
842.709	37.4985
844.396	37.8133
846.084	37.7265
847.77	36.3409
849.455	35.9322
851.141	34.2549
852.827	31.9084
854.513	30.5065
856.196	27.9543
857.881	25.09
859.566	23.4828
861.248	20.4923
862.932	19.9763
864.616	19.8209
866.297	17.9285
867.98	17.5579
869.663	17.4008
871.343	16.3482
873.026	16.5356
874.707	16.1098
876.387	15.07
878.068	15.6701
879.747	14.86
881.428	16.4287
883.108	15.8266
884.786	16.7022
886.465	15.5532
888.143	15.1686
889.822	14.5545
891.498	15.2912
893.177	15.2192
894.855	15.0595
896.53	15.1032
898.208	15.3581
899.883	16.6564
901.56	18.1159
903.234	20.2286
904.91	21.2712
906.584	22.9375
908.26	23.5279
909.933	24.7543
911.608	25.7903
913.28	26.7949
914.955	26.3763
916.627	26.6742
918.298	28.0376
919.972	28.8815
921.643	28.7701
923.315	28.9721
924.986	28.798
926.656	28.5762
928.328	27.6185
929.997	26.7127
931.668	27.2108
933.337	26.2241
935.006	24.1795
936.676	23.4241
938.344	22.6645
940.012	21.8634
941.681	21.4779
943.348	21.3571
945.014	20.9825
946.683	21.2268
948.349	19.7037
950.015	18.6004
951.682	19.4049
953.347	18.9524
955.012	16.8922
956.676	13.4092
958.343	11.3891
960.006	9.01506
961.67	9.95848
963.333	11.2983
964.998	13.2162
966.661	14.276
968.323	18.0117
969.985	19.474
971.649	22.7335
973.31	27.2885
974.971	30.6496
976.632	34.3594
978.293	38.5184
979.953	42.5807
981.615	47.5817
983.274	51.4412
984.933	55.2422
986.592	57.8933
988.251	60.6181
989.909	62.4157
991.567	63.7861
993.225	66.3274
994.884	67.65
996.541	70.2686
998.198	71.2132
999.855	73.3285
1001.51	73.1651
1003.17	71.5888
1004.82	69.5587
1006.48	68.2046
1008.13	66.3471
1009.79	64.7216
1011.44	62.4986
1013.1	62.854
1014.75	64.1702
1016.4	64.6984
1018.06	67.8129
1019.71	72.5525
1021.36	75.3389
1023.01	79.4253
1024.66	83.3296
1026.32	86.9398
1027.97	89.6382
1029.62	92.8479
1031.27	94.3102
1032.92	95.885
1034.57	96.7707
1036.22	97.228
1037.87	97.2712
1039.52	97.7936
1041.16	100.789
1042.81	102.346
1044.46	106.628
1046.11	108.956
1047.76	109.869
1049.4	111.539
1051.05	111.638
1052.7	111.273
1054.34	110.713
1055.99	109.474
1057.63	107.867
1059.28	107.269
1060.92	106.235
1062.57	101.65
1064.21	97.5043
1065.85	92.519
1067.5	88.9144
1069.14	83.517
1070.78	77.629
1072.43	71.828
1074.07	66.5768
1075.71	62.2359
1077.35	56.394
1078.99	50.1218
1080.63	42.0571
1082.27	34.8659
1083.91	27.3429
1085.55	21.9537
1087.19	16.6254
1088.83	12.0778
1090.47	10.1755
1092.11	9.19968
1093.75	10.7735
1095.39	12.7766
1097.03	14.5629
1098.66	15.2186
1100.3	16.9365
1101.94	17.518
1103.57	16.5956
1105.21	19.1889
1106.84	18.8246
1108.48	18.6759
1110.11	16.9084
1111.75	15.8706
1113.38	14.8255
1115.02	14.5484
1116.65	13.4561
1118.29	13.525
1119.92	13.5065
1121.55	11.7993
1123.19	11.8629
1124.82	11.9669
1126.45	13.1572
1128.08	11.8494
1129.71	11.4543
1131.34	11.0848
1132.97	10.4333
1134.6	11.9798
1136.23	12.0055
1137.86	11.8065
1139.49	13.2921
1141.12	12.4098
1142.75	11.009
1144.38	7.79558
1146.01	8.59762
1147.64	9.10754
1149.26	8.82815
1150.89	7.04197
1152.52	6.41625
1154.15	6.64915
1155.77	5.96969
1157.4	5.16554
1159.02	4.2004
1160.65	2.94578
1162.27	2.15994
1163.9	0.680018
1165.52	0.910761
1167.15	1.33906
1168.77	1.58843
1170.39	2.86043
1172.02	4.40249
1173.64	4.35728
1175.26	5.09904
1176.89	5.06973
1178.51	6.25151
1180.13	6.04957
1181.75	8.04418
1183.37	9.56972
1184.99	10.5849
1186.61	12.6176
1188.23	11.7174
1189.85	13.8607
1191.47	16.102
1193.09	19.4788
1194.71	23.0037
1196.33	24.8496
1197.94	28.2692
1199.56	32.974
1201.18	36.6001
1202.8	38.9768
1204.41	43.5093
1206.03	47.5283
1207.65	50.6713
1209.26	54.8781
1210.88	60.1727
1212.49	63.7347
1214.11	67.9562
1215.72	73.4533
1217.34	77.1244
1218.95	80.383
1220.57	83.7756
1222.18	86.0262
1223.79	88.864
1225.41	92.6104
1227.02	98.1466
1228.63	101.872
1230.24	105.681
1231.85	109.166
1233.47	111.84
1235.08	113.848
1236.69	115.811
1238.3	116.944
1239.91	118.029
1241.52	118.793
1243.13	119.825
1244.74	121.584
1246.34	123.113
1247.95	125.051
1249.56	126.306
1251.17	127.471
1252.78	126.798
1254.38	127.754
1255.99	128.593
1257.6	128.072
1259.2	127.454
1260.81	126.418
1262.42	126.344
1264.02	125.431
1265.63	125.188
1267.23	125.576
1268.84	124.573
1270.44	126.711
1272.04	127.066
1273.65	127.318
1275.25	126.054
1276.85	127.313
1278.46	130.176
1280.06	131.054
1281.66	130.628
1283.26	131.906
1284.86	133.044
1286.46	135.616
1288.07	138.05
1289.67	139.537
1291.27	140.556
1292.87	141.772
1294.47	143.906
1296.06	147.661
1297.66	147.948
1299.26	150.325
1300.86	153.219
1302.46	156.442
1304.06	160.319
1305.65	164.307
1307.25	168.6
1308.85	170.957
1310.44	173.962
1312.04	175.513
1313.64	177.149
1315.23	179.399
1316.83	179.809
1318.42	180.956
1320.02	181.489
1321.61	183.674
1323.2	184.073
1324.8	183.747
1326.39	183.013
1327.99	182.665
1329.58	181.647
1331.17	182.105
1332.76	180.496
1334.36	179.752
1335.95	178.204
1337.54	176.183
1339.13	173.832
1340.72	172.626
1342.31	168.805
1343.9	167.711
1345.49	166.441
1347.08	163.222
1348.67	160.517
1350.26	158.255
1351.85	154.464
1353.43	151.785
1355.02	148.968
1356.61	147.675
1358.2	144.095
1359.78	141.307
1361.37	138.574
1362.96	136.768
1364.54	134.454
1366.13	132.917
1367.71	128.524
1369.3	125.284
1370.88	123.94
1372.47	122.621
1374.05	121.437
1375.64	119.852
1377.22	116.984
1378.8	116.895
1380.39	116.082
1381.97	115.512
1383.55	114.662
1385.13	115.249
1386.72	115.116
1388.3	113.585
1389.88	112.086
1391.46	109.719
1393.04	108.461
1394.62	107.27
1396.2	105.729
1397.78	105.851
1399.36	105.235
1400.94	105.085
1402.52	105.344
1404.1	106.743
1405.68	107.356
1407.25	109.615
1408.83	113.92
1410.41	116.973
1411.98	119.665
1413.56	122.449
1415.14	128.038
1416.71	132.015
1418.29	137.32
1419.87	143.757
1421.44	149.939
1423.02	158.229
1424.59	163.241
1426.16	169.826
1427.74	176.478
1429.31	183.178
1430.89	190.806
1432.46	198.181
1434.03	203.973
1435.6	210.11
1437.18	215.783
1438.75	221.887
1440.32	224.235
1441.89	228.578
1443.46	231.55
1445.03	233.68
1446.6	234.806
1448.17	236.106
1449.74	235.823
1451.31	235.581
1452.88	234.354
1454.45	231.744
1456.02	228.585
1457.59	225.912
1459.16	222.297
1460.72	217.857
1462.29	212.002
1463.86	206.763
1465.43	197.941
1466.99	189.975
1468.56	181.548
1470.13	174.588
1471.69	166.782
1473.26	159.321
1474.82	150.37
1476.38	142.906
1477.95	134.485
1479.51	127.652
1481.08	121.823
1482.64	114.416
1484.2	107.861
1485.77	102.917
1487.33	97.6952
1488.89	92.2543
1490.46	89.378
1492.02	85.5957
1493.58	84.1862
1495.14	80.2767
1496.7	77.2526
1498.26	72.9972
1499.82	70.5633
1501.38	68.6208
1502.94	67.5153
1504.5	68.0087
1506.06	65.698
1507.62	64.6531
1509.18	64.1889
1510.73	64.3233
1512.29	64.1565
1513.85	64.191
1515.41	64.6046
1516.96	64.0615
1518.52	63.0165
1520.08	64.1732
1521.63	64.8484
1523.19	64.831
1524.75	65.0351
1526.3	65.4526
1527.85	66.9711
1529.41	68.3451
1530.96	69.1254
1532.52	69.9493
1534.07	70.5301
1535.62	72.0096
1537.18	73.4325
1538.73	75.7939
1540.28	77.5907
1541.84	79.3599
1543.39	80.3945
1544.94	82.384
1546.49	84.2359
1548.04	86.7644
1549.59	88.1714
1551.14	90.6831
1552.69	91.9872
1554.25	94.1506
1555.79	95.2289
1557.34	97.4048
1558.89	98.8623
1560.44	100.121
1561.99	102.63
1563.54	103.751
1565.08	106.345
1566.63	109.236
1568.18	111.873
1569.73	114.03
1571.27	116.068
1572.82	116.996
1574.37	118.691
1575.91	121.405
1577.46	124.913
1579	128.287
1580.55	130.935
1582.09	133.149
1583.64	135.429
1585.18	138.7
1586.73	141.317
1588.27	142.917
1589.81	143.512
1591.35	145.104
1592.9	145.517
1594.44	146.108
1595.98	145.851
1597.52	147.249
1599.06	147.49
1600.61	146.607
1602.15	146.728
1603.69	146.012
1605.23	145.099
1606.77	143.752
1608.31	143.247
1609.85	143.12
1611.39	141.92
1612.93	141.258
1614.46	141.659
1616	140.612
1617.54	138.669
1619.08	138.165
1620.61	137.706
1622.15	137.793
1623.69	138.843
1625.23	139.768
1626.76	139.684
1628.3	140.119
1629.83	140.367
1631.37	141.511
1632.9	142.904
1634.44	145.419
1635.97	147.523
1637.51	149.552
1639.04	152.515
1640.57	155.558
1642.11	158.363
1643.64	161.372
1645.17	163.362
1646.71	165.632
1648.24	167.615
1649.77	169.349
1651.3	170.958
1652.83	172.973
1654.36	175.014
1655.89	176.317
1657.42	176.838
1658.96	177.99
1660.48	177.506
1662.01	175.841
1663.54	174.406
1665.07	172.081
1666.6	169.803
1668.13	165.915
1669.66	161.461
1671.19	158.232
1672.71	152.908
1674.24	149.241
1675.77	143.387
1677.29	138.558
1678.82	132.527
1680.35	126.99
1681.87	121.329
1683.4	115.505
1684.92	109.711
1686.45	104.047
1687.97	97.6981
1689.5	91.1406
1691.02	86.0416
1692.54	80.4923
1694.07	76.1393
1695.59	72.8467
1697.11	67.9121
1698.64	63.7118
1700.16	59.4034
1701.68	55.3825
1703.2	51.7093
1704.72	48.3966
1706.25	45.338
1707.77	43.2055
1709.29	39.8781
1710.81	37.5058
1712.33	34.4641
1713.85	32.1474
1715.37	30.6436
1716.89	28.4225
1718.41	25.4891
1719.92	24.155
1721.44	22.3456
1722.96	20.7066
1724.48	20.0104
1725.99	19.6434
1727.51	18.8634
1729.03	17.7505
1730.55	16.1651
1732.06	14.9387
1733.58	14.4615
1735.09	13.8622
1736.61	11.7883
1738.13	11.3526
1739.64	10.6789
1741.15	9.38156
1742.67	9.09112
1744.18	8.52129
1745.7	8.75712
1747.21	7.80768
1748.72	6.78541
1750.24	7.40159
1751.75	6.53997
1753.26	6.43016
1754.77	5.41878
1756.29	5.30242
1757.8	4.82232
1759.31	4.03504
1760.82	4.21568
1762.33	4.71241
1763.84	4.19803
1765.35	3.36256
1766.86	3.5207
1768.37	3.16458
1769.88	3.03692
1771.39	3.31024
1772.9	2.94654
1774.4	3.66361
1775.91	3.40183
1777.42	3.69808
1778.93	3.49963
1780.44	3.00594
1781.94	2.91703
1783.45	2.4236
1784.96	1.62839
1786.46	1.47865
1787.97	1.43448
1789.47	1.41701
1790.98	0.970816
1792.48	0.330839
1793.99	0.24893
1795.49	0.262785
1797	-0.074045
1798.5	-0.309479
1800.01	0.033245
1801.51	0.255697
1803.01	-1.08177
1804.51	-1.42921
1806.02	-0.752667
1807.52	0.0778286
1809.02	0.243407
1810.52	-0.234158
1812.02	1.21238
1813.52	2.16274
1815.02	2.39735
1816.53	2.77452
1818.03	2.94418
1819.52	2.77785
1821.02	2.72938
1822.52	2.30604
1824.02	2.33423
1825.52	3.2641
1827.02	2.99419
1828.52	3.27805
1830.02	3.59784
1831.51	4.00184
1833.01	4.09814
1834.51	4.17688
1836.01	4.71974
1837.5	5.17967
1839	4.61777
1840.49	4.03685
1841.99	3.96057
1843.49	4.43442
1844.98	4.82591
1846.48	5.13891
1847.97	4.06561
1849.47	3.41602
1850.96	3.34918
1852.45	2.87547
1853.95	3.18648
1855.44	3.87058
1856.93	3.92916
1858.42	3.5724
1859.92	3.53169
1861.41	3.60977
1862.9	3.91051
1864.39	4.08463
1865.88	3.75467
1867.38	4.47333
1868.87	5.11284
1870.36	4.6317
1871.85	4.89054
1873.34	4.74218
1874.83	5.10196
1876.32	4.73048
1877.81	3.71079
1879.29	4.00756
1880.78	3.60026
1882.27	3.60735
1882.53	3.2652
1884.03	3.12335
1885.52	3.99955
1887.01	2.94839
1888.51	2.75371
1890	2.39856
1891.5	1.55945
1892.99	1.53781
1894.48	2.09839
1895.97	1.23479
1897.47	0.912651
1898.96	1.8439
1900.45	2.37583
1901.94	2.66809
1903.43	2.86301
1904.92	2.67058
1906.41	2.6686
1907.9	3.41894
1909.39	4.26297
1910.88	4.05283
1912.37	4.28026
1913.86	4.02233
1915.35	5.2705
1916.84	4.93723
1918.33	5.45483
1919.81	5.60681
1921.3	5.49039
1922.79	7.14982
1924.28	7.90884
1925.76	7.89003
1927.25	9.22723
1928.73	10.1694
1930.22	9.94272
1931.71	9.77326
1933.19	9.68631
1934.68	10.8879
1936.16	11.3355
1937.65	11.1217
1939.13	11.616
1940.62	11.9159
1942.1	11.6007
1943.58	11.5056
1945.07	11.6672
1946.55	11.1179
1948.03	10.5842
1949.51	10.5032
1951	10.3109
1952.48	10.6994
1953.96	9.8545
1955.44	9.61115
1956.92	9.47034
1958.4	8.96256
1959.88	8.88126
1961.36	8.35541
1962.84	8.01871
1964.32	7.94989
1965.8	6.77505
1967.28	6.57314
1968.76	6.32951
1970.24	5.80414
1971.72	6.64373
1973.2	7.28747
1974.67	7.69349
1976.15	7.92978
1977.63	7.34603
1979.1	8.04221
1980.58	8.50378
1982.06	9.10618
1983.54	9.03663
1985.01	8.34485
1986.49	8.62465
1987.96	8.53736
1989.44	8.59083
1990.91	7.87926
1992.39	8.69968
1993.86	9.54572
1995.33	9.48673
1996.81	9.94394
1998.28	9.86054
1999.75	10.8693
2001.23	11.6114
2002.7	12.3525
2004.17	11.5988
2005.65	10.9878
2007.12	10.9743
2008.59	12.0776
2010.06	11.79
2011.53	11.2673
2013	11.7949
2014.47	11.56
2015.94	10.967
2017.41	10.7327
2018.88	9.54359
2020.35	9.03288
2021.82	8.86902
2023.29	9.35352
2024.76	8.57063
2026.23	8.40455
2027.69	7.24891
2029.16	8.28792
2030.63	8.90279
2032.1	8.04191
2033.56	7.87992
2035.03	6.75953
2036.5	6.00027
2037.96	5.65013
2039.43	5.34796
2040.89	5.51244
2042.36	5.59506
2043.83	5.29648
2045.29	5.54407
2046.75	5.2427
2048.22	5.5862
2049.68	5.76907
2051.15	6.61333
2052.61	6.94617
2054.07	7.27268
2055.54	7.32572
2057	7.75501
2058.46	7.86032
2059.92	8.70202
2061.39	9.34203
2062.85	9.78894
2064.31	10.8384
2065.77	12.3856
2067.23	13.49
2068.69	13.6865
2070.15	14.6912
2071.61	15.0749
2073.07	15.9733
2074.53	16.0416
2075.99	15.4364
2077.45	14.6416
2078.91	14.891
2080.37	15.4777
2081.82	15.9179
2083.28	15.2892
2084.74	15.5846
2086.2	16.4176
2087.65	16.1689
2089.11	16.4364
2090.57	16.2734
2092.02	16.6352
2093.48	16.9301
2094.94	17.0842
2096.39	17.0363
2097.85	16.7405
2099.3	16.6638
2100.76	16.4545
2102.21	16.77
2103.66	15.5453
2105.12	13.804
2106.57	13.2367
2108.03	12.8222
2109.48	12.6234
2110.93	11.8408
2112.38	11.5133
2113.84	10.57
2115.29	10.5716
2116.74	10.0413
2118.19	9.36445
2119.64	8.76336
2121.09	8.4791
2122.54	8.07181
2123.99	7.50133
2125.45	6.74163
2126.89	6.62954
2128.34	5.84864
2129.79	5.44181
2131.24	5.2573
2132.69	5.99823
