#Acq. time (s)=	45
#Accumulations=	2
#Range (cm-¹)=	200...3150
#Windows=	2
#Auto scanning=	Off
#Autofocus=	Off
#Macrospot=	Off
#AutoExposure=	Off
#Spike filter=	Multiple accum.
#Delay time (s)=	0
#Binning=	1
#Readout mode=	Signal
#DeNoise=	Off
#ICS correction=	On
#Dark correction=	Off
#Inst. Process=	Off
#Detector Gain=	Best Dynamic Range
#Detector ADC=	20 kHz       
#Detector temperature (°C)=	-69.85
#Instrument=	LabRAM HR Evol
#Detector=	Synapse
#Objective=	x100
#Grating=	600 gr/mm
#ND Filter=	100%
#Laser (nm)=	532 
#Hole=	100.021
#Range=	Auto
#Laser Pol.=	No
#Raman. Pol.=	No
#Laser Pol. (°)=	-0.0007625
#Raman Pol. (°)=	89.9995
#Collection=	Microscope
#StageXY=	Marzhauser
#StageZ=	Marzhauser
#X (µm)=	-969.9
#Y (µm)=	-2859.5
#Z (µm)=	528.25
#Full time(mm:ss)=	3:18
#Project=	
#Sample=	
#Site=	
#Title=	Mb_00_13_27_2x_45s_532 nm_x100_100%_600 gr_mm
#Remark=	
#Date=	06.07.2022 11:48
#Acquired=	06.07.2022 11:48:06
#Edit:Spike=	06.07.2022 11:55:06
#Base:Fit=	10.08.2022 10:16:56
#Base:Sub=	10.08.2022 10:17:24
#Filter:Polynom=	16.08.2022 10:36:38
#AxisType[0]=Intens
#AxisUnit[0]=Cnt
#AxisType[1]=Spectr
#AxisUnit[1]=1/cm
200.398	48.161
202.213	38.6097
204.027	30.8808
205.843	23.2005
207.657	17.5451
209.47	12.5112
211.283	8.9533
213.097	7.44413
214.909	5.84987
216.721	6.90757
218.533	8.13725
220.344	12.1987
222.157	16.5938
223.967	20.7516
225.777	28.2031
227.587	32.7297
229.396	39.5091
231.205	46.2298
233.016	52.881
234.824	58.9246
236.632	63.9558
238.439	69.2893
240.247	73.9639
242.053	77.4574
243.86	80.5986
245.666	83.7936
247.474	88.3764
249.279	93.0806
251.085	97.1117
252.889	99.3335
254.694	101.699
256.498	103.408
258.301	105.998
260.105	107.002
261.908	105.779
263.71	104.149
265.513	104.635
267.315	103.159
269.116	100.524
270.918	98.2494
272.718	94.4479
274.519	89.6709
276.319	84.161
278.119	78.152
279.918	73.7359
281.718	67.7118
283.516	62.9028
285.315	56.7844
287.113	52.6591
288.911	46.7262
290.708	40.9228
292.505	36.2633
294.302	31.6318
296.098	29.4575
297.894	25.71
299.69	23.8514
301.485	22.6518
303.278	21.7056
305.073	20.0266
306.867	21.3264
308.661	19.9408
310.454	20.6085
312.247	20.2064
314.04	20.3867
315.833	21.6717
317.623	20.4316
319.415	21.3648
321.206	21.8144
322.997	22.084
324.788	22.0387
326.579	22.7417
328.367	22.7356
330.156	21.3885
331.946	20.571
333.735	20.4633
335.523	20.4036
337.31	19.1716
339.098	17.5941
340.885	16.3425
342.673	15.6323
344.458	15.1727
346.244	13.7101
348.03	13.6785
349.816	10.9737
351.6	9.7037
353.385	9.59482
355.17	9.9991
356.953	8.13111
358.737	7.5725
360.521	8.03764
362.304	8.64208
364.085	10.4448
365.868	13.4461
367.65	17.5035
369.431	20.0069
371.212	20.6066
372.994	23.8969
374.773	26.8667
376.554	29.3169
378.332	33.1885
380.112	37.849
381.892	43.7923
383.669	51.3205
385.448	58.9929
387.225	65.3498
389.003	71.3928
390.781	77.4695
392.557	83.5251
394.334	89.7143
396.109	94.0912
397.885	97.5829
399.66	102.855
401.436	106.428
403.211	109.657
404.984	112.677
406.759	114.33
408.532	115.576
410.306	116.335
412.078	116.166
413.851	115.646
415.623	115.374
417.395	112.881
419.166	110.391
420.938	107.59
422.708	104.297
424.477	100.29
426.248	95.0562
428.017	90.9969
429.788	88.267
431.556	83.5242
433.326	78.9517
435.093	73.1375
436.86	68.41
438.629	62.1346
440.395	56.153
442.163	51.3363
443.929	45.2197
445.694	40.2178
447.461	36.2036
449.226	32.6704
450.99	29.1016
452.756	25.0181
454.52	20.8742
456.285	17.2598
458.048	13.1699
459.811	9.88741
461.573	9.16176
463.337	8.32373
465.099	7.38512
466.86	9.20584
468.623	8.56843
470.384	9.6177
472.144	11.2807
473.906	11.6852
475.666	12.3278
477.425	11.5623
479.184	13.6341
480.944	15.1461
482.703	16.6226
484.461	17.4348
486.218	20.362
487.975	22.5336
489.734	24.8732
491.491	27.6784
493.247	29.8662
495.003	31.7869
496.759	32.5607
498.516	35.3318
500.271	38.6581
502.025	42.0335
503.779	44.0953
505.533	45.295
507.287	46.9651
509.042	48.0527
510.795	50.767
512.547	53.669
514.299	55.9379
516.051	58.9141
517.803	61.1026
519.554	60.5838
521.305	61.7709
523.055	62.2159
524.805	62.7949
526.555	62.3946
528.307	62.9231
530.056	63.749
531.805	62.5984
533.553	63.5981
535.301	63.1024
537.049	62.0601
538.797	60.5199
540.544	58.8634
542.291	56.503
544.037	55.4169
545.783	53.4885
547.529	50.876
549.275	49.0772
551.02	45.9692
552.765	42.8551
554.509	38.9566
556.253	35.4777
557.997	33.1712
559.738	30.9583
561.482	27.2783
563.224	26.4484
564.967	23.7381
566.709	23.6354
568.451	21.8553
570.192	19.9794
571.933	18.3298
573.674	16.874
575.415	15.5199
577.153	15.6774
578.893	13.8954
580.632	13.8778
582.371	12.858
584.11	12.9601
585.849	13.5952
587.587	13.7284
589.323	11.9992
591.06	10.7239
592.797	10.6303
594.534	9.47942
596.271	9.25188
598.005	10.738
599.741	10.502
601.476	9.25956
603.211	9.19469
604.944	9.8511
606.679	9.54395
608.413	10.8769
610.147	11.1186
611.878	11.2305
613.611	10.6996
615.344	11.2149
617.077	11.0712
618.807	11.991
620.539	12.0022
622.27	10.945
623.999	10.8337
625.73	11.9847
627.461	13.0307
629.189	14.2518
630.919	15.8808
632.648	17.5869
634.376	17.9809
636.105	19.3482
637.833	20.4496
639.559	22.0493
641.287	22.6252
643.013	24.6646
644.74	25.9023
646.467	27.086
648.192	27.5345
649.918	28.2518
651.642	27.3451
653.368	27.2544
655.091	26.8693
656.816	27.3413
658.538	27.5114
660.263	27.7125
661.987	27.2957
663.708	27.732
665.432	26.6985
667.153	27.2277
668.875	24.1521
670.596	23.8533
672.318	21.7705
674.037	20.6361
675.759	19.2016
677.478	18.6889
679.196	17.5357
680.917	16.1232
682.635	16.3352
684.355	14.9423
686.072	13.9003
687.791	13.1028
689.508	12.654
691.224	12.367
692.942	10.2251
694.658	9.73484
696.376	9.02774
698.091	8.92734
699.805	7.6182
701.522	9.04744
703.236	9.74521
704.95	11.3058
706.665	11.7031
708.379	12.2664
710.093	13.8606
711.806	15.3624
713.518	15.7759
715.23	16.6601
716.943	18.0754
718.655	19.2091
720.366	19.8358
722.078	21.9978
723.788	22.4566
725.498	22.9883
727.208	22.4308
728.919	23.2841
730.628	23.1207
732.337	23.1136
734.045	23.2224
735.755	24.0871
737.463	26.1769
739.17	26.3148
740.877	27.8887
742.584	30.4217
744.292	32.0717
745.998	33.5627
747.704	37.0047
749.409	40.3479
751.114	42.6046
752.819	45.3357
754.526	47.7161
756.23	51.3245
757.934	54.6121
759.637	57.0675
761.34	59.6212
763.043	61.2266
764.746	63.6284
766.448	64.5083
768.152	66.5257
769.853	68.6545
771.554	71.4828
773.255	72.3717
774.956	72.4947
776.656	74.0629
778.356	74.7399
780.056	75.9369
781.755	75.8102
783.454	76.6923
785.153	76.8615
786.851	77.3416
788.549	77.2127
790.247	77.5723
791.944	75.7585
793.641	74.5525
795.338	74.0231
797.034	72.8166
798.73	72.6435
800.426	72.2729
802.121	71.0793
803.817	69.3198
805.511	66.6563
807.206	64.3321
808.9	62.2483
810.592	61.59
812.286	60.5189
813.979	59.4655
815.672	57.9374
817.364	58.8537
819.057	58.2769
820.748	58.2887
822.44	57.983
824.129	56.9482
825.82	58.6415
827.511	59.9241
829.201	60.3024
830.891	59.6888
832.581	58.9
834.269	58.7814
835.958	59.4186
837.646	58.9356
839.335	57.2093
841.023	56.1179
842.709	55.1915
844.396	53.1047
846.084	52.4149
847.77	50.3033
849.455	49.7893
851.141	47.9991
852.827	47.961
854.513	47.3759
856.196	45.2893
857.881	42.3691
859.566	40.612
861.248	40.0291
862.932	38.7425
864.616	37.8096
866.297	36.6894
867.98	36.6824
869.663	35.9038
871.343	35.2388
873.026	34.6583
874.707	33.7703
876.387	32.2104
878.068	31.9126
879.747	30.3123
881.428	29.2721
883.108	28.3903
884.786	26.5747
886.465	24.1598
888.143	22.7397
889.822	21.7983
891.498	22.1505
893.177	22.6415
894.855	22.5802
896.53	21.1212
898.208	20.4412
899.883	20.8699
901.56	21.4695
903.234	20.0354
904.91	20.2171
906.584	20.1262
908.26	20.7531
909.933	20.7824
911.608	20.6296
913.28	19.7262
914.955	19.5896
916.627	20.2896
918.298	21.3307
919.972	21.356
921.643	20.7538
923.315	19.5443
924.986	21.0468
926.656	21.6191
928.328	22.1087
929.997	22.5641
931.668	21.9147
933.337	23.8445
935.006	23.4952
936.676	24.5251
938.344	25.1126
940.012	25.0736
941.681	26.1029
943.348	26.5971
945.014	26.6025
946.683	26.9451
948.349	26.0793
950.015	25.5621
951.682	25.8839
953.347	25.863
955.012	23.6021
956.676	21.3793
958.343	20.4728
960.006	18.7382
961.67	18.2907
963.333	18.4113
964.998	18.6135
966.661	18.851
968.323	19.3286
969.985	20.8583
971.649	23.4253
973.31	26.2214
974.971	28.5684
976.632	30.7963
978.293	32.6825
979.953	33.7407
981.615	35.746
983.274	37.3038
984.933	38.2549
986.592	39.3756
988.251	41.6813
989.909	44.0999
991.567	45.1265
993.225	46.083
994.884	47.8697
996.541	49.8712
998.198	52.7356
999.855	53.4037
1001.51	54.7075
1003.17	56.0974
1004.82	55.8744
1006.48	55.6794
1008.13	57.2877
1009.79	57.2845
1011.44	57.4958
1013.1	58.0359
1014.75	60.4486
1016.4	63.5299
1018.06	65.5981
1019.71	70.1009
1021.36	74.0196
1023.01	77.8504
1024.66	81.98
1026.32	84.4862
1027.97	88.3399
1029.62	91.6509
1031.27	94.0081
1032.92	96.6144
1034.57	98.308
1036.22	98.947
1037.87	99.5121
1039.52	101.801
1041.16	103.603
1042.81	104.448
1044.46	105.953
1046.11	106.216
1047.76	106.46
1049.4	106.971
1051.05	106.969
1052.7	108.719
1054.34	108.383
1055.99	107.823
1057.63	105.716
1059.28	103.449
1060.92	101.025
1062.57	99.127
1064.21	95.7992
1065.85	93.8656
1067.5	91.7478
1069.14	89.0147
1070.78	86.0187
1072.43	82.1783
1074.07	78.1867
1075.71	74.4534
1077.35	70.0344
1078.99	65.6091
1080.63	60.3474
1082.27	55.1514
1083.91	50.7649
1085.55	44.6092
1087.19	39.9845
1088.83	37.0973
1090.47	34.9327
1092.11	33.5588
1093.75	32.5114
1095.39	33.1672
1097.03	35.1757
1098.66	35.9207
1100.3	35.9063
1101.94	36.8429
1103.57	37.0577
1105.21	36.1531
1106.84	35.8531
1108.48	34.7194
1110.11	33.3135
1111.75	31.3444
1113.38	28.639
1115.02	25.7073
1116.65	23.85
1118.29	22.381
1119.92	21.2878
1121.55	19.1398
1123.19	17.9495
1124.82	16.057
1126.45	15.9126
1128.08	14.611
1129.71	14.4985
1131.34	13.8766
1132.97	13.0279
1134.6	13.5875
1136.23	11.3063
1137.86	11.2009
1139.49	11.0627
1141.12	12.1223
1142.75	12.7399
1144.38	13.0454
1146.01	12.5685
1147.64	13.6415
1149.26	13.3047
1150.89	12.7322
1152.52	12.9799
1154.15	12.7697
1155.77	13.008
1157.4	11.541
1159.02	11.3344
1160.65	10.5446
1162.27	9.79894
1163.9	8.72784
1165.52	8.17585
1167.15	7.98211
1168.77	9.85515
1170.39	11.0929
1172.02	11.031
1173.64	11.7945
1175.26	12.2913
1176.89	13.7078
1178.51	14.4302
1180.13	13.4213
1181.75	13.4989
1183.37	15.2016
1184.99	16.5054
1186.61	17.5236
1188.23	18.9203
1189.85	20.3007
1191.47	22.3726
1193.09	24.2423
1194.71	26.9251
1196.33	29.9252
1197.94	33.2359
1199.56	36.2442
1201.18	38.7326
1202.8	41.5293
1204.41	45.6284
1206.03	47.3755
1207.65	50.3173
1209.26	52.8168
1210.88	56.8766
1212.49	61.0784
1214.11	64.3329
1215.72	67.9159
1217.34	71.6451
1218.95	77.0865
1220.57	80.7567
1222.18	84.7318
1223.79	87.0373
1225.41	90.0673
1227.02	92.747
1228.63	94.976
1230.24	97.2373
1231.85	98.6001
1233.47	100.396
1235.08	101.285
1236.69	101.917
1238.3	101.306
1239.91	101.464
1241.52	101.522
1243.13	101.388
1244.74	100.835
1246.34	100.796
1247.95	101.352
1249.56	99.695
1251.17	98.5693
1252.78	97.9727
1254.38	97.7751
1255.99	97.0632
1257.6	96.3915
1259.2	95.7696
1260.81	93.9753
1262.42	94.9109
1264.02	94.2555
1265.63	93.845
1267.23	94.0589
1268.84	92.9168
1270.44	93.4701
1272.04	93.1267
1273.65	92.3021
1275.25	92.0259
1276.85	91.5578
1278.46	90.5692
1280.06	91.5037
1281.66	91.951
1283.26	94.3327
1284.86	94.8919
1286.46	95.7835
1288.07	97.3585
1289.67	99.0032
1291.27	100.792
1292.87	102.018
1294.47	102.921
1296.06	104.995
1297.66	107.039
1299.26	109.406
1300.86	110.541
1302.46	112.95
1304.06	114.593
1305.65	117.099
1307.25	117.767
1308.85	118.741
1310.44	121.402
1312.04	123.583
1313.64	126.701
1315.23	126.556
1316.83	127.205
1318.42	127.811
1320.02	128.783
1321.61	129.233
1323.2	128.919
1324.8	129.995
1326.39	130.997
1327.99	130.403
1329.58	128.947
1331.17	130.024
1332.76	129.887
1334.36	129.614
1335.95	130.07
1337.54	129.349
1339.13	128.502
1340.72	126.664
1342.31	126.199
1343.9	125.347
1345.49	125.325
1347.08	124.532
1348.67	122.398
1350.26	120.15
1351.85	118.223
1353.43	116.599
1355.02	114.915
1356.61	113.576
1358.2	111.545
1359.78	111.565
1361.37	109.547
1362.96	109.149
1364.54	105.436
1366.13	103.909
1367.71	101.018
1369.3	99.3371
1370.88	98.0823
1372.47	96.4474
1374.05	95.5566
1375.64	93.0299
1377.22	91.3181
1378.8	90.2859
1380.39	88.2759
1381.97	87.1145
1383.55	85.9799
1385.13	84.1984
1386.72	82.7741
1388.3	83.1212
1389.88	84.1813
1391.46	82.4341
1393.04	81.1897
1394.62	78.5175
1396.2	78.798
1397.78	78.4442
1399.36	77.5972
1400.94	78.1005
1402.52	78.5368
1404.1	79.9546
1405.68	80.1893
1407.25	81.1416
1408.83	83.3095
1410.41	86.8143
1411.98	89.8288
1413.56	93.7573
1415.14	96.9988
1416.71	100.577
1418.29	104.612
1419.87	108.772
1421.44	113.852
1423.02	119.603
1424.59	124.157
1426.16	128.646
1427.74	134.026
1429.31	140.284
1430.89	146.643
1432.46	150.573
1434.03	155.247
1435.6	160.478
1437.18	164.94
1438.75	169.106
1440.32	171.153
1441.89	173.95
1443.46	175.057
1445.03	176.794
1446.6	177.956
1448.17	178.456
1449.74	178.869
1451.31	179.473
1452.88	177.926
1454.45	175.734
1456.02	174.326
1457.59	171.671
1459.16	168.044
1460.72	165.063
1462.29	161.035
1463.86	155.739
1465.43	151.889
1466.99	146.85
1468.56	141.551
1470.13	135.571
1471.69	129.688
1473.26	123.174
1474.82	117.841
1476.38	111.554
1477.95	105.381
1479.51	100.443
1481.08	95.2553
1482.64	90.5237
1484.2	85.3173
1485.77	81.0461
1487.33	76.8057
1488.89	73.5061
1490.46	68.5803
1492.02	65.0518
1493.58	61.3049
1495.14	58.1251
1496.7	55.4749
1498.26	53.6419
1499.82	52.5052
1501.38	51.3793
1502.94	49.7651
1504.5	49.0787
1506.06	47.3664
1507.62	45.9316
1509.18	44.5392
1510.73	42.8506
1512.29	43.7855
1513.85	43.8552
1515.41	43.5243
1516.96	43.6199
1518.52	44.3247
1520.08	44.5972
1521.63	44.7615
1523.19	45.0259
1524.75	45.3005
1526.3	46.0113
1527.85	47.5302
1529.41	48.5761
1530.96	48.6231
1532.52	48.0447
1534.07	47.7112
1535.62	47.7967
1537.18	48.2015
1538.73	49.3327
1540.28	49.4935
1541.84	51.7102
1543.39	53.9005
1544.94	54.4457
1546.49	56.3559
1548.04	57.3632
1549.59	58.3956
1551.14	58.9378
1552.69	60.2791
1554.25	60.5148
1555.79	62.329
1557.34	63.6441
1558.89	65.8734
1560.44	66.3761
1561.99	67.1335
1563.54	67.5163
1565.08	68.6569
1566.63	70.0451
1568.18	70.9904
1569.73	72.854
1571.27	73.3471
1572.82	75.4482
1574.37	77.0038
1575.91	78.2834
1577.46	78.9851
1579	80.436
1580.55	82.1863
1582.09	84.5134
1583.64	86.4418
1585.18	89.8715
1586.73	91.2248
1588.27	92.6403
1589.81	93.8102
1591.35	94.5294
1592.9	95.4732
1594.44	96.0687
1595.98	96.7202
1597.52	95.7522
1599.06	94.8901
1600.61	94.7528
1602.15	94.0653
1603.69	93.6169
1605.23	92.7735
1606.77	93.2218
1608.31	92.3591
1609.85	90.0323
1611.39	88.9834
1612.93	88.246
1614.46	88.6141
1616	89.2081
1617.54	90.8988
1619.08	92.1881
1620.61	93.0674
1622.15	92.1974
1623.69	93.3979
1625.23	93.3217
1626.76	93.0443
1628.3	93.5213
1629.83	94.4782
1631.37	96.1995
1632.9	98.3896
1634.44	99.4713
1635.97	101.063
1637.51	101.575
1639.04	103.666
1640.57	106.083
1642.11	108.681
1643.64	110.468
1645.17	111.866
1646.71	113.353
1648.24	116.339
1649.77	118.393
1651.3	119.116
1652.83	120.082
1654.36	120.952
1655.89	121.784
1657.42	122.195
1658.96	122.272
1660.48	120.82
1662.01	119.236
1663.54	116.404
1665.07	114.57
1666.6	112.159
1668.13	109.456
1669.66	106.229
1671.19	102.035
1672.71	98.8476
1674.24	94.1027
1675.77	90.3997
1677.29	87.1044
1678.82	82.8323
1680.35	78.0693
1681.87	73.4174
1683.4	68.7858
1684.92	63.7383
1686.45	59.5602
1687.97	56.2089
1689.5	53.4237
1691.02	50.4423
1692.54	47.0484
1694.07	44.1055
1695.59	39.6241
1697.11	36.0566
1698.64	30.8972
1700.16	28.5907
1701.68	26.0947
1703.2	23.8615
1704.72	22.3746
1706.25	19.6961
1707.77	18.5858
1709.29	17.513
1710.81	16.0421
1712.33	14.6806
1713.85	12.8088
1715.37	11.2548
1716.89	11.0864
1718.41	9.89482
1719.92	10.287
1721.44	9.83871
1722.96	9.59489
1724.48	9.40503
1725.99	7.27904
1727.51	6.77271
1729.03	6.34752
1730.55	6.30315
1732.06	5.85444
1733.58	4.93985
1735.09	4.30774
1736.61	3.97663
1738.13	4.0981
1739.64	3.8335
1741.15	4.39914
1742.67	4.20204
1744.18	3.00481
1745.7	3.53038
1747.21	3.29305
1748.72	4.34413
1750.24	4.07589
1751.75	4.2745
1753.26	3.43727
1754.77	3.15387
1756.29	2.44915
1757.8	3.38293
1759.31	3.88211
1760.82	4.32667
1762.33	4.62335
1763.84	4.37257
1765.35	3.8536
1766.86	4.12401
1768.37	4.40791
1769.88	4.24347
1771.39	4.26751
1772.9	3.88443
1774.4	4.53485
1775.91	5.23629
1777.42	5.11535
1778.93	3.94086
1780.44	3.49485
1781.94	3.54595
1783.45	4.06073
1784.96	4.2917
1786.46	3.08188
1787.97	2.3352
1789.47	2.3274
1790.98	2.97019
1792.48	3.45369
1793.99	2.48188
1795.49	2.45476
1797	1.65232
1798.5	1.45089
1800.01	0.865265
1801.51	0.681313
1803.01	0.156272
1804.51	-0.403289
1806.02	-0.48408
1807.52	-0.80608
1809.02	-0.410354
1810.52	0.221886
1812.02	-0.23055
1813.52	0.429244
1815.02	0.61329
1816.53	1.50406
1818.03	1.53302
1819.52	1.83677
1821.02	1.95156
1822.52	1.42994
1824.02	1.88154
1825.52	2.35116
1827.02	2.11046
1828.52	1.31458
1830.02	2.07776
1831.51	2.26412
1833.01	2.77855
1834.51	2.01302
1836.01	2.36333
1837.5	3.69626
1839	4.02132
1840.49	3.9312
1841.99	3.7574
1843.49	3.28342
1844.98	3.02947
1846.48	3.77763
1847.97	3.69449
1849.47	4.35738
1850.96	4.50652
1852.45	5.06576
1853.95	5.12199
1855.44	6.11156
1856.93	7.20189
1858.42	7.00468
1859.92	7.63321
1861.41	7.70714
1862.9	7.70452
1864.39	8.1823
1865.88	8.17639
1867.38	7.65172
1868.87	7.87258
1870.36	7.80191
1871.85	8.34975
1873.34	7.64594
1874.83	7.0102
1876.32	6.91838
1877.81	6.85423
1879.29	7.78004
1880.78	8.26964
1882.27	8.38776
1882.53	8.80989
1884.03	8.42957
1885.52	9.08763
1887.01	10.1952
1888.51	10.0736
1890	10.3806
1891.5	8.63986
1892.99	8.30822
1894.48	8.64587
1895.97	8.43964
1897.47	8.28392
1898.96	7.87231
1900.45	7.108
1901.94	6.96365
1903.43	7.01507
1904.92	6.52741
1906.41	5.58438
1907.9	5.94819
1909.39	6.40885
1910.88	5.8722
1912.37	5.20158
1913.86	5.81741
1915.35	6.2667
1916.84	7.36879
1918.33	8.05028
1919.81	8.01284
1921.3	7.4639
1922.79	8.17832
1924.28	8.14266
1925.76	8.1529
1927.25	7.3758
1928.73	7.90875
1930.22	7.90857
1931.71	7.29263
1933.19	7.86493
1934.68	7.3941
1936.16	6.36122
1937.65	6.44186
1939.13	6.90222
1940.62	6.07543
1942.1	6.31258
1943.58	5.60006
1945.07	5.66562
1946.55	4.66932
1948.03	5.29989
1949.51	4.87334
1951	5.24317
1952.48	5.2921
1953.96	5.01953
1955.44	5.06011
1956.92	4.87835
1958.4	4.23112
1959.88	4.44894
1961.36	4.20315
1962.84	4.01927
1964.32	3.52689
1965.8	2.42743
1967.28	3.50225
1968.76	2.79361
1970.24	2.37938
1971.72	2.99031
1973.2	3.47696
1974.67	3.37856
1976.15	3.75694
1977.63	2.80693
1979.1	2.8882
1980.58	2.9725
1982.06	4.30199
1983.54	4.08498
1985.01	4.58301
1986.49	5.8828
1987.96	7.0887
1989.44	6.66206
1990.91	6.82719
1992.39	6.50097
1993.86	6.75956
1995.33	7.07705
1996.81	6.29394
1998.28	5.93994
1999.75	7.08982
2001.23	7.1781
2002.7	7.66543
2004.17	7.0978
2005.65	6.99861
2007.12	7.13381
2008.59	7.39253
2010.06	7.66323
2011.53	8.57967
2013	9.25454
2014.47	8.3846
2015.94	8.91702
2017.41	8.67345
2018.88	8.61678
2020.35	8.2953
2021.82	9.24214
2023.29	8.94692
2024.76	10.1354
2026.23	10.5996
2027.69	10.9675
2029.16	10.3783
2030.63	10.7762
2032.1	11.5345
2033.56	12.4475
2035.03	12.5292
2036.5	12.7144
2037.96	13.2488
2039.43	12.7396
2040.89	13.023
2042.36	12.8105
2043.83	12.9216
2045.29	12.9839
2046.75	12.5311
2048.22	11.8474
2049.68	11.065
2051.15	9.98378
2052.61	10.6752
2054.07	11.4365
2055.54	11.5948
2057	11.681
2058.46	11.7724
2059.92	11.2188
2061.39	10.9481
2062.85	10.3364
2064.31	9.54554
2065.77	8.51708
2067.23	7.93171
2068.69	6.8641
2070.15	5.72037
2071.61	5.63006
2073.07	4.97724
2074.53	3.24184
2075.99	2.84178
2077.45	1.84925
2078.91	2.4078
2080.37	2.56165
2081.82	2.91079
2083.28	3.01708
2084.74	2.53771
2086.2	2.16108
2087.65	1.87985
2089.11	2.3866
2090.57	2.53586
2092.02	2.46507
2093.48	2.71908
2094.94	3.64507
2096.39	3.69671
2097.85	4.12184
2099.3	3.757
2100.76	3.83192
2102.21	3.34069
2103.66	4.53727
2105.12	5.0956
2106.57	5.70795
2108.03	5.18584
2109.48	5.53621
2110.93	5.57889
2112.38	5.07141
2113.84	4.9976
2115.29	5.43106
2116.74	5.37307
2118.19	6.55222
2119.64	5.9553
2121.09	5.082
2122.54	4.9925
2123.99	5.9522
2125.45	6.80131
2126.89	6.40027
2128.34	6.83713
2129.79	7.03827
2131.24	7.031
