#Acq. time (s)=	45
#Accumulations=	2
#Range (cm-¹)=	200...3150
#Windows=	2
#Auto scanning=	Off
#Autofocus=	Off
#Macrospot=	Off
#AutoExposure=	Off
#Spike filter=	Multiple accum.
#Delay time (s)=	0
#Binning=	1
#Readout mode=	Signal
#DeNoise=	Off
#ICS correction=	On
#Dark correction=	Off
#Inst. Process=	Off
#Detector Gain=	Best Dynamic Range
#Detector ADC=	20 kHz       
#Detector temperature (°C)=	-69.62
#Instrument=	LabRAM HR Evol
#Detector=	Synapse
#Objective=	x100
#Grating=	600 gr/mm
#ND Filter=	100%
#Laser (nm)=	532 
#Hole=	100.021
#Range=	Auto
#Laser Pol.=	No
#Raman. Pol.=	No
#Laser Pol. (°)=	-0.0007625
#Raman Pol. (°)=	89.9995
#Collection=	Microscope
#StageXY=	Marzhauser
#StageZ=	Marzhauser
#X (µm)=	-1026.6
#Y (µm)=	-2874.1
#Z (µm)=	528.85
#Full time(mm:ss)=	3:18
#Project=	
#Sample=	
#Site=	
#Title=	Mb_00_13_40_2x_45s_532 nm_x100_100%_600 gr_mm
#Remark=	
#Date=	06.07.2022 12:56
#Acquired=	06.07.2022 12:56:45
#Base:Fit=	10.08.2022 10:16:56
#Base:Sub=	10.08.2022 10:17:24
#Filter:Polynom=	16.08.2022 10:36:38
#AxisType[0]=Intens
#AxisUnit[0]=Cnt
#AxisType[1]=Spectr
#AxisUnit[1]=1/cm
200.398	20.1934
202.213	16.1599
204.027	7.83251
205.843	3.05319
207.657	-2.48782
209.47	-6.46339
211.283	-8.28858
213.097	-8.87382
214.909	-7.47229
216.721	-2.48211
218.533	4.35419
220.344	13.4795
222.157	24.7097
223.967	35.7348
225.777	48.649
227.587	61.3806
229.396	74.6309
231.205	87.0876
233.016	100.145
234.824	110.638
236.632	119.829
238.439	128.95
240.247	138.313
242.053	146.417
243.86	154.524
245.666	160.742
247.474	168.517
249.279	176.342
251.085	182.151
252.889	189.245
254.694	193.328
256.498	196.502
258.301	199.045
260.105	201.364
261.908	202.603
263.71	202.758
265.513	203.754
267.315	202.36
269.116	200.023
270.918	197.203
272.718	195.102
274.519	190.849
276.319	186.709
278.119	179.105
279.918	171.552
281.718	162.973
283.516	153.211
285.315	144.758
287.113	135.136
288.911	125.642
290.708	116.385
292.505	108.79
294.302	102.195
296.098	93.3632
297.894	88.2088
299.69	83.0373
301.485	77.609
303.278	74.7894
305.073	71.985
306.867	70.6556
308.661	67.2782
310.454	63.0203
312.247	59.489
314.04	57.3508
315.833	55.3167
317.623	53.2287
319.415	50.2127
321.206	47.7347
322.997	46.0473
324.788	42.0552
326.579	40.4703
328.367	38.13
330.156	37.4925
331.946	34.8032
333.735	33.9174
335.523	31.1317
337.31	29.8176
339.098	28.9222
340.885	26.7286
342.673	25.4051
344.458	23.503
346.244	23.2483
348.03	24.1811
349.816	23.1656
351.6	22.5385
353.385	22.3203
355.17	24.045
356.953	24.0676
358.737	26.0912
360.521	30.0118
362.304	33.0006
364.085	37.4653
365.868	42.8423
367.65	46.6893
369.431	51.1374
371.212	55.3031
372.994	60.3442
374.773	66.0514
376.554	71.8594
378.332	78.2107
380.112	85.667
381.892	94.4259
383.669	105.093
385.448	116.967
387.225	128.732
389.003	140.024
390.781	149.727
392.557	160.999
394.334	169.379
396.109	177.474
397.885	183.366
399.66	189.43
401.436	196.749
403.211	203.29
404.984	206.205
406.759	209.921
408.532	212.228
410.306	215.09
412.078	216.557
413.851	216.357
415.623	215.443
417.395	214.192
419.166	213.599
420.938	209.588
422.708	206.405
424.477	200.941
426.248	194.95
428.017	188.138
429.788	180.717
431.556	173.525
433.326	165.829
435.093	156.789
436.86	147.599
438.629	137.271
440.395	128.251
442.163	119.058
443.929	111.598
445.694	102.951
447.461	96.875
449.226	89.6646
450.99	82.3897
452.756	76.7296
454.52	70.5742
456.285	62.5987
458.048	58.5371
459.811	55.0215
461.573	51.6197
463.337	49.6765
465.099	48.1127
466.86	50.1134
468.623	52.2798
470.384	54.607
472.144	57.0126
473.906	60.3529
475.666	61.0828
477.425	61.8367
479.184	62.6813
480.944	63.0476
482.703	64.9852
484.461	65.0067
486.218	65.3326
487.975	66.2074
489.734	68.1421
491.491	70.3625
493.247	71.4809
495.003	74.9234
496.759	75.5525
498.516	77.8517
500.271	78.3951
502.025	79.1434
503.779	79.8398
505.533	82.7254
507.287	82.4094
509.042	83.302
510.795	84.8101
512.547	85.0131
514.299	85.572
516.051	88.4174
517.803	89.247
519.554	89.8205
521.305	89.8138
523.055	90.2811
524.805	92.4669
526.555	92.8746
528.307	93.2357
530.056	93.8074
531.805	95.7544
533.553	95.5562
535.301	96.0731
537.049	95.0474
538.797	94.1208
540.544	93.5869
542.291	93.9172
544.037	92.6106
545.783	91.94
547.529	89.6751
549.275	86.7174
551.02	86.4915
552.765	85.7039
554.509	85.6028
556.253	83.4592
557.997	81.3161
559.738	80.4975
561.482	79.6477
563.224	76.6832
564.967	75.6469
566.709	74.908
568.451	72.6807
570.192	71.8807
571.933	69.2014
573.674	67.0295
575.415	67.1624
577.153	67.6016
578.893	65.3753
580.632	63.856
582.371	62.9457
584.11	59.8473
585.849	59.6008
587.587	57.0907
589.323	54.9591
591.06	54.2381
592.797	53.5403
594.534	51.38
596.271	50.2746
598.005	49.1323
599.741	48.8744
601.476	48.9488
603.211	50.299
604.944	49.8797
606.679	50.1646
608.413	50.6885
610.147	49.3108
611.878	47.4907
613.611	45.6812
615.344	44.3547
617.077	43.4902
618.807	44.0468
620.539	41.833
622.27	40.94
623.999	41.0351
625.73	41.0247
627.461	40.9142
629.189	41.8186
630.919	40.8049
632.648	41.3768
634.376	41.7801
636.105	43.5256
637.833	45.8276
639.559	46.18
641.287	46.9426
643.013	46.893
644.74	48.4345
646.467	49.1341
648.192	51.0923
649.918	51.1603
651.642	50.9393
653.368	48.7058
655.091	47.6848
656.816	48.0723
658.538	46.6323
660.263	45.7419
661.987	44.6283
663.708	42.2587
665.432	39.0743
667.153	38.6368
668.875	36.6057
670.596	34.9745
672.318	32.4444
674.037	31.5181
675.759	30.0354
677.478	29.611
679.196	28.3115
680.917	26.9826
682.635	26.0661
684.355	26.6544
686.072	25.9685
687.791	23.665
689.508	23.08
691.224	21.2592
692.942	20.9886
694.658	19.5886
696.376	16.4759
698.091	15.0976
699.805	14.2116
701.522	13.1857
703.236	12.8302
704.95	14.0138
706.665	13.2791
708.379	13.9095
710.093	14.62
711.806	14.3175
713.518	14.2429
715.23	15.6263
716.943	16.3322
718.655	17.5126
720.366	16.9029
722.078	17.8392
723.788	17.4479
725.498	17.9706
727.208	17.6569
728.919	17.0852
730.628	18.8256
732.337	16.4452
734.045	15.3469
735.755	12.9794
737.463	12.2489
739.17	10.6636
740.877	11.3791
742.584	10.6942
744.292	10.7515
745.998	10.815
747.704	9.93897
749.409	12.8402
751.114	13.8304
752.819	13.8376
754.526	14.1191
756.23	14.7922
757.934	16.2631
759.637	19.2125
761.34	17.8205
763.043	18.8995
764.746	21.1684
766.448	21.5471
768.152	21.2931
769.853	21.7688
771.554	21.3866
773.255	22.0352
774.956	23.806
776.656	25.2211
778.356	25.597
780.056	25.3406
781.755	24.7501
783.454	25.6916
785.153	25.8537
786.851	27.8945
788.549	28.6525
790.247	29.7782
791.944	28.9212
793.641	29.8565
795.338	32.1471
797.034	32.3036
798.73	33.1947
800.426	33.5685
802.121	33.5675
803.817	31.3439
805.511	30.7923
807.206	31.2598
808.9	33.3176
810.592	35.5435
812.286	34.3903
813.979	35.4538
815.672	35.7774
817.364	35.217
819.057	37.764
820.748	40.1899
822.44	40.3358
824.129	39.7099
825.82	42.4043
827.511	43.8777
829.201	43.388
830.891	42.3572
832.581	43.6312
834.269	44.3633
835.958	43.3608
837.646	43.9033
839.335	43.7702
841.023	43.1588
842.709	43.0291
844.396	40.799
846.084	38.4088
847.77	38.1773
849.455	35.8703
851.141	32.4418
852.827	30.509
854.513	30.17
856.196	28.9454
857.881	27.7468
859.566	24.7123
861.248	22.5661
862.932	19.9513
864.616	17.4629
866.297	14.9511
867.98	13.6299
869.663	12.2744
871.343	11.1721
873.026	9.83316
874.707	8.6377
876.387	6.4648
878.068	7.36136
879.747	6.31309
881.428	4.2118
883.108	3.01328
884.786	1.13191
886.465	0.905143
888.143	0.163911
889.822	1.83101
891.498	1.48455
893.177	2.14794
894.855	1.92451
896.53	0.45612
898.208	2.18894
899.883	2.86749
901.56	2.64682
903.234	3.43085
904.91	2.52175
906.584	1.7648
908.26	1.32255
909.933	4.05417
911.608	4.75847
913.28	4.01001
914.955	6.25634
916.627	7.81119
918.298	10.343
919.972	11.4383
921.643	12.1988
923.315	11.9572
924.986	12.8455
926.656	12.8732
928.328	13.0135
929.997	14.4154
931.668	15.8861
933.337	15.6303
935.006	16.7724
936.676	18.7677
938.344	20.2444
940.012	20.5797
941.681	20.3881
943.348	21.1997
945.014	24.3495
946.683	24.9544
948.349	25.0018
950.015	26.5675
951.682	27.2208
953.347	26.0571
955.012	25.2918
956.676	24.9611
958.343	23.2183
960.006	23.0995
961.67	25.1376
963.333	24.9437
964.998	26.4073
966.661	28.0854
968.323	31.4441
969.985	36.1987
971.649	38.3637
973.31	41.7623
974.971	46.8679
976.632	52.4531
978.293	57.7035
979.953	62.1516
981.615	66.1976
983.274	70.739
984.933	73.7069
986.592	78.5369
988.251	80.7783
989.909	85.8572
991.567	88.2138
993.225	92.9171
994.884	96.5555
996.541	98.0681
998.198	100.074
999.855	102.301
1001.51	101.829
1003.17	100.148
1004.82	99.2883
1006.48	96.8393
1008.13	95.8499
1009.79	94.0376
1011.44	92.5402
1013.1	92.0093
1014.75	92.6111
1016.4	94.1226
1018.06	97.6005
1019.71	101.972
1021.36	107.839
1023.01	113.989
1024.66	119.562
1026.32	127.13
1027.97	131.859
1029.62	135.496
1031.27	139.701
1032.92	142.938
1034.57	146.266
1036.22	148.865
1037.87	153.31
1039.52	155.169
1041.16	157.21
1042.81	160.873
1044.46	163.723
1046.11	166.217
1047.76	167.383
1049.4	169.128
1051.05	170.1
1052.7	171.216
1054.34	169.251
1055.99	169.531
1057.63	168.679
1059.28	166.232
1060.92	161.108
1062.57	156.221
1064.21	152.602
1065.85	148.264
1067.5	141.858
1069.14	134.715
1070.78	126.596
1072.43	119.187
1074.07	108.291
1075.71	99.3884
1077.35	89.4677
1078.99	77.1365
1080.63	67.2802
1082.27	55.799
1083.91	43.0459
1085.55	34.0134
1087.19	24.6326
1088.83	16.2633
1090.47	11.8083
1092.11	7.73327
1093.75	5.78951
1095.39	7.44436
1097.03	10.7427
1098.66	13.7373
1100.3	17.7104
1101.94	22.4126
1103.57	26.4638
1105.21	27.8206
1106.84	29.4522
1108.48	30.8648
1110.11	31.9402
1111.75	34.0408
1113.38	34.6665
1115.02	34.4129
1116.65	36.5663
1118.29	37.2669
1119.92	37.915
1121.55	37.1249
1123.19	37.9689
1124.82	37.6166
1126.45	37.3427
1128.08	37.5355
1129.71	35.6115
1131.34	35.5476
1132.97	34.0282
1134.6	33.9447
1136.23	32.0831
1137.86	31.9127
1139.49	31.2699
1141.12	31.0583
1142.75	29.5523
1144.38	30.3598
1146.01	29.0341
1147.64	26.6366
1149.26	25.3199
1150.89	22.9998
1152.52	21.0419
1154.15	18.6712
1155.77	15.5282
1157.4	13.4187
1159.02	11.7458
1160.65	9.57764
1162.27	6.89463
1163.9	4.67618
1165.52	5.22657
1167.15	5.43226
1168.77	5.78315
1170.39	7.14257
1172.02	10.8427
1173.64	12.4859
1175.26	14.4598
1176.89	17.4553
1178.51	18.7952
1180.13	21.3937
1181.75	23.5266
1183.37	24.6374
1184.99	24.7659
1186.61	24.7851
1188.23	27.6696
1189.85	29.808
1191.47	32.9355
1193.09	35.8665
1194.71	37.9167
1196.33	40.1409
1197.94	45.3022
1199.56	48.1347
1201.18	50.1682
1202.8	53.9832
1204.41	58.2285
1206.03	61.5122
1207.65	66.1817
1209.26	69.8219
1210.88	72.6421
1212.49	75.3772
1214.11	80.4611
1215.72	86.5829
1217.34	90.6956
1218.95	94.3907
1220.57	99.1899
1222.18	102.727
1223.79	106.412
1225.41	108.695
1227.02	110.711
1228.63	115.235
1230.24	118.663
1231.85	119.841
1233.47	121.197
1235.08	121.98
1236.69	122.309
1238.3	124.558
1239.91	126.423
1241.52	127.065
1243.13	127.864
1244.74	130.129
1246.34	132.575
1247.95	132.074
1249.56	131.651
1251.17	131.62
1252.78	132.202
1254.38	130.699
1255.99	131.261
1257.6	130.264
1259.2	130.998
1260.81	132.051
1262.42	132.477
1264.02	131.993
1265.63	132.454
1267.23	134.697
1268.84	136.858
1270.44	138.857
1272.04	139.818
1273.65	141.996
1275.25	143.551
1276.85	143.848
1278.46	146.805
1280.06	148.038
1281.66	149.644
1283.26	152.544
1284.86	155.026
1286.46	157.042
1288.07	159.553
1289.67	161.174
1291.27	163.273
1292.87	167.195
1294.47	171.436
1296.06	174.648
1297.66	174.731
1299.26	176.713
1300.86	181.284
1302.46	183.077
1304.06	185.293
1305.65	185.935
1307.25	189.218
1308.85	192.369
1310.44	194.581
1312.04	194.156
1313.64	195.36
1315.23	197.588
1316.83	199.889
1318.42	202.083
1320.02	202.352
1321.61	201.629
1323.2	202.511
1324.8	201.873
1326.39	200.396
1327.99	196.773
1329.58	196.514
1331.17	196.69
1332.76	197.454
1334.36	196.734
1335.95	198.296
1337.54	197.815
1339.13	199.4
1340.72	198.126
1342.31	198.247
1343.9	197.008
1345.49	195.484
1347.08	193.133
1348.67	190.481
1350.26	187.896
1351.85	184.792
1353.43	182.004
1355.02	180.008
1356.61	176.138
1358.2	175.177
1359.78	173.67
1361.37	170.005
1362.96	168.021
1364.54	165.844
1366.13	163.883
1367.71	161.353
1369.3	157.983
1370.88	155.446
1372.47	152.458
1374.05	149.845
1375.64	146.047
1377.22	142.589
1378.8	142.028
1380.39	140.815
1381.97	138.674
1383.55	137.994
1385.13	137.432
1386.72	137.604
1388.3	136.218
1389.88	135.095
1391.46	132.32
1393.04	131.565
1394.62	130.602
1396.2	127.798
1397.78	126.053
1399.36	125.957
1400.94	126.026
1402.52	127.161
1404.1	126.971
1405.68	130.464
1407.25	137.248
1408.83	144.381
1410.41	150.274
1411.98	157.202
1413.56	164.047
1415.14	171.603
1416.71	179.04
1418.29	188.641
1419.87	194.771
1421.44	203.864
1423.02	212.718
1424.59	220.512
1426.16	230.989
1427.74	241.036
1429.31	251.704
1430.89	261.6
1432.46	271.549
1434.03	280.73
1435.6	287.58
1437.18	296.661
1438.75	303.34
1440.32	306.899
1441.89	311.366
1443.46	314.885
1445.03	317.822
1446.6	318.62
1448.17	318.694
1449.74	319.165
1451.31	318.036
1452.88	315.93
1454.45	312.64
1456.02	309.499
1457.59	304.028
1459.16	299.184
1460.72	291.667
1462.29	283.822
1463.86	274.228
1465.43	263.57
1466.99	253.782
1468.56	243.74
1470.13	232.619
1471.69	221.55
1473.26	209.624
1474.82	200.294
1476.38	190.331
1477.95	182.397
1479.51	172.066
1481.08	164.41
1482.64	157.063
1484.2	149.785
1485.77	142.566
1487.33	134.611
1488.89	126.695
1490.46	118.936
1492.02	112.461
1493.58	107.453
1495.14	101.72
1496.7	98.6361
1498.26	92.8614
1499.82	91.5041
1501.38	88.4602
1502.94	86.2144
1504.5	87.1274
1506.06	87.0823
1507.62	87.1284
1509.18	87.0955
1510.73	87.9077
1512.29	87.5596
1513.85	89.2446
1515.41	89.8064
1516.96	90.2949
1518.52	91.7876
1520.08	94.0508
1521.63	98.0171
1523.19	100.029
1524.75	102.185
1526.3	104.328
1527.85	108.015
1529.41	108.154
1530.96	109.545
1532.52	112.052
1534.07	112.1
1535.62	115.569
1537.18	117.627
1538.73	117.88
1540.28	119.266
1541.84	122.573
1543.39	124.732
1544.94	126.674
1546.49	127.303
1548.04	127.059
1549.59	127.13
1551.14	128.638
1552.69	131.17
1554.25	131.551
1555.79	132.081
1557.34	130.825
1558.89	131.272
1560.44	129.886
1561.99	128.705
1563.54	128.994
1565.08	128.997
1566.63	128.75
1568.18	129.32
1569.73	129.599
1571.27	131.281
1572.82	132.449
1574.37	134.687
1575.91	135.028
1577.46	137.893
1579	141.118
1580.55	146.02
1582.09	151.461
1583.64	154.48
1585.18	158.042
1586.73	162.325
1588.27	164.536
1589.81	167.765
1591.35	170.277
1592.9	172.236
1594.44	176.052
1595.98	179.314
1597.52	180.866
1599.06	183.134
1600.61	182.35
1602.15	182.671
1603.69	183.994
1605.23	182.235
1606.77	179.904
1608.31	180.241
1609.85	179.544
1611.39	177.44
1612.93	177.896
1614.46	176.026
1616	174.952
1617.54	173.644
1619.08	175.423
1620.61	174.428
1622.15	172.582
1623.69	171.275
1625.23	169.972
1626.76	169.19
1628.3	169.292
1629.83	168.154
1631.37	167.112
1632.9	164.151
1634.44	162.796
1635.97	161.274
1637.51	160.701
1639.04	160.551
1640.57	161.491
1642.11	162.516
1643.64	164.079
1645.17	163.934
1646.71	164.036
1648.24	165.104
1649.77	166.001
1651.3	167.186
1652.83	168.022
1654.36	169.548
1655.89	172.407
1657.42	172.557
1658.96	172.18
1660.48	171.952
1662.01	172.646
1663.54	171.694
1665.07	168.512
1666.6	165.78
1668.13	163.796
1669.66	161.229
1671.19	158.074
1672.71	154.91
1674.24	149.803
1675.77	145.513
1677.29	140.543
1678.82	137.291
1680.35	132.492
1681.87	126.692
1683.4	123.602
1684.92	118.945
1686.45	114.271
1687.97	110.247
1689.5	105.625
1691.02	101.208
1692.54	97.0128
1694.07	92.6419
1695.59	88.7118
1697.11	82.762
1698.64	75.8889
1700.16	71.6956
1701.68	67.4744
1703.2	62.6884
1704.72	60.1675
1706.25	55.6458
1707.77	51.0078
1709.29	47.4498
1710.81	44.3397
1712.33	42.2513
1713.85	40.7376
1715.37	39.1184
1716.89	37.5681
1718.41	35.3179
1719.92	33.1994
1721.44	31.3932
1722.96	29.8922
1724.48	28.9098
1725.99	28.7534
1727.51	28.3309
1729.03	26.9595
1730.55	27.275
1732.06	26.9656
1733.58	24.6701
1735.09	24.1022
1736.61	22.9611
1738.13	21.5869
1739.64	19.0104
1741.15	16.5627
1742.67	15.5028
1744.18	15.7525
1745.7	13.9646
1747.21	12.6584
1748.72	12.4663
1750.24	11.3763
1751.75	10.5569
1753.26	9.99983
1754.77	9.88497
1756.29	9.64801
1757.8	8.86983
1759.31	7.89285
1760.82	7.14632
1762.33	5.56933
1763.84	4.59927
1765.35	2.52325
1766.86	2.7287
1768.37	1.48269
1769.88	-0.965294
1771.39	-1.6371
1772.9	-2.17875
1774.4	-2.24256
1775.91	-1.66245
1777.42	-1.49001
1778.93	-0.698549
1780.44	0.0463038
1781.94	-0.74255
1783.45	-0.858236
1784.96	-0.434202
1786.46	-0.697451
1787.97	0.246849
1789.47	-0.119627
1790.98	0.301007
1792.48	1.08056
1793.99	0.796448
1795.49	1.58485
1797	2.40598
1798.5	1.90885
1800.01	2.55295
1801.51	3.12049
1803.01	3.15572
1804.51	2.44327
1806.02	2.80673
1807.52	1.97883
1809.02	1.34447
1810.52	1.548
1812.02	1.77627
1813.52	2.76753
1815.02	2.58502
1816.53	2.58111
1818.03	2.15382
1819.52	2.30547
1821.02	1.66491
1822.52	1.68278
1824.02	1.49607
1825.52	1.44375
1827.02	1.91518
1828.52	2.22036
1830.02	3.21956
1831.51	2.96591
1833.01	1.83692
1834.51	2.01275
1836.01	2.0881
1837.5	1.0315
1839	1.44736
1840.49	1.14107
1841.99	2.78241
1843.49	3.32464
1844.98	3.90168
1846.48	5.10005
1847.97	5.38232
1849.47	6.38481
1850.96	6.68389
1852.45	7.19741
1853.95	7.68499
1855.44	7.99096
1856.93	8.23901
1858.42	7.58159
1859.92	7.56271
1861.41	8.15325
1862.9	7.27642
1864.39	7.89981
1865.88	8.21434
1867.38	8.91279
1868.87	8.21163
1870.36	9.40852
1871.85	7.83464
1873.34	8.30992
1874.83	8.20506
1876.32	8.18982
1877.81	7.79704
1879.29	8.14156
1880.78	7.45303
1882.27	7.72214
1882.53	9.26311
1884.03	9.92446
1885.52	10.1794
1887.01	9.94469
1888.51	10.9818
1890	10.246
1891.5	9.51508
1892.99	9.98229
1894.48	10.2806
1895.97	10.9972
1897.47	10.4587
1898.96	10.6191
1900.45	9.65609
1901.94	9.82052
1903.43	9.42852
1904.92	9.05509
1906.41	9.43648
1907.9	9.99137
1909.39	9.84627
1910.88	10.0585
1912.37	11.4312
1913.86	11.5949
1915.35	13.3297
1916.84	12.8419
1918.33	12.1149
1919.81	12.2461
1921.3	12.5267
1922.79	12.886
1924.28	12.2356
1925.76	13.0853
1927.25	13.0785
1928.73	12.3248
1930.22	12.5043
1931.71	12.0492
1933.19	12.5286
1934.68	12.9298
1936.16	12.6958
1937.65	13.6901
1939.13	12.2186
1940.62	12.6639
1942.1	12.053
1943.58	12.1633
1945.07	11.5633
1946.55	11.9588
1948.03	11.6477
1949.51	11.9691
1951	11.2724
1952.48	11.2355
1953.96	10.5109
1955.44	12.6457
1956.92	13.3371
1958.4	12.2355
1959.88	12.8682
1961.36	13.0546
1962.84	13.3735
1964.32	11.9665
1965.8	12.5212
1967.28	13.8169
1968.76	12.7055
1970.24	12.5514
1971.72	11.3277
1973.2	10.8763
1974.67	10.7661
1976.15	11.4956
1977.63	10.4413
1979.1	11.2607
1980.58	11.359
1982.06	10.514
1983.54	11.325
1985.01	10.6617
1986.49	11.1901
1987.96	9.78285
1989.44	10.6995
1990.91	9.22886
1992.39	8.65372
1993.86	8.79213
1995.33	8.32714
1996.81	6.9806
1998.28	6.72257
1999.75	7.43285
2001.23	7.18138
2002.7	7.1559
2004.17	7.63428
2005.65	6.63932
2007.12	7.24757
2008.59	6.23928
2010.06	5.48785
2011.53	4.19231
2013	2.50115
2014.47	3.22295
2015.94	1.93713
2017.41	3.008
2018.88	2.76017
2020.35	3.31399
2021.82	3.81331
2023.29	3.88825
2024.76	3.61808
2026.23	4.72004
2027.69	5.85743
2029.16	7.46377
2030.63	8.73305
2032.1	9.09587
2033.56	10.7975
2035.03	11.8702
2036.5	12.3885
2037.96	13.1806
2039.43	14.4105
2040.89	14.5714
2042.36	14.413
2043.83	14.5228
2045.29	14.7803
2046.75	15.9903
2048.22	16.7067
2049.68	17.6398
2051.15	18.2113
2052.61	20.312
2054.07	20.9511
2055.54	22.2543
2057	23.8082
2058.46	23.3192
2059.92	23.853
2061.39	24.1506
2062.85	24.0964
2064.31	23.9536
2065.77	25.039
2067.23	24.1555
2068.69	23.6808
2070.15	24.0317
2071.61	24.8797
2073.07	24.7109
2074.53	24.3152
2075.99	24.2152
2077.45	23.9356
2078.91	22.3394
2080.37	20.7737
2081.82	18.6671
2083.28	19.1948
2084.74	17.6647
2086.2	17.7177
2087.65	17.5447
2089.11	16.2761
2090.57	17.5796
2092.02	16.2978
2093.48	17.1529
2094.94	15.6696
2096.39	15.5875
2097.85	14.8159
2099.3	16.0471
2100.76	16.2136
2102.21	15.8268
2103.66	16.5702
2105.12	15.7092
2106.57	15.7308
2108.03	15.0474
2109.48	14.263
2110.93	13.9238
2112.38	13.7385
2113.84	12.7678
2115.29	12.1632
2116.74	11.1022
2118.19	12.4835
2119.64	12.8774
2121.09	12.6345
2122.54	13.2437
2123.99	13.6522
2125.45	13.8468
2126.89	13.3482
2128.34	13.2081
2129.79	12.7491
2131.24	12.1834
