#Acq. time (s)=	45
#Accumulations=	2
#Range (cm-¹)=	200...3150
#Windows=	2
#Auto scanning=	Off
#Autofocus=	Off
#Macrospot=	Off
#AutoExposure=	Off
#Spike filter=	Multiple accum.
#Delay time (s)=	0
#Binning=	1
#Readout mode=	Signal
#DeNoise=	Off
#ICS correction=	On
#Dark correction=	Off
#Inst. Process=	Off
#Detector Gain=	Best Dynamic Range
#Detector ADC=	20 kHz       
#Detector temperature (°C)=	-69.85
#Instrument=	LabRAM HR Evol
#Detector=	Synapse
#Objective=	x100
#Grating=	600 gr/mm
#ND Filter=	100%
#Laser (nm)=	532 
#Hole=	100.021
#Range=	Auto
#Laser Pol.=	No
#Raman. Pol.=	No
#Laser Pol. (°)=	-0.0007625
#Raman Pol. (°)=	89.9995
#Collection=	Microscope
#StageXY=	Marzhauser
#StageZ=	Marzhauser
#X (µm)=	-1083.4
#Y (µm)=	-2881.7
#Z (µm)=	528.95
#Full time(mm:ss)=	3:15
#Project=	
#Sample=	
#Site=	
#Title=	Mb_00_13_50_2x_45s_532 nm_x100_100%_600 gr_mm
#Remark=	
#Date=	06.07.2022 13:55
#Acquired=	06.07.2022 13:55:59
#Base:Fit=	10.08.2022 10:16:56
#Base:Sub=	10.08.2022 10:17:24
#Filter:Polynom=	16.08.2022 10:36:38
#AxisType[0]=Intens
#AxisUnit[0]=Cnt
#AxisType[1]=Spectr
#AxisUnit[1]=1/cm
200.398	23.1007
202.213	19.4945
204.027	13.9621
205.843	7.72977
207.657	0.098985
209.47	-5.93082
211.283	-10.3004
213.097	-12.6572
214.909	-12.1259
216.721	-9.08799
218.533	-3.7651
220.344	3.92059
222.157	12.0141
223.967	20.1329
225.777	27.8708
227.587	38.6173
229.396	50.2444
231.205	63.2006
233.016	73.8015
234.824	85.29
236.632	95.3064
238.439	106.553
240.247	115.699
242.053	124.494
243.86	131.686
245.666	137.651
247.474	146.694
249.279	154.578
251.085	162.628
252.889	168.329
254.694	174.995
256.498	180.276
258.301	183.183
260.105	186.465
261.908	189.196
263.71	188.585
265.513	189.213
267.315	189.469
269.116	187.035
270.918	182.592
272.718	178.632
274.519	172.967
276.319	167.002
278.119	158.775
279.918	150.347
281.718	140.821
283.516	131.192
285.315	121.931
287.113	112.305
288.911	102.455
290.708	89.7873
292.505	80.6663
294.302	70.6949
296.098	63.3925
297.894	56.9437
299.69	50.3899
301.485	44.4346
303.278	39.2788
305.073	35.0207
306.867	29.162
308.661	25.8311
310.454	21.8812
312.247	18.5584
314.04	15.8684
315.833	13.2638
317.623	12.8374
319.415	12.3223
321.206	11.472
322.997	9.70527
324.788	10.1798
326.579	9.8908
328.367	10.4548
330.156	8.05696
331.946	7.28039
333.735	5.59822
335.523	5.61851
337.31	5.37729
339.098	4.41382
340.885	4.44827
342.673	3.89764
344.458	3.46445
346.244	1.94214
348.03	0.976161
349.816	1.51448
351.6	1.17428
353.385	-0.493647
355.17	-1.98196
356.953	-1.87549
358.737	-3.2953
360.521	-3.16926
362.304	0.0526903
364.085	1.73631
365.868	5.0244
367.65	9.81512
369.431	14.3599
371.212	19.6265
372.994	23.0554
374.773	26.8456
376.554	30.6719
378.332	35.9602
380.112	41.968
381.892	50.9916
383.669	59.2966
385.448	69.445
387.225	80.0284
389.003	89.5758
390.781	99.7011
392.557	109.851
394.334	118.815
396.109	126.901
397.885	136.5
399.66	143.295
401.436	150.53
403.211	155.331
404.984	159.861
406.759	165.597
408.532	170.386
410.306	172.672
412.078	175.006
413.851	176.527
415.623	176.51
417.395	174.475
419.166	170.57
420.938	166.937
422.708	163.178
424.477	159.624
426.248	154.38
428.017	148.316
429.788	140.996
431.556	132.867
433.326	123.132
435.093	113.218
436.86	104.018
438.629	94.3404
440.395	83.7138
442.163	73.9144
443.929	64.5248
445.694	56.8819
447.461	49.1149
449.226	43.1228
450.99	37.0244
452.756	28.554
454.52	22.6776
456.285	15.655
458.048	9.09687
459.811	2.54652
461.573	-3.06253
463.337	-5.73387
465.099	-7.68671
466.86	-6.77245
468.623	-6.34347
470.384	-5.2182
472.144	-2.86995
473.906	-1.46771
475.666	-0.201891
477.425	-0.968103
479.184	1.77006
480.944	3.6999
482.703	4.24996
484.461	5.11189
486.218	7.06896
487.975	8.15969
489.734	11.4398
491.491	13.8456
493.247	16.1726
495.003	19.6797
496.759	22.3248
498.516	23.5941
500.271	26.5081
502.025	27.8696
503.779	28.6188
505.533	30.1558
507.287	30.8958
509.042	33.7448
510.795	35.6904
512.547	37.9539
514.299	38.9975
516.051	39.2301
517.803	40.4761
519.554	42.3944
521.305	42.385
523.055	44.1504
524.805	46.5136
526.555	47.0081
528.307	46.6765
530.056	47.9759
531.805	47.5157
533.553	48.1669
535.301	47.6399
537.049	46.5268
538.797	44.4168
540.544	42.5722
542.291	41.6035
544.037	40.1453
545.783	39.6234
547.529	37.9595
549.275	36.3553
551.02	33.797
552.765	30.6804
554.509	29.5736
556.253	27.0197
557.997	24.8433
559.738	23.1835
561.482	21.2237
563.224	19.6073
564.967	18.2352
566.709	17.6392
568.451	16.663
570.192	15.513
571.933	14.2088
573.674	13.3685
575.415	12.9791
577.153	11.6954
578.893	9.56851
580.632	9.15402
582.371	9.60649
584.11	8.11375
585.849	7.32156
587.587	7.298
589.323	5.94758
591.06	5.40743
592.797	5.34967
594.534	4.24849
596.271	3.21147
598.005	1.47199
599.741	2.10079
601.476	2.00601
603.211	1.50558
604.944	2.48215
606.679	3.17964
608.413	3.3144
610.147	4.05881
611.878	3.17798
613.611	2.30164
615.344	3.75237
617.077	4.69735
618.807	2.5226
620.539	4.22535
622.27	4.64623
623.999	5.00715
625.73	5.0627
627.461	5.72645
629.189	6.86319
630.919	9.40494
632.648	10.3286
634.376	9.98052
636.105	9.89914
637.833	10.7269
639.559	12.228
641.287	14.0608
643.013	14.6704
644.74	17.2453
646.467	19.6387
648.192	21.8161
649.918	23.1013
651.642	23.106
653.368	23.7464
655.091	24.1961
656.816	23.2452
658.538	22.386
660.263	23.1578
661.987	23.0465
663.708	22.0896
665.432	22.499
667.153	23.7291
668.875	23.3087
670.596	22.5613
672.318	21.4556
674.037	20.6455
675.759	19.1592
677.478	18.1402
679.196	16.9751
680.917	16.1267
682.635	13.544
684.355	14.6408
686.072	14.2349
687.791	12.9524
689.508	11.1516
691.224	10.1648
692.942	7.94802
694.658	7.07153
696.376	5.81491
698.091	5.77743
699.805	5.9287
701.522	5.63444
703.236	4.15186
704.95	3.83571
706.665	6.26295
708.379	5.58342
710.093	4.39393
711.806	5.00848
713.518	5.37824
715.23	7.25748
716.943	8.2727
718.655	7.82077
720.366	8.47149
722.078	10.1658
723.788	11.8699
725.498	13.6864
727.208	14.8518
728.919	15.5621
730.628	16.8646
732.337	16.0339
734.045	16.7384
735.755	15.0489
737.463	13.7869
739.17	14.1221
740.877	15.2538
742.584	16.352
744.292	18.8635
745.998	19.8769
747.704	19.4729
749.409	21.0866
751.114	24.3895
752.819	27.5466
754.526	27.7953
756.23	28.9416
757.934	28.8854
759.637	30.1542
761.34	29.9472
763.043	30.4224
764.746	30.8597
766.448	30.7067
768.152	30.1964
769.853	31.0295
771.554	30.8519
773.255	31.6362
774.956	30.2999
776.656	30.494
778.356	30.8217
780.056	32.7256
781.755	32.5325
783.454	32.0106
785.153	30.96
786.851	31.4202
788.549	32.6211
790.247	32.5258
791.944	33.7251
793.641	33.7133
795.338	32.6413
797.034	34.2487
798.73	34.9636
800.426	36.0965
802.121	37.2291
803.817	36.8667
805.511	37.6365
807.206	37.3095
808.9	36.9596
810.592	37.234
812.286	36.7052
813.979	36.7059
815.672	37.3763
817.364	37.2379
819.057	37.5879
820.748	38.7529
822.44	40.052
824.129	42.8546
825.82	45.419
827.511	46.9933
829.201	48.1827
830.891	47.6589
832.581	50.4261
834.269	52.6978
835.958	53.7867
837.646	52.6842
839.335	52.5539
841.023	52.7542
842.709	52.3604
844.396	52.6511
846.084	53.3935
847.77	53.6571
849.455	51.7715
851.141	50.1022
852.827	49.0337
854.513	46.8495
856.196	45.3888
857.881	42.5982
859.566	38.6999
861.248	40.2921
862.932	39.0286
864.616	38.4643
866.297	36.7619
867.98	34.1771
869.663	32.898
871.343	33.2708
873.026	31.6115
874.707	29.9933
876.387	28.3897
878.068	26.4821
879.747	23.647
881.428	23.5768
883.108	20.8345
884.786	19.6513
886.465	17.9183
888.143	14.8209
889.822	13.7137
891.498	13.5247
893.177	12.9954
894.855	12.5253
896.53	11.8776
898.208	12.054
899.883	11.4466
901.56	12.5531
903.234	13.3096
904.91	13.5119
906.584	13.5747
908.26	15.1832
909.933	15.5241
911.608	15.162
913.28	16.2184
914.955	15.9405
916.627	17.2921
918.298	17.2802
919.972	17.0736
921.643	16.9254
923.315	17.2567
924.986	17.1604
926.656	17.3503
928.328	16.7621
929.997	15.6016
931.668	14.4765
933.337	13.7534
935.006	15.458
936.676	15.0679
938.344	14.3497
940.012	14.5526
941.681	14.8769
943.348	14.759
945.014	16.1298
946.683	13.8259
948.349	13.2983
950.015	12.1281
951.682	10.7197
953.347	10.8114
955.012	9.72339
956.676	8.16721
958.343	5.40834
960.006	3.16956
961.67	1.93338
963.333	2.3017
964.998	3.8439
966.661	5.73072
968.323	8.0555
969.985	9.66282
971.649	13.47
973.31	17.989
974.971	21.9347
976.632	24.7106
978.293	26.9513
979.953	30.5979
981.615	34.3426
983.274	36.2571
984.933	40.1368
986.592	41.7303
988.251	44.8413
989.909	47.4273
991.567	49.2994
993.225	51.9307
994.884	53.1832
996.541	56.7842
998.198	57.0933
999.855	58.3421
1001.51	58.088
1003.17	58.2008
1004.82	57.9424
1006.48	57.9043
1008.13	57.5994
1009.79	56.9808
1011.44	56.2076
1013.1	56.9017
1014.75	58.1077
1016.4	60.6725
1018.06	64.6355
1019.71	68.6709
1021.36	74.3046
1023.01	81.9499
1024.66	90.8563
1026.32	99.0873
1027.97	106.634
1029.62	112.967
1031.27	120.139
1032.92	126.738
1034.57	133.338
1036.22	140.222
1037.87	145.647
1039.52	151.317
1041.16	154.748
1042.81	159.429
1044.46	164.854
1046.11	170.234
1047.76	173.796
1049.4	176.625
1051.05	176.575
1052.7	177.232
1054.34	176.962
1055.99	176.653
1057.63	174.554
1059.28	171.472
1060.92	167.257
1062.57	164.443
1064.21	160.958
1065.85	154.903
1067.5	149.943
1069.14	144.136
1070.78	137.649
1072.43	129.179
1074.07	121.042
1075.71	112.843
1077.35	102.58
1078.99	92.0372
1080.63	78.0249
1082.27	66.2906
1083.91	53.9125
1085.55	42.7282
1087.19	31.8298
1088.83	23.1962
1090.47	16.8976
1092.11	12.6273
1093.75	8.81226
1095.39	8.29252
1097.03	8.98228
1098.66	11.6712
1100.3	13.3257
1101.94	15.306
1103.57	17.4822
1105.21	19.7771
1106.84	22.9117
1108.48	23.4231
1110.11	24.0714
1111.75	25.428
1113.38	26.9192
1115.02	28.8522
1116.65	28.9924
1118.29	28.9691
1119.92	27.9906
1121.55	26.0661
1123.19	25.4701
1124.82	25.0621
1126.45	25.4771
1128.08	25.6987
1129.71	24.2164
1131.34	22.6483
1132.97	21.8072
1134.6	22.1962
1136.23	23.29
1137.86	24.398
1139.49	23.4586
1141.12	23.3117
1142.75	23.0966
1144.38	23.9401
1146.01	24.0201
1147.64	22.6569
1149.26	22.0627
1150.89	20.903
1152.52	18.1071
1154.15	16.3052
1155.77	14.8224
1157.4	13.4854
1159.02	11.2848
1160.65	7.81726
1162.27	6.11015
1163.9	4.31888
1165.52	4.58728
1167.15	5.56075
1168.77	5.60176
1170.39	7.8179
1172.02	9.01047
1173.64	9.63236
1175.26	9.30427
1176.89	10.9659
1178.51	13.197
1180.13	13.7197
1181.75	14.4581
1183.37	15.6823
1184.99	17.6352
1186.61	19.2538
1188.23	21.4255
1189.85	21.703
1191.47	23.6408
1193.09	25.1521
1194.71	27.1336
1196.33	30.0205
1197.94	31.3131
1199.56	34.5948
1201.18	38.0323
1202.8	40.8478
1204.41	43.4696
1206.03	45.1133
1207.65	48.9768
1209.26	52.2388
1210.88	54.9119
1212.49	59.4341
1214.11	65.1146
1215.72	69.6625
1217.34	73.8889
1218.95	77.3872
1220.57	82.2163
1222.18	85.7844
1223.79	88.9735
1225.41	94.4102
1227.02	96.2185
1228.63	98.114
1230.24	100.722
1231.85	103.968
1233.47	107.78
1235.08	112.463
1236.69	115.11
1238.3	117.028
1239.91	118.507
1241.52	118.769
1243.13	120.468
1244.74	120.151
1246.34	122.223
1247.95	121.759
1249.56	120.449
1251.17	121.367
1252.78	119.384
1254.38	118.107
1255.99	117.502
1257.6	117.944
1259.2	117.647
1260.81	116.444
1262.42	116.318
1264.02	117.329
1265.63	117.46
1267.23	116.58
1268.84	116.258
1270.44	115.433
1272.04	115.565
1273.65	115.573
1275.25	115.066
1276.85	114.304
1278.46	113.526
1280.06	112.722
1281.66	114.204
1283.26	114.055
1284.86	114.32
1286.46	117.002
1288.07	119.341
1289.67	121.056
1291.27	124.229
1292.87	126.971
1294.47	129.49
1296.06	129.907
1297.66	131.702
1299.26	133.36
1300.86	135.395
1302.46	136.296
1304.06	138.451
1305.65	142.199
1307.25	143.093
1308.85	145.927
1310.44	150.512
1312.04	153.057
1313.64	155.087
1315.23	156.857
1316.83	157.772
1318.42	157.442
1320.02	157.464
1321.61	157.931
1323.2	157.089
1324.8	156.576
1326.39	157.017
1327.99	157.374
1329.58	157.338
1331.17	157.089
1332.76	155.915
1334.36	155.705
1335.95	157.097
1337.54	157.755
1339.13	157.852
1340.72	157.783
1342.31	157.535
1343.9	155.744
1345.49	152.988
1347.08	151.475
1348.67	150.411
1350.26	148.315
1351.85	147.59
1353.43	144.499
1355.02	141.941
1356.61	140.443
1358.2	139.198
1359.78	138.948
1361.37	139.723
1362.96	137.399
1364.54	138.242
1366.13	136.677
1367.71	135
1369.3	134.03
1370.88	132.653
1372.47	130.569
1374.05	127.662
1375.64	125.539
1377.22	124.49
1378.8	123.423
1380.39	122.596
1381.97	121.159
1383.55	121.136
1385.13	120.332
1386.72	119.616
1388.3	119.559
1389.88	118.981
1391.46	117.238
1393.04	114.875
1394.62	113.198
1396.2	111.935
1397.78	110.756
1399.36	110.164
1400.94	110.579
1402.52	110.848
1404.1	113.021
1405.68	115.59
1407.25	118.101
1408.83	121.739
1410.41	125.797
1411.98	129.617
1413.56	135.16
1415.14	141.802
1416.71	148.036
1418.29	152.989
1419.87	159.827
1421.44	166.571
1423.02	172.202
1424.59	179.012
1426.16	186.235
1427.74	193.32
1429.31	200.699
1430.89	207.746
1432.46	214.62
1434.03	221.161
1435.6	228.543
1437.18	235.373
1438.75	240.769
1440.32	244.544
1441.89	248.929
1443.46	253.319
1445.03	253.492
1446.6	255.684
1448.17	255.62
1449.74	255.415
1451.31	253.739
1452.88	251.819
1454.45	250.297
1456.02	246.937
1457.59	243.974
1459.16	240.031
1460.72	234.352
1462.29	229.259
1463.86	222.229
1465.43	216.586
1466.99	209.358
1468.56	201.306
1470.13	192.491
1471.69	183.713
1473.26	176.837
1474.82	169.298
1476.38	161.095
1477.95	153.581
1479.51	148.21
1481.08	141.791
1482.64	136.085
1484.2	130.725
1485.77	125.49
1487.33	122.554
1488.89	118.537
1490.46	114.761
1492.02	111.709
1493.58	108.976
1495.14	105.71
1496.7	100.708
1498.26	100.827
1499.82	98.4146
1501.38	97.5169
1502.94	96.741
1504.5	96.4978
1506.06	96.5846
1507.62	96.219
1509.18	95.3231
1510.73	93.9553
1512.29	91.8201
1513.85	91.6694
1515.41	91.5646
1516.96	90.3186
1518.52	90.584
1520.08	90.271
1521.63	90.3212
1523.19	90.3858
1524.75	90.5824
1526.3	89.1779
1527.85	89.7538
1529.41	90.5678
1530.96	91.4664
1532.52	91.8356
1534.07	92.1233
1535.62	93.8289
1537.18	95.0157
1538.73	93.5681
1540.28	95.14
1541.84	94.2999
1543.39	96.4401
1544.94	97.9913
1546.49	98.716
1548.04	98.2603
1549.59	100.04
1551.14	100.744
1552.69	100.73
1554.25	102.281
1555.79	104.278
1557.34	105.77
1558.89	105.84
1560.44	106.876
1561.99	107.749
1563.54	110.33
1565.08	111.611
1566.63	113.662
1568.18	116.024
1569.73	116.959
1571.27	117.677
1572.82	118.757
1574.37	121.555
1575.91	125.098
1577.46	127.09
1579	129.937
1580.55	131.137
1582.09	132.973
1583.64	134.044
1585.18	133.657
1586.73	134.883
1588.27	136.206
1589.81	138.141
1591.35	140.082
1592.9	143.072
1594.44	142.431
1595.98	143.874
1597.52	144.714
1599.06	145.732
1600.61	145.405
1602.15	143.623
1603.69	143.329
1605.23	142.839
1606.77	141.759
1608.31	141.547
1609.85	141.595
1611.39	138.707
1612.93	138.52
1614.46	137.826
1616	135.124
1617.54	135.441
1619.08	133.402
1620.61	133.897
1622.15	133.195
1623.69	133.747
1625.23	132.622
1626.76	133.074
1628.3	131.981
1629.83	132.776
1631.37	133.812
1632.9	133.653
1634.44	132.636
1635.97	132.56
1637.51	133.57
1639.04	135.051
1640.57	136.073
1642.11	136.239
1643.64	137.727
1645.17	139.061
1646.71	139.621
1648.24	140.611
1649.77	143.256
1651.3	143.76
1652.83	143.979
1654.36	144.164
1655.89	143.177
1657.42	142.847
1658.96	142.325
1660.48	140.266
1662.01	139.518
1663.54	138.434
1665.07	137.424
1666.6	135.495
1668.13	133.763
1669.66	130.984
1671.19	126.364
1672.71	122.638
1674.24	118.752
1675.77	114.994
1677.29	110.879
1678.82	106.557
1680.35	103.635
1681.87	97.9271
1683.4	93.1469
1684.92	90.2309
1686.45	84.6077
1687.97	79.2373
1689.5	76.0458
1691.02	71.1713
1692.54	66.3348
1694.07	64.0023
1695.59	59.8738
1697.11	56.9547
1698.64	54.5007
1700.16	52.4358
1701.68	47.4618
1703.2	44.9844
1704.72	42.4537
1706.25	40.3258
1707.77	36.8209
1709.29	33.0315
1710.81	30.1324
1712.33	28.6521
1713.85	27.3388
1715.37	25.9394
1716.89	23.3249
1718.41	21.5216
1719.92	21.2645
1721.44	20.9929
1722.96	19.4229
1724.48	18.1543
1725.99	15.8984
1727.51	14.223
1729.03	13.991
1730.55	12.5933
1732.06	12.8173
1733.58	12.8059
1735.09	11.6479
1736.61	10.5143
1738.13	10.5937
1739.64	10.1816
1741.15	10.3403
1742.67	9.86787
1744.18	9.00034
1745.7	7.65209
1747.21	8.10245
1748.72	7.85627
1750.24	8.64131
1751.75	8.41273
1753.26	8.04722
1754.77	8.55672
1756.29	8.1068
1757.8	6.70418
1759.31	7.23274
1760.82	8.27422
1762.33	7.05901
1763.84	7.02551
1765.35	6.20838
1766.86	7.00701
1768.37	7.13948
1769.88	7.01442
1771.39	5.82125
1772.9	5.62345
1774.4	5.69817
1775.91	5.77619
1777.42	4.76184
1778.93	4.60753
1780.44	4.90297
1781.94	3.7948
1783.45	3.48152
1784.96	2.86645
1786.46	2.59293
1787.97	2.63701
1789.47	2.87403
1790.98	2.27885
1792.48	1.28631
1793.99	2.04431
1795.49	2.72711
1797	1.91666
1798.5	2.12783
1800.01	1.74664
1801.51	1.819
1803.01	2.85029
1804.51	3.37308
1806.02	3.56937
1807.52	4.44324
1809.02	3.43921
1810.52	2.52275
1812.02	1.85546
1813.52	1.51465
1815.02	1.29053
1816.53	1.06555
1818.03	1.44905
1819.52	1.94486
1821.02	3.14588
1822.52	3.86398
1824.02	3.87395
1825.52	3.89726
1827.02	4.90158
1828.52	5.56223
1830.02	5.09133
1831.51	4.8538
1833.01	5.12824
1834.51	5.26265
1836.01	4.738
1837.5	5.05084
1839	6.11561
1840.49	6.99609
1841.99	8.30372
1843.49	7.94938
1844.98	9.04094
1846.48	9.98368
1847.97	10.1309
1849.47	10.8771
1850.96	9.61041
1852.45	10.1609
1853.95	10.9431
1855.44	10.9793
1856.93	10.7652
1858.42	11.6384
1859.92	11.5021
1861.41	11.8191
1862.9	12.4591
1864.39	12.509
1865.88	12.3815
1867.38	12.6712
1868.87	12.1611
1870.36	13.1085
1871.85	13.5448
1873.34	14.6273
1874.83	14.9066
1876.32	15.71
1877.81	16.7694
1879.29	16.9965
1880.78	16.3889
1882.27	15.7865
1882.53	14.7488
1884.03	14.2297
1885.52	13.1552
1887.01	12.9584
1888.51	12.6156
1890	12.7881
1891.5	13.6349
1892.99	13.793
1894.48	14.5735
1895.97	13.4389
1897.47	13.4514
1898.96	13.586
1900.45	13.3275
1901.94	12.3779
1903.43	11.3956
1904.92	11.9339
1906.41	12.1205
1907.9	12.6631
1909.39	12.7174
1910.88	13.9519
1912.37	14.4129
1913.86	14.7992
1915.35	15.1618
1916.84	15.28
1918.33	16.3055
1919.81	15.4245
1921.3	14.5429
1922.79	14.3393
1924.28	14.2482
1925.76	16.4277
1927.25	16.4355
1928.73	16.1529
1930.22	16.9934
1931.71	15.9499
1933.19	16.7282
1934.68	16.0204
1936.16	14.8532
1937.65	15.0897
1939.13	16.0469
1940.62	15.5909
1942.1	16.0722
1943.58	18.5147
1945.07	18.9591
1946.55	19.2961
1948.03	17.9878
1949.51	17.0458
1951	16.1417
1952.48	15.3338
1953.96	15.2147
1955.44	15.5299
1956.92	15.2702
1958.4	15.1939
1959.88	14.9715
1961.36	15.0525
1962.84	15.7252
1964.32	16.5409
1965.8	16.756
1967.28	16.4535
1968.76	16.0949
1970.24	15.513
1971.72	14.7864
1973.2	13.9451
1974.67	12.4713
1976.15	13.0029
1977.63	11.9129
1979.1	11.7882
1980.58	13.4664
1982.06	14.2583
1983.54	14.1495
1985.01	15.1499
1986.49	15.9239
1987.96	15.9742
1989.44	16.5573
1990.91	17.3992
1992.39	17.7561
1993.86	17.9446
1995.33	19.9281
1996.81	20.2798
1998.28	21.0696
1999.75	21.9153
2001.23	22.483
2002.7	22.6042
2004.17	22.6673
2005.65	22.2067
2007.12	23.3114
2008.59	23.1356
2010.06	23.6774
2011.53	24.5243
2013	24.425
2014.47	23.5839
2015.94	25.2095
2017.41	24.5477
2018.88	23.9789
2020.35	23.1877
2021.82	23.105
2023.29	23.8184
2024.76	25.3799
2026.23	26.6617
2027.69	27.4563
2029.16	28.131
2030.63	27.5091
2032.1	26.8206
2033.56	26.2418
2035.03	25.6989
2036.5	26.0341
2037.96	25.4479
2039.43	24.2735
2040.89	23.6451
2042.36	22.6779
2043.83	22.8699
2045.29	22.9522
2046.75	23.287
2048.22	23.603
2049.68	23.8516
2051.15	22.8436
2052.61	25.5389
2054.07	26.3353
2055.54	25.7003
2057	24.685
2058.46	25.6496
2059.92	25.0661
2061.39	24.7121
2062.85	25.475
2064.31	25.9948
2065.77	25.7355
2067.23	26.2012
2068.69	25.8048
2070.15	24.4056
2071.61	25.0396
2073.07	25.1609
2074.53	24.6625
2075.99	24.3368
2077.45	24.1876
2078.91	23.795
2080.37	23.8208
2081.82	23.8344
2083.28	22.5309
2084.74	22.7885
2086.2	22.3235
2087.65	21.2081
2089.11	21.7063
2090.57	20.2118
2092.02	19.7612
2093.48	19.3671
2094.94	19.4592
2096.39	18.3656
2097.85	17.5749
2099.3	16.1847
2100.76	16.4413
2102.21	16.4764
2103.66	16.0896
2105.12	15.2896
2106.57	14.4515
2108.03	14.074
2109.48	15.0933
2110.93	15.3373
2112.38	15.35
2113.84	16.0959
2115.29	16.7757
2116.74	17.6144
2118.19	17.8013
2119.64	16.2621
2121.09	15.8059
2122.54	15.609
2123.99	16.0474
2125.45	16.6484
2126.89	14.764
2128.34	14.5781
2129.79	14.1272
2131.24	14.2884
2132.69	13.3378
