#Acq. time (s)=	45
#Accumulations=	2
#Range (cm-¹)=	200...3150
#Windows=	2
#Auto scanning=	Off
#Autofocus=	Off
#Macrospot=	Off
#AutoExposure=	Off
#Spike filter=	Multiple accum.
#Delay time (s)=	0
#Binning=	1
#Readout mode=	Signal
#DeNoise=	Off
#ICS correction=	On
#Dark correction=	Off
#Inst. Process=	Off
#Detector Gain=	Best Dynamic Range
#Detector ADC=	20 kHz       
#Detector temperature (°C)=	-69.85
#Instrument=	LabRAM HR Evol
#Detector=	Synapse
#Objective=	x100
#Grating=	600 gr/mm
#ND Filter=	100%
#Laser (nm)=	532 
#Hole=	100.021
#Range=	Auto
#Laser Pol.=	No
#Raman. Pol.=	No
#Laser Pol. (°)=	-0.0007625
#Raman Pol. (°)=	89.9995
#Collection=	Microscope
#StageXY=	Marzhauser
#StageZ=	Marzhauser
#X (µm)=	-994.5
#Y (µm)=	-2944.9
#Z (µm)=	527.85
#Full time(mm:ss)=	3:18
#Project=	
#Sample=	
#Site=	
#Title=	Mb_00_13_08_2x_45s_532 nm_x100_100%_600 gr_mm
#Remark=	
#Date=	06.07.2022 10:13
#Acquired=	06.07.2022 10:13:48
#Base:Fit=	10.08.2022 10:16:36
#Base:Fit=	10.08.2022 10:16:56
#Base:Sub=	10.08.2022 10:17:24
#Filter:Polynom=	16.08.2022 10:36:38
#AxisType[0]=Intens
#AxisUnit[0]=Cnt
#AxisType[1]=Spectr
#AxisUnit[1]=1/cm
200.398	47.7999
202.213	38.3329
204.027	30.9774
205.843	23.1262
207.657	16.0822
209.47	9.8751
211.283	4.83113
213.097	1.16217
214.909	-0.742281
216.721	0.542779
218.533	3.58822
220.344	9.02569
222.157	13.7834
223.967	22.0694
225.777	30.1399
227.587	38.094
229.396	46.2569
231.205	54.5033
233.016	63.6099
234.824	71.7801
236.632	80.2783
238.439	88.0954
240.247	94.4947
242.053	101.056
243.86	107.724
245.666	112.39
247.474	118.96
249.279	126.5
251.085	131.992
252.889	136.717
254.694	140.197
256.498	144.784
258.301	147.672
260.105	150.432
261.908	151.589
263.71	152.071
265.513	150.743
267.315	149.581
269.116	148.392
270.918	146.49
272.718	143.406
274.519	136.811
276.319	131.024
278.119	123.425
279.918	117.036
281.718	109.936
283.516	102.939
285.315	94.8366
287.113	85.0141
288.911	77.1327
290.708	69.1733
292.505	62.0764
294.302	54.7131
296.098	48.2492
297.894	42.3536
299.69	37.3362
301.485	33.1228
303.278	29.3388
305.073	26.5007
306.867	24.4545
308.661	23.006
310.454	21.2712
312.247	19.0869
314.04	18.4944
315.833	15.9771
317.623	14.8746
319.415	13.6051
321.206	13.5396
322.997	13.7389
324.788	12.8647
326.579	11.6455
328.367	10.4538
330.156	10.5918
331.946	10.8738
333.735	10.8651
335.523	9.71084
337.31	8.74141
339.098	8.53071
340.885	7.59007
342.673	7.4507
344.458	6.49812
346.244	7.51562
348.03	6.38637
349.816	6.79218
351.6	6.80418
353.385	6.78539
355.17	6.36392
356.953	6.90322
358.737	6.85031
360.521	7.37583
362.304	8.08775
364.085	8.70494
365.868	11.9929
367.65	13.3207
369.431	16.8149
371.212	19.8613
372.994	22.7258
374.773	26.6095
376.554	30.6666
378.332	35.4396
380.112	40.3645
381.892	46.2875
383.669	53.6867
385.448	61.7683
387.225	70.0257
389.003	77.3136
390.781	84.7658
392.557	92.1184
394.334	99.4403
396.109	105.3
397.885	111.362
399.66	115.407
401.436	119.985
403.211	122.739
404.984	125.754
406.759	127.675
408.532	129.5
410.306	131.215
412.078	131.092
413.851	131.034
415.623	130.369
417.395	130.348
419.166	128.09
420.938	124.774
422.708	121.333
424.477	116.981
426.248	111.503
428.017	106.043
429.788	101.128
431.556	94.6539
433.326	89.2549
435.093	82.6371
436.86	75.0021
438.629	68.4516
440.395	61.5494
442.163	54.0931
443.929	48.2031
445.694	42.1763
447.461	35.9932
449.226	30.3987
450.99	25.1948
452.756	19.8925
454.52	15.8245
456.285	11.0926
458.048	7.69945
459.811	3.89826
461.573	0.166614
463.337	-2.25238
465.099	-2.51981
466.86	-2.15466
468.623	-0.215809
470.384	1.96638
472.144	4.48546
473.906	4.81583
475.666	4.75803
477.425	6.50835
479.184	8.27163
480.944	9.75006
482.703	10.2903
484.461	10.3145
486.218	12.3688
487.975	12.8832
489.734	14.4179
491.491	15.4326
493.247	17.8049
495.003	20.0731
496.759	23.6569
498.516	25.0576
500.271	27.3278
502.025	29.0902
503.779	29.9704
505.533	30.7109
507.287	31.6469
509.042	32.9661
510.795	34.0108
512.547	36.2749
514.299	37.9078
516.051	39.322
517.803	40.7328
519.554	41.5621
521.305	42.552
523.055	43.7326
524.805	44.2851
526.555	44.1991
528.307	43.7817
530.056	44.5562
531.805	45.3963
533.553	45.4836
535.301	45.8268
537.049	45.021
538.797	44.7554
540.544	43.4492
542.291	43.0891
544.037	40.9209
545.783	39.5913
547.529	37.0446
549.275	36.0221
551.02	35.0177
552.765	34.255
554.509	31.3403
556.253	29.8552
557.997	27.4312
559.738	24.9736
561.482	22.1178
563.224	20.6685
564.967	19.6851
566.709	17.5968
568.451	15.71
570.192	12.6854
571.933	11.0403
573.674	10.4377
575.415	7.70484
577.153	6.75314
578.893	7.42297
580.632	6.93044
582.371	6.5352
584.11	4.93245
585.849	3.46732
587.587	2.42973
589.323	0.974699
591.06	-0.132861
592.797	-0.858666
594.534	-0.776573
596.271	-1.85784
598.005	-1.79709
599.741	-1.84083
601.476	-2.56914
603.211	-3.76606
604.944	-2.48164
606.679	-1.1751
608.413	-1.46767
610.147	-0.0647839
611.878	-0.125773
613.611	-0.457726
615.344	0.836851
617.077	3.53158
618.807	4.3935
620.539	4.58504
622.27	4.25867
623.999	3.98647
625.73	6.37517
627.461	8.14759
629.189	9.45477
630.919	10.3024
632.648	11.778
634.376	12.5872
636.105	14.9619
637.833	16.0564
639.559	17.401
641.287	18.9699
643.013	21.2336
644.74	20.8898
646.467	21.2296
648.192	22.3667
649.918	23.494
651.642	24.2581
653.368	24.8575
655.091	25.0795
656.816	24.5508
658.538	24.0885
660.263	24.3047
661.987	24.4561
663.708	25.7163
665.432	26.9332
667.153	24.5916
668.875	23.7107
670.596	23.4811
672.318	22.6603
674.037	21.1026
675.759	19.4599
677.478	19.0613
679.196	19.0528
680.917	19.1875
682.635	17.7157
684.355	16.6243
686.072	16.0822
687.791	16.745
689.508	15.0607
691.224	14.3896
692.942	13.4217
694.658	12.1124
696.376	11.534
698.091	10.7293
699.805	9.87574
701.522	9.97158
703.236	9.23818
704.95	7.4888
706.665	6.73856
708.379	7.09677
710.093	7.59083
711.806	8.59436
713.518	7.09348
715.23	5.21917
716.943	5.07405
718.655	5.88618
720.366	5.73271
722.078	6.53215
723.788	6.57504
725.498	7.23484
727.208	7.03276
728.919	6.87834
730.628	6.0666
732.337	6.1583
734.045	5.90585
735.755	6.32494
737.463	7.57446
739.17	8.34817
740.877	9.73832
742.584	10.2374
744.292	11.8604
745.998	13.4216
747.704	14.2255
749.409	14.8857
751.114	17.5094
752.819	19.4103
754.526	21.2177
756.23	23.4901
757.934	24.9737
759.637	27.7899
761.34	29.3572
763.043	32.404
764.746	33.594
766.448	34.9323
768.152	35.4582
769.853	36.1625
771.554	37.8377
773.255	39.9778
774.956	39.3698
776.656	42.0989
778.356	44.2038
780.056	43.9615
781.755	45.3311
783.454	46.7454
785.153	47.2894
786.851	47.5865
788.549	47.8937
790.247	48.2509
791.944	49.5499
793.641	50.2487
795.338	49.9119
797.034	49.6912
798.73	49.4467
800.426	49.8767
802.121	51.4629
803.817	51.6589
805.511	50.85
807.206	50.3964
808.9	50.3509
810.592	49.6226
812.286	47.9113
813.979	47.6239
815.672	46.6874
817.364	45.9861
819.057	46.7226
820.748	47.0613
822.44	47.0132
824.129	46.3493
825.82	45.514
827.511	44.0791
829.201	43.1644
830.891	41.9355
832.581	42.4508
834.269	43.0407
835.958	43.5266
837.646	42.0331
839.335	41.0087
841.023	41.2303
842.709	39.6019
844.396	37.4144
846.084	35.1238
847.77	34.5949
849.455	34.0413
851.141	33.6298
852.827	32.3991
854.513	30.6217
856.196	29.8244
857.881	29.102
859.566	26.9842
861.248	27.1846
862.932	25.6364
864.616	23.9909
866.297	23.5332
867.98	22.5947
869.663	22.8678
871.343	21.9959
873.026	22.8152
874.707	21.1601
876.387	21.4773
878.068	20.635
879.747	19.4567
881.428	18.9754
883.108	18.8527
884.786	18.4138
886.465	18.5327
888.143	17.2478
889.822	16.4406
891.498	16.1625
893.177	16.6779
894.855	16.0119
896.53	15.9617
898.208	17.0508
899.883	16.3111
901.56	16.1815
903.234	16.346
904.91	15.6407
906.584	15.6066
908.26	14.9552
909.933	15.196
911.608	15.6502
913.28	15.4233
914.955	15.4811
916.627	16.7866
918.298	16.4869
919.972	16.0643
921.643	15.4164
923.315	15.4254
924.986	14.5523
926.656	14.1177
928.328	14.0431
929.997	14.9923
931.668	15.0667
933.337	15.8935
935.006	15.6486
936.676	14.4385
938.344	13.5575
940.012	13.1935
941.681	13.8225
943.348	13.7006
945.014	15.2487
946.683	14.9179
948.349	13.8694
950.015	14.4907
951.682	14.7471
953.347	14.2355
955.012	13.6111
956.676	12.8122
958.343	9.33998
960.006	10.9406
961.67	10.6951
963.333	12.535
964.998	14.615
966.661	17.1003
968.323	18.9377
969.985	20.8042
971.649	22.5217
973.31	24.6388
974.971	27.2131
976.632	29.5016
978.293	31.4021
979.953	32.4591
981.615	33.6007
983.274	33.8504
984.933	34.208
986.592	36.186
988.251	37.2094
989.909	36.9241
991.567	38.4398
993.225	39.6405
994.884	39.4243
996.541	39.543
998.198	40.8686
999.855	40.3423
1001.51	38.3695
1003.17	37.3445
1004.82	36.3876
1006.48	37.0561
1008.13	36.0259
1009.79	36.1117
1011.44	34.8286
1013.1	33.9163
1014.75	34.8643
1016.4	37.5162
1018.06	39.1683
1019.71	42.7743
1021.36	47.4193
1023.01	52.138
1024.66	59.4174
1026.32	64.7114
1027.97	70.1589
1029.62	74.388
1031.27	79.0872
1032.92	85.2387
1034.57	89.2058
1036.22	93.3683
1037.87	98.2333
1039.52	101.372
1041.16	105.85
1042.81	110.955
1044.46	114.216
1046.11	118.291
1047.76	120.885
1049.4	123.747
1051.05	124.921
1052.7	126.934
1054.34	127.704
1055.99	127.065
1057.63	125.847
1059.28	123.097
1060.92	120.322
1062.57	116.65
1064.21	114.148
1065.85	111.317
1067.5	107.238
1069.14	104.047
1070.78	97.5856
1072.43	91.2205
1074.07	86.239
1075.71	78.9874
1077.35	71.2699
1078.99	64.3894
1080.63	55.3293
1082.27	46.4193
1083.91	39.2589
1085.55	32.4615
1087.19	26.1904
1088.83	20.6622
1090.47	13.9452
1092.11	11.2563
1093.75	9.15394
1095.39	7.23413
1097.03	8.57704
1098.66	8.43131
1100.3	7.81536
1101.94	9.61548
1103.57	10.7244
1105.21	10.7318
1106.84	11.3242
1108.48	10.0117
1110.11	9.46659
1111.75	9.57277
1113.38	8.82287
1115.02	7.64571
1116.65	6.45944
1118.29	6.53957
1119.92	5.81637
1121.55	5.01472
1123.19	5.60119
1124.82	5.37235
1126.45	5.75134
1128.08	6.34553
1129.71	7.35201
1131.34	7.06176
1132.97	7.14987
1134.6	7.06364
1136.23	6.32905
1137.86	6.39204
1139.49	7.05424
1141.12	6.8876
1142.75	7.63131
1144.38	7.75393
1146.01	8.89129
1147.64	8.65818
1149.26	7.21462
1150.89	7.07284
1152.52	5.17018
1154.15	4.23038
1155.77	4.03186
1157.4	3.38865
1159.02	2.36468
1160.65	2.24466
1162.27	0.459603
1163.9	1.28813
1165.52	1.93751
1167.15	1.5722
1168.77	3.06645
1170.39	3.61237
1172.02	4.77996
1173.64	6.24397
1175.26	6.88334
1176.89	6.32125
1178.51	7.35867
1180.13	7.90961
1181.75	9.22957
1183.37	11.8771
1184.99	12.0582
1186.61	11.8585
1188.23	13.2459
1189.85	14.6004
1191.47	15.5944
1193.09	17.8697
1194.71	19.2828
1196.33	21.5559
1197.94	25.5965
1199.56	29.7742
1201.18	32.3605
1202.8	35.8382
1204.41	39.0824
1206.03	41.6228
1207.65	44.3324
1209.26	46.3292
1210.88	49.3798
1212.49	51.5449
1214.11	56.6845
1215.72	59.7869
1217.34	63.3149
1218.95	66.3113
1220.57	68.6713
1222.18	69.8371
1223.79	72.265
1225.41	74.7529
1227.02	76.4465
1228.63	77.7088
1230.24	79.2362
1231.85	80.1521
1233.47	82.1678
1235.08	85.0482
1236.69	85.1429
1238.3	86.7449
1239.91	87.6411
1241.52	89.2364
1243.13	89.8394
1244.74	90.6055
1246.34	90.8466
1247.95	90.8789
1249.56	91.906
1251.17	91.2751
1252.78	91.5078
1254.38	90.3456
1255.99	90.5767
1257.6	88.3894
1259.2	87.3204
1260.81	86.3108
1262.42	85.3455
1264.02	83.4713
1265.63	82.5167
1267.23	82.8526
1268.84	82.8441
1270.44	82.4481
1272.04	82.4965
1273.65	83.436
1275.25	83.3122
1276.85	85.2436
1278.46	86.0836
1280.06	87.0609
1281.66	87.2595
1283.26	88.8924
1284.86	90.0057
1286.46	90.582
1288.07	91.2495
1289.67	92.3713
1291.27	95.455
1292.87	96.7939
1294.47	99.9252
1296.06	99.4044
1297.66	100.58
1299.26	101.042
1300.86	103.814
1302.46	105.476
1304.06	108.63
1305.65	110.89
1307.25	112.139
1308.85	115.209
1310.44	118.324
1312.04	121.695
1313.64	125.407
1315.23	125.68
1316.83	125.932
1318.42	128.589
1320.02	128.902
1321.61	129.662
1323.2	129.629
1324.8	129.975
1326.39	130.928
1327.99	130.197
1329.58	129.687
1331.17	128.94
1332.76	127.789
1334.36	125.355
1335.95	124.459
1337.54	122.587
1339.13	121.85
1340.72	120.239
1342.31	120.381
1343.9	118.9
1345.49	118.776
1347.08	117.541
1348.67	116.074
1350.26	114.591
1351.85	114.017
1353.43	112.574
1355.02	110.991
1356.61	109.92
1358.2	107.207
1359.78	106.981
1361.37	105.15
1362.96	102.466
1364.54	100.56
1366.13	97.3727
1367.71	93.9008
1369.3	91.2941
1370.88	90.9164
1372.47	90.9543
1374.05	90.8835
1375.64	89.4913
1377.22	90.3999
1378.8	90.6
1380.39	91.978
1381.97	92.2004
1383.55	94.2669
1385.13	94.9015
1386.72	94.4285
1388.3	96.1229
1389.88	96.4747
1391.46	97.5514
1393.04	96.0336
1394.62	95.5615
1396.2	95.6774
1397.78	96.5192
1399.36	97.1738
1400.94	97.7151
1402.52	98.6859
1404.1	101.93
1405.68	102.934
1407.25	104.949
1408.83	107.657
1410.41	109.762
1411.98	112.026
1413.56	114.925
1415.14	118.834
1416.71	122.21
1418.29	127.08
1419.87	132.081
1421.44	137.897
1423.02	141.278
1424.59	145.68
1426.16	150.203
1427.74	154.521
1429.31	159.633
1430.89	164.402
1432.46	168.212
1434.03	171.819
1435.6	174.621
1437.18	178.436
1438.75	181.766
1440.32	182.866
1441.89	183.981
1443.46	185.856
1445.03	186.648
1446.6	188.189
1448.17	189.504
1449.74	191.458
1451.31	191.469
1452.88	190.008
1454.45	189.709
1456.02	188.516
1457.59	186.122
1459.16	183.98
1460.72	181.313
1462.29	176.666
1463.86	169.867
1465.43	163.234
1466.99	158.193
1468.56	152.464
1470.13	146.581
1471.69	140.057
1473.26	134.092
1474.82	126.984
1476.38	120.01
1477.95	113.732
1479.51	108.542
1481.08	104.594
1482.64	100.481
1484.2	92.9963
1485.77	89.7203
1487.33	86.2403
1488.89	82.4103
1490.46	79.0474
1492.02	76.3383
1493.58	72.9151
1495.14	70.0592
1496.7	67.7222
1498.26	64.7682
1499.82	62.7782
1501.38	60.7955
1502.94	59.6788
1504.5	60.9632
1506.06	61.0891
1507.62	61.6536
1509.18	61.0048
1510.73	60.2562
1512.29	58.4456
1513.85	58.5577
1515.41	58.6694
1516.96	57.6767
1518.52	57.7852
1520.08	58.0576
1521.63	58.1416
1523.19	58.4606
1524.75	59.105
1526.3	59.7345
1527.85	60.9307
1529.41	61.6077
1530.96	62.3035
1532.52	62.8238
1534.07	62.3878
1535.62	63.9406
1537.18	63.9397
1538.73	63.3342
1540.28	63.4501
1541.84	64.5313
1543.39	67.307
1544.94	69.6136
1546.49	71.3247
1548.04	73.0158
1549.59	73.6476
1551.14	73.6546
1552.69	74.3597
1554.25	76.2423
1555.79	79.0643
1557.34	80.8008
1558.89	81.8652
1560.44	82.1629
1561.99	81.9654
1563.54	84.3369
1565.08	84.9081
1566.63	85.8456
1568.18	87.2773
1569.73	87.5768
1571.27	87.6434
1572.82	89.7094
1574.37	91.4089
1575.91	93.2725
1577.46	95.5827
1579	97.8074
1580.55	99.979
1582.09	102.456
1583.64	102.807
1585.18	103.902
1586.73	105.497
1588.27	106.112
1589.81	106.749
1591.35	107.94
1592.9	108.014
1594.44	109.791
1595.98	110.548
1597.52	110.763
1599.06	110.994
1600.61	112.354
1602.15	112.431
1603.69	111.79
1605.23	111.026
1606.77	111.192
1608.31	111.169
1609.85	111.14
1611.39	111.015
1612.93	111.467
1614.46	109.694
1616	110.375
1617.54	111.454
1619.08	112.476
1620.61	113.14
1622.15	112.551
1623.69	111.476
1625.23	111.713
1626.76	110.633
1628.3	111.418
1629.83	112.179
1631.37	112.553
1632.9	112.673
1634.44	112.776
1635.97	112.922
1637.51	112.429
1639.04	113.401
1640.57	115.587
1642.11	117.644
1643.64	120.08
1645.17	120.318
1646.71	120.742
1648.24	122.154
1649.77	124.434
1651.3	125.22
1652.83	125.391
1654.36	125.804
1655.89	125.674
1657.42	125.705
1658.96	124.928
1660.48	125.114
1662.01	123.938
1663.54	123.29
1665.07	121.075
1666.6	118.967
1668.13	117.217
1669.66	114.414
1671.19	113.131
1672.71	109.436
1674.24	106.557
1675.77	103.952
1677.29	100.175
1678.82	95.6597
1680.35	93.8008
1681.87	90.6557
1683.4	87.5485
1684.92	83.7637
1686.45	79.6022
1687.97	75.3389
1689.5	72.506
1691.02	69.481
1692.54	67.9697
1694.07	65.1089
1695.59	62.6779
1697.11	59.9355
1698.64	56.7983
1700.16	53.8331
1701.68	53.9101
1703.2	51.6699
1704.72	50.7206
1706.25	49.1303
1707.77	47.1762
1709.29	46.094
1710.81	44.8603
1712.33	43.1591
1713.85	41.504
1715.37	41.0705
1716.89	39.9144
1718.41	39.0907
1719.92	37.6192
1721.44	35.7722
1722.96	34.3984
1724.48	32.3591
1725.99	31.5904
1727.51	29.0132
1729.03	26.8785
1730.55	25.8213
1732.06	24.3913
1733.58	23.2018
1735.09	22.0423
1736.61	21.6803
1738.13	19.2213
1739.64	18.1165
1741.15	16.8489
1742.67	15.056
1744.18	13.8751
1745.7	12.6562
1747.21	13.3126
1748.72	12.3752
1750.24	11.8393
1751.75	12.5166
1753.26	11.3824
1754.77	11.6105
1756.29	12.6282
1757.8	11.3832
1759.31	10.364
1760.82	9.86299
1762.33	10.5819
1763.84	11.1917
1765.35	12.9588
1766.86	13.3528
1768.37	14.6726
1769.88	14.8797
1771.39	15.9993
1772.9	16.1994
1774.4	16.6928
1775.91	18.5537
1777.42	20.5592
1778.93	20.2256
1780.44	21.5943
1781.94	21.9311
1783.45	22.121
1784.96	22.4154
1786.46	22.4126
1787.97	22.3376
1789.47	23.4857
1790.98	23.5704
1792.48	23.4199
1793.99	23.2702
1795.49	23.0996
1797	22.544
1798.5	22.3829
1800.01	21.8526
1801.51	22.297
1803.01	21.3248
1804.51	21.2644
1806.02	21.2263
1807.52	20.8171
1809.02	20.3846
1810.52	20.3474
1812.02	19.8998
1813.52	18.6218
1815.02	18.8454
1816.53	19.1999
1818.03	19.2288
1819.52	19.9727
1821.02	19.6407
1822.52	19.7562
1824.02	19.2932
1825.52	18.2524
1827.02	18.8747
1828.52	18.1273
1830.02	18.503
1831.51	18.607
1833.01	19.076
1834.51	19.2177
1836.01	20.0563
1837.5	19.7616
1839	19.8189
1840.49	20.7051
1841.99	19.9717
1843.49	20.8899
1844.98	20.3418
1846.48	19.8746
1847.97	19.922
1849.47	19.9476
1850.96	20.5464
1852.45	19.9051
1853.95	19.2502
1855.44	19.1251
1856.93	17.9299
1858.42	17.1783
1859.92	16.8822
1861.41	17.2149
1862.9	16.3775
1864.39	16.7636
1865.88	15.8658
1867.38	15.8698
1868.87	16.7052
1870.36	15.9812
1871.85	16.3055
1873.34	15.7792
1874.83	15.2093
1876.32	15.1102
1877.81	15.2905
1879.29	15.3318
1880.78	14.4383
1882.27	13.7051
1882.53	13.6227
1884.03	13.9301
1885.52	13.4278
1887.01	14.6529
1888.51	15.9416
1890	16.8139
1891.5	16.414
1892.99	15.3852
1894.48	15.8104
1895.97	16.8024
1897.47	16.0442
1898.96	16.3646
1900.45	17.7864
1901.94	17.1044
1903.43	18.8965
1904.92	19.2053
1906.41	19.6244
1907.9	18.6961
1909.39	19.1252
1910.88	18.158
1912.37	18.1436
1913.86	17.4515
1915.35	15.9803
1916.84	15.2489
1918.33	13.7865
1919.81	12.6364
1921.3	11.8792
1922.79	8.97783
1924.28	9.39425
1925.76	6.76535
1927.25	5.58841
1928.73	4.96283
1930.22	4.03552
1931.71	4.51501
1933.19	4.12281
1934.68	4.49893
1936.16	4.33717
1937.65	4.71336
1939.13	3.03662
1940.62	2.37767
1942.1	1.55863
1943.58	0.225125
1945.07	0.301158
1946.55	-0.890654
1948.03	0.0849675
1949.51	1.29523
1951	2.06869
1952.48	2.3912
1953.96	2.31881
1955.44	2.60029
1956.92	4.27657
1958.4	3.77784
1959.88	5.18735
1961.36	6.94554
1962.84	7.7067
1964.32	6.87599
1965.8	5.93815
1967.28	6.5661
1968.76	7.9422
1970.24	7.98464
1971.72	7.24827
1973.2	7.60523
1974.67	8.26351
1976.15	9.30297
1977.63	10.5052
1979.1	9.54808
1980.58	9.03761
1982.06	7.70106
1983.54	7.83828
1985.01	5.89946
1986.49	5.82725
1987.96	6.3133
1989.44	5.4948
1990.91	4.93671
1992.39	5.34799
1993.86	5.44181
1995.33	5.2774
1996.81	5.93327
1998.28	7.93469
1999.75	7.2576
2001.23	9.68602
2002.7	9.9087
2004.17	10.3733
2005.65	11.2129
2007.12	10.6965
2008.59	11.7476
2010.06	11.0765
2011.53	9.91599
2013	9.79718
2014.47	10.9258
2015.94	11.9755
2017.41	12.0717
2018.88	13.1175
2020.35	13.5889
2021.82	14.5178
2023.29	14.3987
2024.76	13.788
2026.23	13.9483
2027.69	12.0531
2029.16	11.9435
2030.63	13.4896
2032.1	12.5483
2033.56	13.1161
2035.03	11.5839
2036.5	11.0116
2037.96	8.57071
2039.43	8.20058
2040.89	8.05876
2042.36	8.07163
2043.83	7.27474
2045.29	7.11179
2046.75	7.58821
2048.22	7.85755
2049.68	7.24994
2051.15	5.8247
2052.61	4.71804
2054.07	3.87031
2055.54	2.89836
2057	3.82364
2058.46	3.09691
2059.92	4.45076
2061.39	5.64601
2062.85	6.02466
2064.31	6.6074
2065.77	8.88412
2067.23	9.25591
2068.69	9.79254
2070.15	10.5424
2071.61	10.3094
2073.07	10.5247
2074.53	11.045
2075.99	9.81458
2077.45	11.0716
2078.91	9.80132
2080.37	11.2899
2081.82	11.3406
2083.28	10.7511
2084.74	10.7606
2086.2	12.6596
2087.65	12.8207
2089.11	13.3147
2090.57	12.2981
2092.02	12.9394
2093.48	12.1057
2094.94	12.4932
2096.39	12.1824
2097.85	12.8345
2099.3	12.9367
2100.76	12.4616
2102.21	13.3287
2103.66	13.6508
2105.12	12.8496
2106.57	12.8139
2108.03	12.3584
2109.48	11.9373
2110.93	11.1086
2112.38	12.1951
2113.84	12.2308
2115.29	12.1008
2116.74	12.2603
2118.19	11.052
2119.64	10.8373
2121.09	9.95646
2122.54	10.3136
2123.99	10.3793
2125.45	8.85636
2126.89	8.26529
