#Acq. time (s)=	45
#Accumulations=	2
#Range (cm-¹)=	200...3150
#Windows=	2
#Auto scanning=	Off
#Autofocus=	Off
#Macrospot=	Off
#AutoExposure=	Off
#Spike filter=	Multiple accum.
#Delay time (s)=	0
#Binning=	1
#Readout mode=	Signal
#DeNoise=	Off
#ICS correction=	On
#Dark correction=	Off
#Inst. Process=	Off
#Detector Gain=	Best Dynamic Range
#Detector ADC=	20 kHz       
#Detector temperature (°C)=	-69.85
#Instrument=	LabRAM HR Evol
#Detector=	Synapse
#Objective=	x100
#Grating=	600 gr/mm
#ND Filter=	100%
#Laser (nm)=	532 
#Hole=	100.021
#Range=	Auto
#Laser Pol.=	No
#Raman. Pol.=	No
#Laser Pol. (°)=	-0.0007625
#Raman Pol. (°)=	89.9995
#Collection=	Microscope
#StageXY=	Marzhauser
#StageZ=	Marzhauser
#X (µm)=	-964.4
#Y (µm)=	-2827.1
#Z (µm)=	528.2
#Full time(mm:ss)=	3:18
#Project=	
#Sample=	
#Site=	
#Title=	Mb_00_13_19_2x_45s_532 nm_x100_100%_600 gr_mm
#Remark=	
#Date=	06.07.2022 11:05
#Acquired=	06.07.2022 11:05:31
#Base:Fit=	10.08.2022 10:16:56
#Base:Sub=	10.08.2022 10:17:24
#Filter:Polynom=	16.08.2022 10:36:38
#AxisType[0]=Intens
#AxisUnit[0]=Cnt
#AxisType[1]=Spectr
#AxisUnit[1]=1/cm
200.398	24.8542
202.213	17.6432
204.027	9.50681
205.843	4.36779
207.657	-0.472707
209.47	-4.6378
211.283	-8.04753
213.097	-9.493
214.909	-8.54626
216.721	-3.61721
218.533	3.89956
220.344	12.1741
222.157	23.1288
223.967	34.2196
225.777	47.7714
227.587	59.1539
229.396	71.6963
231.205	84.6683
233.016	95.2583
234.824	105.729
236.632	115.934
238.439	126.656
240.247	135.499
242.053	143.677
243.86	151.296
245.666	157.021
247.474	164.304
249.279	171.911
251.085	178.672
252.889	183.674
254.694	186.962
256.498	190.236
258.301	192.911
260.105	194.102
261.908	196.454
263.71	195.546
265.513	192.419
267.315	190.055
269.116	186.998
270.918	181.215
272.718	175.169
274.519	169.179
276.319	160.441
278.119	152.296
279.918	143.535
281.718	135.161
283.516	123.73
285.315	113.653
287.113	101.598
288.911	93.4623
290.708	84.6036
292.505	75.4806
294.302	68.056
296.098	58.5533
297.894	51.0684
299.69	45.7072
301.485	41.2961
303.278	38.8975
305.073	37.6488
306.867	36.8903
308.661	35.7376
310.454	34.8404
312.247	33.1957
314.04	31.3207
315.833	31.4172
317.623	28.7694
319.415	29.2073
321.206	28.2577
322.997	26.9851
324.788	26.3965
326.579	27.2851
328.367	26.7716
330.156	26.4292
331.946	25.4854
333.735	24.5474
335.523	22.384
337.31	20.2512
339.098	19.876
340.885	18.1734
342.673	16.8568
344.458	14.7952
346.244	13.3979
348.03	12.9971
349.816	12.6517
351.6	11.5407
353.385	9.39807
355.17	8.3547
356.953	7.75401
358.737	7.46708
360.521	7.09654
362.304	8.26987
364.085	9.45483
365.868	13.0254
367.65	18.8296
369.431	24.5016
371.212	29.0599
372.994	33.322
374.773	36.0659
376.554	43.3705
378.332	50.6939
380.112	58.2092
381.892	68.0549
383.669	79.3741
385.448	88.8541
387.225	100.665
389.003	113.567
390.781	126.602
392.557	137.289
394.334	149.327
396.109	158.887
397.885	167.787
399.66	174.505
401.436	181.044
403.211	188.485
404.984	193.997
406.759	197.453
408.532	201.344
410.306	202.622
412.078	204.041
413.851	204.738
415.623	204.973
417.395	202.209
419.166	200.932
420.938	195.957
422.708	191.349
424.477	184.569
426.248	176.835
428.017	169.369
429.788	160.422
431.556	151.653
433.326	141.056
435.093	131.173
436.86	120.713
438.629	109.341
440.395	99.2438
442.163	89.7854
443.929	80.8709
445.694	72.011
447.461	63.9513
449.226	56.3397
450.99	49.289
452.756	43.9846
454.52	39.9415
456.285	33.4064
458.048	26.9873
459.811	19.732
461.573	16.3489
463.337	13.8527
465.099	14.852
466.86	15.1719
468.623	16.9068
470.384	18.4122
472.144	20.6038
473.906	21.4068
475.666	23.8609
477.425	26.6032
479.184	27.7849
480.944	27.7537
482.703	29.6865
484.461	28.7443
486.218	31.4507
487.975	32.4545
489.734	34.1046
491.491	36.2036
493.247	37.5787
495.003	40.3629
496.759	43.141
498.516	44.5718
500.271	45.3967
502.025	46.7003
503.779	48.5815
505.533	49.5264
507.287	51.4287
509.042	51.459
510.795	51.6967
512.547	52.0264
514.299	53.2892
516.051	55.1947
517.803	57.1673
519.554	58.7183
521.305	60.3662
523.055	62.5982
524.805	64.0369
526.555	66.1899
528.307	68.9718
530.056	69.2473
531.805	69.539
533.553	69.7016
535.301	70.1532
537.049	71.0958
538.797	70.6846
540.544	70.365
542.291	67.8787
544.037	65.8354
545.783	65.3647
547.529	62.8317
549.275	61.678
551.02	58.4379
552.765	55.8183
554.509	52.9929
556.253	49.3795
557.997	47.7805
559.738	46.2761
561.482	42.394
563.224	41.5107
564.967	38.7712
566.709	36.3023
568.451	35.0739
570.192	33.0841
571.933	29.5833
573.674	29.0655
575.415	25.4932
577.153	23.8196
578.893	22.2728
580.632	19.9585
582.371	18.6156
584.11	16.4586
585.849	13.3918
587.587	12.4172
589.323	12.6666
591.06	13.6653
592.797	10.9775
594.534	10.962
596.271	10.8877
598.005	9.06342
599.741	10.0883
601.476	11.9662
603.211	13.7555
604.944	15.2646
606.679	16.2854
608.413	17.5997
610.147	18.7866
611.878	20.2749
613.611	20.7053
615.344	22.1655
617.077	22.1513
618.807	23.6153
620.539	26.0179
622.27	28.5528
623.999	29.6075
625.73	30.6366
627.461	32.9876
629.189	35.2295
630.919	38.2958
632.648	39.8916
634.376	41.8106
636.105	43.8286
637.833	46.2925
639.559	48.4941
641.287	49.4935
643.013	52.5755
644.74	54.6947
646.467	54.5647
648.192	55.0286
649.918	56.3447
651.642	53.3753
653.368	52.9745
655.091	51.6974
656.816	49.3705
658.538	47.6045
660.263	47.6554
661.987	45.6168
663.708	43.0836
665.432	40.5225
667.153	38.8216
668.875	37.6802
670.596	35.7907
672.318	33.1772
674.037	30.8318
675.759	29.2959
677.478	28.7977
679.196	25.0342
680.917	23.9889
682.635	20.8523
684.355	18.5922
686.072	17.877
687.791	17.0336
689.508	14.5167
691.224	11.9353
692.942	10.4111
694.658	7.80121
696.376	5.64383
698.091	4.85001
699.805	2.65935
701.522	1.35911
703.236	0.0478636
704.95	-0.0403695
706.665	0.110424
708.379	1.72147
710.093	2.15759
711.806	4.27943
713.518	5.14364
715.23	5.27747
716.943	5.64603
718.655	5.85569
720.366	7.5775
722.078	8.55261
723.788	9.16603
725.498	9.03989
727.208	8.55362
728.919	9.80248
730.628	8.0595
732.337	7.22816
734.045	7.50069
735.755	7.88574
737.463	7.14508
739.17	10.3298
740.877	12.0876
742.584	13.6758
744.292	14.8086
745.998	16.7673
747.704	18.0697
749.409	18.8815
751.114	22.279
752.819	24.6278
754.526	26.7121
756.23	28.8125
757.934	30.4656
759.637	34.2957
761.34	37.3542
763.043	38.5173
764.746	39.036
766.448	40.1334
768.152	40.4527
769.853	42.9559
771.554	42.3191
773.255	44.7217
774.956	44.6433
776.656	46.1517
778.356	46.2469
780.056	45.8029
781.755	47.2669
783.454	48.7062
785.153	48.7896
786.851	48.5871
788.549	51.0176
790.247	51.6863
791.944	52.6159
793.641	54.2195
795.338	54.0214
797.034	54.4986
798.73	53.7487
800.426	53.4827
802.121	53.1521
803.817	53.1716
805.511	52.2162
807.206	51.2779
808.9	50.68
810.592	50.2669
812.286	49.0203
813.979	48.5631
815.672	47.3277
817.364	48.605
819.057	47.5966
820.748	48.3618
822.44	48.1129
824.129	49.5712
825.82	50.2846
827.511	51.2424
829.201	52.5868
830.891	53.738
832.581	54.0692
834.269	53.4609
835.958	54.7181
837.646	54.1454
839.335	52.6947
841.023	51.766
842.709	50.805
844.396	49.1206
846.084	45.537
847.77	43.9535
849.455	42.5429
851.141	39.7803
852.827	37.5278
854.513	37.9125
856.196	35.4913
857.881	34.3449
859.566	33.0931
861.248	32.5278
862.932	30.6279
864.616	30.5248
866.297	28.7433
867.98	27.8071
869.663	26.1368
871.343	23.2393
873.026	21.0695
874.707	18.4024
876.387	17.5534
878.068	15.8629
879.747	15.4474
881.428	14.1213
883.108	12.4923
884.786	9.94016
886.465	9.28781
888.143	8.12792
889.822	7.69358
891.498	8.48116
893.177	9.6869
894.855	10.5137
896.53	10.2683
898.208	11.3074
899.883	9.63909
901.56	10.0237
903.234	9.19739
904.91	11.1269
906.584	12.2144
908.26	11.9833
909.933	11.9989
911.608	12.2666
913.28	13.7499
914.955	12.6431
916.627	12.9369
918.298	13.549
919.972	14.6538
921.643	14.2383
923.315	13.2973
924.986	13.7693
926.656	15.2185
928.328	15.3462
929.997	15.8317
931.668	16.5582
933.337	16.6753
935.006	16.9675
936.676	17.7188
938.344	17.9206
940.012	15.2545
941.681	14.9753
943.348	16.449
945.014	16.4021
946.683	16.7408
948.349	16.2983
950.015	14.5294
951.682	13.7328
953.347	11.9267
955.012	9.21329
956.676	7.78952
958.343	7.82826
960.006	7.33132
961.67	7.66263
963.333	9.98399
964.998	12.1753
966.661	15.8578
968.323	20.0565
969.985	27.7502
971.649	34.707
973.31	42.8823
974.971	51.7517
976.632	61.3675
978.293	68.412
979.953	74.2878
981.615	75.2688
983.274	76.3674
984.933	83.3793
986.592	90.3602
988.251	98.0402
989.909	104.203
991.567	109.061
993.225	116.378
994.884	122.609
996.541	127.912
998.198	131.432
999.855	136.746
1001.51	140.283
1003.17	141.479
1004.82	140.589
1006.48	140.203
1008.13	139.082
1009.79	137.281
1011.44	135.253
1013.1	133.59
1014.75	134.853
1016.4	136.454
1018.06	138.241
1019.71	142.295
1021.36	146.104
1023.01	152.302
1024.66	159.753
1026.32	165.358
1027.97	171.675
1029.62	175.247
1031.27	178.322
1032.92	180.105
1034.57	182.572
1036.22	183.442
1037.87	183.7
1039.52	186.108
1041.16	187.692
1042.81	188.876
1044.46	191.998
1046.11	194.333
1047.76	196.775
1049.4	196.277
1051.05	196.861
1052.7	196.611
1054.34	196.093
1055.99	193.375
1057.63	189.6
1059.28	184.881
1060.92	177.769
1062.57	170.964
1064.21	163.749
1065.85	160.992
1067.5	157.317
1069.14	151.499
1070.78	144.027
1072.43	134.282
1074.07	125.057
1075.71	115.825
1077.35	104.542
1078.99	93.8417
1080.63	81.9941
1082.27	70.6558
1083.91	56.5058
1085.55	44.2321
1087.19	34.6707
1088.83	27.1628
1090.47	19.6625
1092.11	16.0548
1093.75	15.0017
1095.39	14.5289
1097.03	15.7832
1098.66	15.3941
1100.3	17.9167
1101.94	21.8558
1103.57	23.561
1105.21	26.104
1106.84	25.5249
1108.48	25.5083
1110.11	24.913
1111.75	22.9512
1113.38	23.5831
1115.02	21.1601
1116.65	19.1316
1118.29	17.7401
1119.92	18.0694
1121.55	18.2284
1123.19	17.3059
1124.82	17.2157
1126.45	17.6056
1128.08	18.0774
1129.71	18.3398
1131.34	17.7489
1132.97	18.7849
1134.6	18.7481
1136.23	19.0935
1137.86	19.215
1139.49	22.1381
1141.12	22.9977
1142.75	24.1882
1144.38	24.7391
1146.01	24.0115
1147.64	23.5541
1149.26	21.8962
1150.89	21.733
1152.52	21.2181
1154.15	19.3543
1155.77	18.668
1157.4	18.0467
1159.02	16.8839
1160.65	16.1127
1162.27	14.848
1163.9	16.1539
1165.52	15.9995
1167.15	19.0153
1168.77	20.2415
1170.39	21.6761
1172.02	22.0267
1173.64	23.3322
1175.26	22.7473
1176.89	22.3672
1178.51	22.5285
1180.13	22.2933
1181.75	24.5458
1183.37	25.6384
1184.99	25.3042
1186.61	25.4945
1188.23	25.4618
1189.85	28.2568
1191.47	31.2733
1193.09	33.918
1194.71	36.6286
1196.33	36.7232
1197.94	40.6978
1199.56	44.7395
1201.18	48.9021
1202.8	51.8786
1204.41	55.2212
1206.03	59.7837
1207.65	64.5908
1209.26	68.6557
1210.88	71.1009
1212.49	74.9071
1214.11	79.1295
1215.72	84.3264
1217.34	88.2963
1218.95	93.3223
1220.57	97.3979
1222.18	99.4454
1223.79	102.562
1225.41	104.98
1227.02	108.041
1228.63	111.033
1230.24	111.861
1231.85	113.216
1233.47	113.763
1235.08	114.804
1236.69	116.685
1238.3	119.36
1239.91	120.303
1241.52	120.721
1243.13	123.199
1244.74	124.731
1246.34	122.439
1247.95	122.483
1249.56	120.61
1251.17	119.596
1252.78	116.898
1254.38	115.805
1255.99	114.714
1257.6	113.443
1259.2	112.435
1260.81	111.864
1262.42	112.589
1264.02	111.485
1265.63	111.665
1267.23	112.232
1268.84	112.644
1270.44	113.481
1272.04	114.512
1273.65	113.414
1275.25	113.942
1276.85	113.326
1278.46	115.237
1280.06	116.248
1281.66	117.947
1283.26	117.615
1284.86	119.697
1286.46	121.836
1288.07	124.297
1289.67	125.086
1291.27	124.769
1292.87	127.984
1294.47	129.403
1296.06	131.083
1297.66	132.902
1299.26	133.235
1300.86	135.964
1302.46	137.635
1304.06	138.669
1305.65	140.505
1307.25	142.379
1308.85	143.398
1310.44	143.579
1312.04	144.067
1313.64	145.318
1315.23	146.141
1316.83	149.366
1318.42	149.895
1320.02	150.315
1321.61	150.984
1323.2	151.366
1324.8	149.985
1326.39	148.308
1327.99	149.094
1329.58	148.363
1331.17	148.442
1332.76	147.712
1334.36	147.955
1335.95	148.109
1337.54	147.255
1339.13	147.731
1340.72	146.602
1342.31	146.69
1343.9	145.081
1345.49	144.313
1347.08	142.594
1348.67	140.614
1350.26	139.712
1351.85	138.317
1353.43	135.893
1355.02	133.556
1356.61	130.976
1358.2	129.418
1359.78	126.049
1361.37	124.329
1362.96	121.102
1364.54	119.956
1366.13	116.794
1367.71	113.981
1369.3	109.747
1370.88	105.232
1372.47	97.8745
1374.05	91.523
1375.64	90.8683
1377.22	91.3903
1378.8	92.1754
1380.39	94.597
1381.97	94.6672
1383.55	94.6054
1385.13	94.849
1386.72	96.6688
1388.3	97.1825
1389.88	96.6686
1391.46	97.1385
1393.04	96.9959
1394.62	98.1854
1396.2	100.91
1397.78	99.7722
1399.36	102.362
1400.94	103.696
1402.52	106.378
1404.1	110.445
1405.68	112.217
1407.25	116.131
1408.83	120.424
1410.41	124.56
1411.98	129.274
1413.56	135.346
1415.14	141.798
1416.71	148.248
1418.29	156.093
1419.87	162.915
1421.44	171.28
1423.02	178.221
1424.59	186.909
1426.16	195.494
1427.74	203.169
1429.31	210.478
1430.89	217.92
1432.46	224.17
1434.03	228.27
1435.6	232.737
1437.18	237.786
1438.75	241.46
1440.32	245.024
1441.89	244.469
1443.46	246.084
1445.03	245.523
1446.6	245.803
1448.17	241.931
1449.74	238.276
1451.31	234.802
1452.88	238.357
1454.45	239.801
1456.02	237.169
1457.59	232.426
1459.16	225.946
1460.72	221.245
1462.29	213.298
1463.86	206.007
1465.43	198.719
1466.99	190.569
1468.56	179.966
1470.13	171.714
1471.69	162.411
1473.26	153.685
1474.82	144.31
1476.38	135.52
1477.95	127.842
1479.51	119.102
1481.08	113.18
1482.64	104.384
1484.2	97.2291
1485.77	92.6591
1487.33	86.9936
1488.89	81.6162
1490.46	78.4237
1492.02	74.2459
1493.58	70.5946
1495.14	67.9204
1496.7	65.6132
1498.26	64.7355
1499.82	64.1047
1501.38	61.4247
1502.94	59.8925
1504.5	58.2299
1506.06	57.3134
1507.62	55.9746
1509.18	55.7332
1510.73	54.91
1512.29	53.3952
1513.85	54.5964
1515.41	54.0758
1516.96	53.3897
1518.52	53.7056
1520.08	54.61
1521.63	55.014
1523.19	54.4736
1524.75	54.2517
1526.3	52.4198
1527.85	52.4423
1529.41	53.1535
1530.96	54.2221
1532.52	54.8251
1534.07	56.2558
1535.62	58.8053
1537.18	59.6175
1538.73	62.0009
1540.28	60.5748
1541.84	62.6545
1543.39	62.6427
1544.94	63.9773
1546.49	63.0299
1548.04	64.5461
1549.59	65.5938
1551.14	66.8216
1552.69	68.9987
1554.25	71.5559
1555.79	72.1381
1557.34	73.8164
1558.89	77.3225
1560.44	77.5342
1561.99	80.0823
1563.54	80.9994
1565.08	81.2651
1566.63	84.2289
1568.18	86.7438
1569.73	87.867
1571.27	91.2709
1572.82	95.207
1574.37	98.5287
1575.91	103.471
1577.46	106.293
1579	107.907
1580.55	111.407
1582.09	113.536
1583.64	117.209
1585.18	119.555
1586.73	122.43
1588.27	124.153
1589.81	126.109
1591.35	130.049
1592.9	131.116
1594.44	133.522
1595.98	135.255
1597.52	136.032
1599.06	135.306
1600.61	136.818
1602.15	138.014
1603.69	137.889
1605.23	139.149
1606.77	140.364
1608.31	140.489
1609.85	140.524
1611.39	139.904
1612.93	140.206
1614.46	137.903
1616	137.699
1617.54	137.551
1619.08	138.274
1620.61	137.848
1622.15	138.525
1623.69	139.925
1625.23	141.673
1626.76	143.645
1628.3	145.378
1629.83	146.845
1631.37	147.486
1632.9	149.504
1634.44	152.029
1635.97	155.119
1637.51	156.597
1639.04	158.6
1640.57	161.774
1642.11	164.851
1643.64	168.238
1645.17	170.122
1646.71	173.031
1648.24	175.023
1649.77	177.228
1651.3	179.616
1652.83	180.846
1654.36	179.792
1655.89	178.718
1657.42	179.005
1658.96	179.21
1660.48	179.561
1662.01	177.574
1663.54	175.156
1665.07	172.31
1666.6	171.083
1668.13	168.05
1669.66	163.576
1671.19	160.048
1672.71	155.703
1674.24	151.351
1675.77	146.424
1677.29	141.245
1678.82	135.319
1680.35	127.944
1681.87	121.821
1683.4	113.535
1684.92	107.159
1686.45	99.5282
1687.97	93.452
1689.5	88.6295
1691.02	81.0616
1692.54	76.1294
1694.07	71.0419
1695.59	65.5674
1697.11	59.8153
1698.64	53.9849
1700.16	49.7294
1701.68	44.3516
1703.2	40.7647
1704.72	37.814
1706.25	33.9743
1707.77	31.5783
1709.29	29.0706
1710.81	25.0254
1712.33	23.4345
1713.85	20.2996
1715.37	17.4197
1716.89	16.4079
1718.41	14.7408
1719.92	13.301
1721.44	11.7767
1722.96	10.9253
1724.48	10.2121
1725.99	10.8614
1727.51	10.5656
1729.03	10.2462
1730.55	10.486
1732.06	11.5808
1733.58	11.5215
1735.09	11.5222
1736.61	11.5354
1738.13	11.4497
1739.64	10.6006
1741.15	10.5616
1742.67	11.3123
1744.18	10.5335
1745.7	10.7637
1747.21	10.1971
1748.72	9.78091
1750.24	9.39969
1751.75	7.66508
1753.26	7.50723
1754.77	6.99294
1756.29	5.88528
1757.8	6.10109
1759.31	5.77272
1760.82	5.86122
1762.33	5.16799
1763.84	4.75638
1765.35	3.57655
1766.86	2.42131
1768.37	3.80867
1769.88	2.10638
1771.39	1.97889
1772.9	0.722769
1774.4	0.273225
1775.91	0.976652
1777.42	1.39083
1778.93	1.5371
1780.44	0.966185
1781.94	0.688621
1783.45	0.21088
1784.96	-0.660774
1786.46	-0.284309
1787.97	0.672456
1789.47	0.33372
1790.98	1.53478
1792.48	3.12831
1793.99	4.33115
1795.49	4.10977
1797	5.38271
1798.5	6.94727
1800.01	7.51031
1801.51	7.56619
1803.01	7.62159
1804.51	7.98172
1806.02	8.34371
1807.52	8.65525
1809.02	8.15654
1810.52	8.87327
1812.02	9.23638
1813.52	8.89153
1815.02	8.15606
1816.53	8.37297
1818.03	9.14879
1819.52	8.75343
1821.02	9.22674
1822.52	9.78163
1824.02	9.48156
1825.52	9.67848
1827.02	10.7146
1828.52	11.6499
1830.02	11.4651
1831.51	11.5283
1833.01	11.023
1834.51	10.4006
1836.01	10.0409
1837.5	10.1924
1839	10.3884
1840.49	11.0286
1841.99	10.6391
1843.49	10.8198
1844.98	9.71837
1846.48	10.337
1847.97	10.2199
1849.47	8.88598
1850.96	8.24849
1852.45	6.79097
1853.95	7.16393
1855.44	8.37168
1856.93	8.63666
1858.42	7.51938
1859.92	7.51666
1861.41	8.7592
1862.9	8.42543
1864.39	6.78137
1865.88	5.64539
1867.38	5.03964
1868.87	5.85976
1870.36	4.68098
1871.85	4.65874
1873.34	4.35617
1874.83	3.46096
1876.32	3.82922
1877.81	3.28707
1879.29	2.81302
1880.78	2.39666
1882.27	2.63559
1882.53	2.61619
1884.03	3.30384
1885.52	2.16896
1887.01	1.71855
1888.51	1.07976
1890	2.42933
1891.5	1.90793
1892.99	2.40788
1894.48	2.33908
1895.97	3.15285
1897.47	2.48039
1898.96	4.20282
1900.45	5.1449
1901.94	5.63366
1903.43	6.24514
1904.92	5.68851
1906.41	5.873
1907.9	6.49467
1909.39	7.70715
1910.88	8.91387
1912.37	8.99268
1913.86	9.6638
1915.35	8.57031
1916.84	9.27765
1918.33	9.24617
1919.81	9.71464
1921.3	9.22874
1922.79	8.73066
1924.28	9.89981
1925.76	11.2014
1927.25	12.1635
1928.73	10.7037
1930.22	8.52619
1931.71	8.47756
1933.19	8.24875
1934.68	7.60202
1936.16	6.10874
1937.65	5.25562
1939.13	6.15951
1940.62	6.76926
1942.1	7.53903
1943.58	8.13367
1945.07	7.91603
1946.55	8.48554
1948.03	8.177
1949.51	8.47298
1951	8.05521
1952.48	8.65259
1953.96	8.86261
1955.44	9.74507
1956.92	7.88482
1958.4	8.15567
1959.88	7.01965
1961.36	9.19373
1962.84	9.27059
1964.32	9.45192
1965.8	8.7855
1967.28	10.3444
1968.76	10.0494
1970.24	10.8915
1971.72	10.4455
1973.2	11.5092
1974.67	11.2342
1976.15	10.9888
1977.63	10.2959
1979.1	9.4844
1980.58	9.79705
1982.06	9.44386
1983.54	9.49516
1985.01	8.22098
1986.49	6.689
1987.96	5.97979
1989.44	4.98377
1990.91	6.0487
1992.39	5.45463
1993.86	4.79162
1995.33	4.88741
1996.81	5.53595
1998.28	5.46529
1999.75	4.55364
2001.23	3.9289
2002.7	4.42863
2004.17	5.63118
2005.65	6.06201
2007.12	5.24062
2008.59	5.38162
2010.06	6.62763
2011.53	5.34609
2013	6.82799
2014.47	7.50689
2015.94	7.65599
2017.41	7.90808
2018.88	6.87419
2020.35	7.51998
2021.82	7.76499
2023.29	7.91751
2024.76	8.36646
2026.23	8.49546
2027.69	8.23382
2029.16	7.97285
2030.63	7.1534
2032.1	8.28363
2033.56	8.13561
2035.03	8.89621
2036.5	9.23037
2037.96	9.50869
2039.43	9.69503
2040.89	8.85778
2042.36	8.47942
2043.83	8.83781
2045.29	8.22617
2046.75	8.01556
2048.22	7.77783
2049.68	7.2539
2051.15	5.48779
2052.61	4.98713
2054.07	5.62446
2055.54	4.81428
2057	5.05325
2058.46	5.1182
2059.92	6.33615
2061.39	7.10062
2062.85	8.08137
2064.31	7.8487
2065.77	7.70775
2067.23	8.10329
2068.69	8.2514
2070.15	7.50155
2071.61	6.86703
2073.07	6.90779
2074.53	8.38328
2075.99	8.22299
2077.45	7.98081
2078.91	7.15924
2080.37	7.5865
2081.82	7.8105
2083.28	7.51509
2084.74	6.45777
2086.2	8.27073
2087.65	7.92576
2089.11	7.70674
2090.57	8.55916
2092.02	8.62698
2093.48	9.18074
2094.94	8.23548
2096.39	7.91949
2097.85	7.78809
2099.3	7.81452
2100.76	7.59062
2102.21	6.17104
2103.66	6.17816
2105.12	6.51845
2106.57	6.43061
2108.03	6.56838
2109.48	6.31627
2110.93	4.81972
2112.38	3.91076
2113.84	3.4296
2115.29	3.90413
2116.74	3.89844
2118.19	3.20993
2119.64	3.84933
2121.09	3.82677
2122.54	3.31785
2123.99	3.32178
2125.45	4.83147
2126.89	5.11233
2128.34	4.72387
2129.79	4.52927
2131.24	4.2084
