#Acq. time (s)=	45
#Accumulations=	2
#Range (cm-¹)=	200...3150
#Windows=	2
#Auto scanning=	Off
#Autofocus=	Off
#Macrospot=	Off
#AutoExposure=	Off
#Spike filter=	Multiple accum.
#Delay time (s)=	0
#Binning=	1
#Readout mode=	Signal
#DeNoise=	Off
#ICS correction=	On
#Dark correction=	Off
#Inst. Process=	Off
#Detector Gain=	Best Dynamic Range
#Detector ADC=	20 kHz       
#Detector temperature (°C)=	-69.85
#Instrument=	LabRAM HR Evol
#Detector=	Synapse
#Objective=	x100
#Grating=	600 gr/mm
#ND Filter=	100%
#Laser (nm)=	532 
#Hole=	100.021
#Range=	Auto
#Laser Pol.=	No
#Raman. Pol.=	No
#Laser Pol. (°)=	-0.0007625
#Raman Pol. (°)=	89.9995
#Collection=	Microscope
#StageXY=	Marzhauser
#StageZ=	Marzhauser
#X (µm)=	-641.9
#Y (µm)=	-1591.2
#Z (µm)=	89
#Full time(mm:ss)=	3:19
#Project=	
#Sample=	
#Site=	
#Title=	Mb_10_14_13_2x_45s_532 nm_x100_100%_600 gr_mm
#Remark=	
#Date=	11.07.2022 09:29
#Acquired=	11.07.2022 09:29:10
#Base:Fit=	10.08.2022 10:21:11
#Base:Sub=	10.08.2022 10:21:41
#Filter:Polynom=	16.08.2022 10:17:53
#AxisType[0]=Intens
#AxisUnit[0]=Cnt
#AxisType[1]=Spectr
#AxisUnit[1]=1/cm
200.388	16.6846
202.204	14.1523
204.019	11.5041
205.832	8.03823
207.646	5.36815
209.459	3.25046
211.274	1.195
213.087	-0.569529
214.899	-1.77433
216.711	-1.51823
218.524	-0.0253104
220.335	1.94487
222.146	4.43434
223.956	6.22963
225.766	8.42014
227.576	10.7964
229.388	12.4164
231.197	12.878
233.005	13.9606
234.813	17.0637
236.621	19.0824
238.429	20.9511
240.236	22.4074
242.045	23.1278
243.852	23.5168
245.658	24.1551
247.464	25.7886
249.269	27.2616
251.074	28.4028
252.879	29.3318
254.683	30.0282
256.487	31.4143
258.291	33.2833
260.094	33.0548
261.897	32.7689
263.702	31.8376
265.504	30.8367
267.306	30.1155
269.108	30.314
270.909	30.2967
272.71	28.2298
274.511	27.4195
276.311	25.838
278.111	23.9443
279.91	22.4181
281.709	21.1029
283.508	19.0218
285.306	17.9393
287.105	15.1419
288.9	12.6097
290.698	10.8053
292.495	10.1914
294.291	9.42425
296.088	8.70656
297.884	7.88006
299.679	7.08861
301.475	6.49579
303.27	7.14011
305.064	7.16119
306.858	7.79656
308.652	8.07493
310.444	8.61364
312.237	8.23587
314.03	7.7866
315.822	8.48276
317.615	8.96773
319.406	8.72724
321.198	8.22879
322.987	8.81132
324.778	10.358
326.568	9.03187
328.358	8.38612
330.148	7.35677
331.935	6.52792
333.724	5.90391
335.513	6.14111
337.301	5.71831
339.089	4.84859
340.875	4.38078
342.662	4.35557
344.449	4.61896
346.236	5.37742
348.02	6.97298
349.806	6.21248
351.592	6.58795
353.375	7.36133
355.16	8.29036
356.944	9.58026
358.728	10.7394
360.51	12.4066
362.294	13.154
364.077	15.1523
365.858	16.7924
367.64	18.082
369.422	19.0085
371.202	20.5936
372.983	22.507
374.764	23.766
376.543	24.5551
378.324	26.639
380.102	29.5607
381.881	32.1681
383.661	34.5791
385.438	36.2186
387.216	38.4106
388.993	39.504
390.771	40.8682
392.548	42.0448
394.324	42.4125
396.101	44.5461
397.875	46.4644
399.651	47.2831
401.425	47.0077
403.201	47.4689
404.974	47.4856
406.749	46.3676
408.524	45.524
410.296	44.8892
412.07	43.8714
413.841	43.3102
415.614	41.2201
417.385	40.3275
419.156	38.6517
420.928	36.9212
422.698	34.276
424.469	32.5234
426.238	30.4716
428.009	29.4451
429.777	28.8887
431.548	27.8353
433.315	25.5921
435.083	24.0616
436.852	23.1054
438.618	21.5285
440.387	20.903
442.153	19.368
443.919	18.8285
445.686	17.1639
447.451	15.589
449.218	15.1622
450.982	14.372
452.746	13.8631
454.512	13.4648
456.275	12.2694
458.038	12.0248
459.803	12.3937
461.565	11.9894
463.327	11.4032
465.091	12.4973
466.852	13.968
468.613	14.7146
470.374	15.0303
472.136	15.7709
473.896	14.9119
475.655	15.0592
477.415	16.0652
479.176	16.7317
480.934	18.5312
482.692	19.4363
484.45	21.1065
486.21	22.2456
487.967	22.8481
489.724	23.3071
491.481	24.442
493.237	26.2636
494.995	27.5106
496.75	29.1245
498.506	29.4945
500.26	29.8753
502.015	31.2484
503.769	31.7218
505.525	32.5999
507.279	31.5402
509.032	31.9314
510.785	31.659
512.537	32.1025
514.289	33.0766
516.041	33.4454
517.793	32.9473
519.546	32.3898
521.297	31.7162
523.047	32.5756
524.797	32.3107
526.547	32.1141
528.297	30.7571
530.046	29.2206
531.795	29.5293
533.543	28.3982
535.291	27.4015
537.039	27.2052
538.787	26.4184
540.534	25.8226
542.281	24.3352
544.027	22.8865
545.773	21.7749
547.519	19.8031
549.264	18.9668
551.01	18.3617
552.754	17.7737
554.499	16.469
556.243	15.3134
557.987	14.827
559.73	14.1553
561.474	14.0928
563.216	14.4097
564.959	13.601
566.701	12.3205
568.441	11.8936
570.182	11.1217
571.923	10.1129
573.664	10.0077
575.405	9.17061
577.145	8.35642
578.885	9.58968
580.624	9.23673
582.361	8.69201
584.1	8.97098
585.839	7.60597
587.577	7.91561
589.315	7.17555
591.052	7.07015
592.787	6.3574
594.524	5.62484
596.26	5.39232
597.997	5.68213
599.732	6.51224
601.466	7.69524
603.201	7.12352
604.936	7.30628
606.67	6.74199
608.403	6.78815
610.136	7.36965
611.87	7.51943
613.603	7.68966
615.334	7.45646
617.067	7.99544
618.799	8.69848
620.529	8.39717
622.26	9.11788
623.991	9.89914
625.72	9.77917
627.451	10.8831
629.181	9.90401
630.909	10.3276
632.638	11.0527
634.368	11.1558
636.095	13.1499
637.823	13.5945
639.551	14.0091
641.277	15.683
643.005	16.4931
644.73	16.6139
646.457	17.3325
648.184	17.5826
649.908	17.341
651.634	15.817
653.357	16.571
655.083	16.9363
656.806	17.1511
658.53	17.3272
660.253	17.6843
661.977	17.3751
663.7	17.4732
665.422	17.6546
667.145	17.1061
668.865	16.8368
670.588	16.8554
672.308	15.6188
674.027	17.2267
675.749	17.6044
677.468	19.3329
679.188	18.6274
680.907	19.783
682.627	20.4866
684.345	22.2159
686.064	22.7651
687.781	23.3291
689.498	22.4875
691.216	23.326
692.932	23.4932
694.65	24.8969
696.366	24.4412
698.081	24.9955
699.797	24.5036
701.512	24.5008
703.228	24.3106
704.942	25.0729
706.655	25.5633
708.371	26.4859
710.083	27.0012
711.796	27.2118
713.51	28.2156
715.222	28.358
716.934	29.5174
718.645	31.0507
720.358	31.0562
722.068	33.3073
723.779	33.3021
725.49	33.3732
727.2	33.8972
728.909	34.2948
730.618	34.539
732.329	35.2741
734.037	35.2133
735.745	34.9158
737.453	35.1152
739.16	36.163
740.869	35.9859
742.576	36.3196
744.282	36.8211
745.988	36.3257
747.694	37.5703
749.401	38.2575
751.107	39.2783
752.811	40.2795
754.516	41.2826
756.22	44.2527
757.924	45.818
759.627	48.7259
761.332	49.9281
763.035	50.8811
764.738	51.3238
766.44	53.8887
768.142	54.9674
769.843	55.1201
771.544	56.0571
773.245	56.5622
774.946	56.9576
776.646	58.3678
778.346	58.7844
780.046	59.019
781.745	58.9937
783.444	60.4888
785.143	60.215
786.841	62.4108
788.539	62.7754
790.237	63.6756
791.934	64.3359
793.631	65.791
795.328	67.515
797.024	67.3374
798.72	67.8356
800.416	67.8848
802.112	68.599
803.807	69.5497
805.502	69.6719
807.196	70.3016
808.89	69.725
810.584	69.7159
812.278	69.7666
813.971	69.6315
815.664	69.0205
817.354	68.7133
819.047	68.2945
820.739	68.2221
822.43	68.4327
824.122	67.4748
825.813	67.2534
827.503	66.9062
829.192	66.1231
830.882	66.7856
832.571	68.0648
834.261	68.5694
835.95	69.3532
837.637	69.2331
839.325	69.5582
841.013	69.8909
842.701	68.7589
844.389	67.6752
846.074	66.8995
847.761	65.1083
849.447	64.5849
851.131	63.3538
852.817	61.8723
854.503	60.7783
856.188	59.4331
857.871	58.792
859.556	58.0807
861.24	56.6747
862.922	55.2246
864.606	53.8538
866.289	52.8892
867.97	52.9804
869.653	51.9287
871.336	50.9431
873.016	48.8506
874.698	50.0252
876.379	50.7937
878.058	50.6965
879.739	49.2662
881.418	47.8108
883.098	47.6143
884.778	47.463
886.456	47.2209
888.135	47.017
889.812	46.5263
891.49	45.7928
893.167	44.9743
894.845	44.12
896.523	43.3795
898.198	43.4198
899.875	43.4091
901.55	43.3116
903.226	42.7937
904.901	43.1085
906.576	43.6331
908.25	43.8325
909.925	44.597
911.598	44.5074
913.271	46.0448
914.945	47.6121
916.617	47.7505
918.291	48.3166
919.962	49.0672
921.635	49.0449
923.306	48.6103
924.978	49.0286
926.648	48.2203
928.318	48.7471
929.989	48.717
931.659	48.0918
933.328	47.9738
934.998	47.8714
936.666	47.8172
938.336	47.1612
940.004	46.2542
941.671	45.7761
943.34	44.5935
945.007	43.1452
946.673	42.5341
948.339	42.504
950.007	42.5429
951.672	42.804
953.337	42.4752
955.004	43.0577
956.669	43.3684
958.333	43.5274
959.997	41.2933
961.662	40.0292
963.326	40.0774
964.989	42.2696
966.651	42.6937
968.315	43.0086
969.977	44.0763
971.639	45.1636
973.301	47.0781
974.962	47.3793
976.624	47.3901
978.285	48.0768
979.945	48.891
981.605	50.1417
983.264	50.5616
984.924	51.784
986.583	53.0418
988.243	54.853
989.901	55.7748
991.56	55.625
993.217	55.5504
994.875	56.2329
996.532	57.9786
998.188	58.4523
999.845	58.6434
1001.5	59.715
1003.16	60.1368
1004.81	58.971
1006.47	58.4792
1008.12	59.9672
1009.78	60.0307
1011.43	61.0675
1013.09	61.5833
1014.74	62.9605
1016.39	62.8699
1018.05	64.7016
1019.7	64.9964
1021.35	64.9015
1023	65.2392
1024.65	65.0952
1026.31	66.0908
1027.96	66.4939
1029.61	67.5143
1031.26	67.743
1032.91	66.4476
1034.56	66.2748
1036.21	65.2627
1037.86	63.7339
1039.51	62.2294
1041.16	61.2673
1042.8	60.1379
1044.45	60.2013
1046.1	60.3302
1047.75	59.3291
1049.39	57.872
1051.04	57.4501
1052.69	55.6471
1054.33	53.9125
1055.98	52.5234
1057.62	48.8107
1059.27	46.7487
1060.91	45.1299
1062.56	42.8429
1064.2	40.6971
1065.85	37.9137
1067.49	35.7801
1069.13	32.3354
1070.77	30.2373
1072.42	26.5382
1074.06	24.4628
1075.7	22.2788
1077.34	21.4151
1078.98	19.7452
1080.62	17.8004
1082.27	15.2496
1083.91	15.4102
1085.55	13.5489
1087.18	12.2693
1088.82	11.9439
1090.46	12.3942
1092.1	12.5209
1093.74	12.8175
1095.38	13.0174
1097.02	12.9774
1098.65	13.1453
1100.29	14.456
1101.93	14.2154
1103.56	14.3381
1105.2	14.5524
1106.84	14.8823
1108.47	15.4355
1110.11	14.1214
1111.74	13.5175
1113.38	12.6369
1115.01	12.0593
1116.64	12.8638
1118.28	11.9461
1119.91	12.2031
1121.54	12.4216
1123.18	12.3389
1124.81	11.5538
1126.44	11.6839
1128.07	11.3832
1129.7	10.9176
1131.33	10.9287
1132.97	10.1365
1134.6	9.38554
1136.23	9.55752
1137.86	8.08694
1139.49	8.44697
1141.11	8.63579
1142.74	7.55419
1144.37	7.31049
1146	8.00364
1147.63	7.24329
1149.26	6.54719
1150.88	5.92401
1152.51	6.3827
1154.14	5.06024
1155.76	5.64588
1157.39	5.73055
1159.01	5.72699
1160.64	5.72617
1162.27	4.7548
1163.89	4.34062
1165.51	5.53648
1167.14	3.78959
1168.76	3.33182
1170.39	3.83445
1172.01	4.82721
1173.63	5.74145
1175.25	6.83904
1176.88	8.08006
1178.5	9.16938
1180.12	9.97035
1181.74	11.0502
1183.36	10.8589
1184.98	11.1002
1186.6	10.9009
1188.22	12.0049
1189.84	12.757
1191.46	12.8798
1193.08	14.4481
1194.7	16.4416
1196.32	17.7422
1197.94	19.2502
1199.55	21.2867
1201.17	22.5994
1202.79	23.8071
1204.41	24.5616
1206.02	24.6372
1207.64	26.3272
1209.25	28.1688
1210.87	29.9849
1212.48	31.5226
1214.1	32.9317
1215.71	35.0766
1217.33	37.2778
1218.94	40.3977
1220.56	44.1225
1222.17	45.0193
1223.79	46.4834
1225.4	50.0063
1227.01	51.9744
1228.62	52.8026
1230.23	55.9591
1231.85	58.3211
1233.46	60.4467
1235.07	61.9701
1236.68	62.7435
1238.29	64.1572
1239.9	64.8285
1241.51	65.7718
1243.12	66.1557
1244.73	66.892
1246.34	67.0116
1247.94	67.1775
1249.55	68.4683
1251.16	70.2103
1252.77	70.7047
1254.37	70.7075
1255.98	70.0526
1257.59	69.8687
1259.2	69.035
1260.8	68.4339
1262.41	67.9008
1264.01	66.8409
1265.62	66.6677
1267.22	66.2051
1268.83	66.6842
1270.43	66.3424
1272.03	66.159
1273.64	66.8671
1275.24	67.6785
1276.85	67.3782
1278.45	67.376
1280.05	68.0329
1281.65	66.8882
1283.25	67.0416
1284.85	66.963
1286.46	68.3332
1288.06	69.4776
1289.66	70.3993
1291.26	70.8931
1292.86	72.7048
1294.46	74.2452
1296.06	76.7537
1297.66	78.3858
1299.25	79.1533
1300.85	79.538
1302.45	81.0393
1304.05	82.0897
1305.65	83.9575
1307.24	83.986
1308.84	84.7016
1310.43	85.9088
1312.03	85.487
1313.63	86.5448
1315.22	86.6037
1316.82	86.7308
1318.41	87.8572
1320.01	87.7575
1321.6	87.7736
1323.2	87.5233
1324.79	87.7907
1326.38	88.5405
1327.98	88.4348
1329.57	88.6021
1331.16	88.0951
1332.76	86.5218
1334.35	85.6786
1335.94	84.6486
1337.53	84.2918
1339.12	82.5073
1340.71	81.0673
1342.3	79.4094
1343.89	77.8889
1345.48	76.1239
1347.07	74.6132
1348.66	73.2532
1350.25	71.5545
1351.84	70.3789
1353.43	68.7357
1355.01	66.7799
1356.6	64.8042
1358.19	63.438
1359.77	61.4315
1361.36	59.3661
1362.95	58.1014
1364.53	56.2958
1366.12	54.0675
1367.71	52.3417
1369.29	52.0386
1370.88	49.939
1372.46	48.894
1374.04	46.3622
1375.63	45.2815
1377.21	43.4603
1378.8	42.0021
1380.38	41.9337
1381.96	41.5966
1383.54	40.2189
1385.13	40.7237
1386.71	40.6504
1388.29	40.5614
1389.87	40.9458
1391.45	41.9261
1393.03	43.2392
1394.61	41.479
1396.19	41.4799
1397.77	41.7233
1399.35	42.2917
1400.93	43.3618
1402.51	43.8916
1404.09	45.9398
1405.67	47.067
1407.24	47.2386
1408.82	49.18
1410.4	50.7119
1411.98	52.6628
1413.55	54.9112
1415.13	56.9131
1416.71	59.562
1418.28	62.6575
1419.86	65.9649
1421.43	69.3442
1423.01	72.7049
1424.58	76.2862
1426.16	78.6231
1427.73	81.8077
1429.31	84.8312
1430.88	87.7653
1432.45	91.2127
1434.02	94.6779
1435.6	97.763
1437.17	99.7234
1438.74	100.755
1440.31	103.527
1441.88	104.493
1443.45	104.771
1445.03	105.636
1446.6	106.917
1448.17	106.637
1449.74	106.46
1451.3	105.672
1452.87	104.958
1454.44	104.791
1456.01	103.832
1457.58	101.87
1459.15	100.326
1460.72	97.7197
1462.28	95.4541
1463.85	92.789
1465.42	89.0171
1466.98	85.5617
1468.55	81.8895
1470.12	77.4185
1471.68	72.7408
1473.25	67.8813
1474.81	64.4533
1476.38	60.8678
1477.94	57.1007
1479.51	53.6045
1481.07	49.8205
1482.63	47.9861
1484.2	44.6261
1485.76	41.666
1487.32	40.1467
1488.88	37.6922
1490.45	35.9365
1492.01	33.76
1493.57	31.9628
1495.13	31.6084
1496.69	30.7236
1498.25	29.3213
1499.81	28.6305
1501.37	27.9461
1502.93	27.276
1504.49	26.8546
1506.05	27.5478
1507.61	27.1117
1509.17	27.617
1510.73	27.5049
1512.28	26.5231
1513.84	25.2341
1515.4	24.4623
1516.96	24.8398
1518.51	24.676
1520.07	24.3836
1521.63	23.4714
1523.18	24.0957
1524.74	24.614
1526.29	25.1317
1527.85	25.9206
1529.4	24.3373
1530.96	25.3755
1532.51	25.9304
1534.06	26.0529
1535.62	25.8706
1537.17	27.3073
1538.72	28.253
1540.28	28.9367
1541.83	28.9408
1543.38	28.6691
1544.93	29.2105
1546.48	29.7295
1548.03	30.5504
1549.59	31.8064
1551.14	32.7061
1552.69	33.4525
1554.24	34.0928
1555.79	34.1712
1557.34	34.8625
1558.88	35.1328
1560.43	36.5311
1561.98	35.6442
1563.53	36.4328
1565.08	37.1164
1566.62	37.5196
1568.17	39.1632
1569.72	39.8316
1571.27	41.2541
1572.81	42.7403
1574.36	43.6919
1575.9	44.7213
1577.45	46.9045
1579	46.9419
1580.54	48.1704
1582.09	49.538
1583.63	50.2732
1585.17	50.8674
1586.72	53.0514
1588.26	53.7647
1589.8	56.041
1591.35	57.9197
1592.89	59.0335
1594.43	59.3185
1595.97	59.0278
1597.52	60.4525
1599.06	61.7953
1600.6	63.0997
1602.14	62.7863
1603.68	62.7421
1605.22	62.6145
1606.76	62.8253
1608.3	64.4537
1609.84	65.8071
1611.38	66.0918
1612.92	66.8109
1614.46	67.7351
1615.99	67.4816
1617.53	67.2564
1619.07	67.7129
1620.61	67.8692
1622.14	69.0614
1623.68	70.0634
1625.22	70.7341
1626.75	71.8218
1628.29	73.0819
1629.82	73.7609
1631.36	73.7662
1632.9	75.3489
1634.43	76.2802
1635.96	77.8411
1637.5	79.9688
1639.03	80.5248
1640.57	82.9416
1642.1	84.468
1643.63	86.1805
1645.16	88.5382
1646.7	89.6101
1648.23	91.1539
1649.76	92.7468
1651.29	93.8244
1652.82	94.6935
1654.36	96.3111
1655.89	97.0587
1657.42	98.7959
1658.95	98.9712
1660.48	99.0772
1662.01	99.461
1663.53	99.9451
1665.06	98.4901
1666.59	97.7736
1668.12	96.1858
1669.65	93.1389
1671.18	90.8567
1672.7	89.0415
1674.23	87.0678
1675.76	84.445
1677.29	80.3962
1678.81	77.8472
1680.34	75.4317
1681.86	71.6609
1683.39	68.8674
1684.91	65.3665
1686.44	61.5484
1687.96	57.5327
1689.49	54.594
1691.01	51.3347
1692.54	47.8609
1694.06	45.4117
1695.58	42.4113
1697.11	38.9933
1698.63	36.5364
1700.15	33.2553
1701.67	30.7952
1703.2	27.9525
1704.72	25.6184
1706.24	22.8435
1707.76	20.3964
1709.28	18.8757
1710.8	16.1595
1712.32	15.4004
1713.84	13.4833
1715.36	11.0836
1716.88	10.4872
1718.4	9.68902
1719.91	9.47419
1721.43	8.68577
1722.95	7.41405
1724.47	7.23957
1725.99	7.3277
1727.5	7.27235
1729.02	7.91339
1730.54	8.17601
1732.05	7.99773
1733.57	7.66749
1735.09	7.32247
1736.6	7.18113
1738.12	7.39259
1739.63	7.61638
1741.15	7.51677
1742.66	7.62175
1744.18	7.20501
1745.69	6.09824
1747.2	6.53279
1748.72	6.81366
1750.23	6.66659
1751.74	6.08224
1753.25	6.19348
1754.77	6.15811
1756.28	5.71546
1757.79	5.6447
1759.3	6.57971
1760.81	6.04489
1762.32	6.26442
1763.83	6.55148
1765.34	6.40604
1766.85	6.03075
1768.36	6.24392
1769.87	5.70899
1771.38	4.78416
1772.89	4.1219
1774.4	4.00465
1775.91	3.75765
1777.41	3.9728
1778.92	3.64991
1780.43	3.84532
1781.94	3.77268
1783.44	3.60155
1784.95	4.13558
1786.45	4.03527
1787.96	4.47241
1789.47	4.54102
1790.97	5.22312
1792.47	5.90403
1793.98	5.82569
1795.48	5.79189
1796.99	5.4546
1798.49	5.8372
1800	6.56152
1801.5	6.88401
1803	6.37633
1804.51	6.08227
1806.01	5.58359
1807.51	5.06755
1809.01	4.62623
1810.51	4.5514
1812.02	4.26994
1813.52	4.90441
1815.02	5.30639
1816.52	4.92886
1818.02	4.98082
1819.52	4.94866
1821.02	4.21678
1822.52	3.8796
1824.02	3.5428
1825.51	3.55354
1827.01	3.01784
1828.51	3.74482
1830.01	3.66407
1831.51	3.43507
1833	2.94693
1834.5	2.36671
1836	1.6238
1837.49	2.13085
1838.99	2.09995
1840.49	2.29904
1841.98	2.21196
1843.48	2.03985
1844.97	1.65396
1846.47	1.90178
1847.96	1.69562
1849.46	2.02463
1850.95	2.29946
1852.45	2.81336
1853.94	3.12913
1855.43	3.31349
1856.92	3.13206
1858.42	3.96857
1859.91	4.62909
1861.4	3.90291
1862.89	3.80986
1864.39	4.42859
1865.88	4.09051
1867.37	3.30371
1868.86	3.01387
1870.35	3.20562
1871.84	3.55063
1873.33	3.90018
1874.82	4.06366
1876.31	4.34061
1877.8	4.13104
1879.29	5.36681
1880.77	5.91444
1882.26	5.84107
1882.52	6.28335
1884.02	7.03603
1885.51	7.25969
1887.01	8.2432
1888.5	7.63274
1889.99	6.87158
1891.49	6.65345
1892.98	6.02291
1894.47	5.2554
1895.96	5.15463
1897.46	5.35878
1898.95	6.10572
1900.44	5.25195
1901.93	5.21187
1903.42	4.72544
1904.91	4.6371
1906.4	4.59417
1907.89	4.6916
1909.38	4.4703
1910.87	5.30434
1912.36	5.39664
1913.85	5.17904
1915.34	4.76989
1916.83	4.34758
1918.32	4.06236
1919.8	3.9353
1921.29	3.65697
1922.78	3.70884
1924.27	3.66031
1925.75	3.09482
1927.24	2.1305
1928.73	2.32463
1930.21	2.3378
1931.7	2.49856
1933.18	1.50525
1934.67	0.799947
1936.15	0.765683
1937.64	1.00707
1939.12	0.0854583
1940.61	-0.400646
1942.09	0.0476625
1943.57	0.316813
1945.06	0.855002
1946.54	0.818849
1948.02	1.43679
1949.51	1.65416
1950.99	1.51926
1952.47	2.11548
1953.95	1.55674
1955.43	1.01887
1956.91	1.80088
1958.39	1.82374
1959.87	1.19798
1961.36	0.818189
1962.84	-0.00588179
1964.32	-0.0233803
1965.79	0.327724
1967.27	-0.0768878
1968.75	0.666045
1970.23	1.36419
1971.71	2.34602
1973.19	2.9901
1974.66	2.36902
1976.14	3.25788
1977.62	3.59597
1979.1	3.87392
1980.57	4.2918
1982.05	5.17244
1983.53	5.47356
1985	6.3574
1986.48	6.10563
1987.95	6.14938
1989.43	5.85235
1990.9	5.69096
1992.38	5.91318
1993.85	6.15291
1995.33	6.12633
1996.8	6.46358
1998.27	6.6319
1999.75	6.99798
2001.22	6.7429
2002.69	6.78182
2004.16	6.28821
2005.64	5.78132
2007.11	5.94612
2008.58	6.07348
2010.05	5.72735
2011.52	5.59788
2012.99	5.17004
2014.46	5.27134
2015.93	5.71885
2017.4	6.08188
2018.87	6.7524
2020.34	6.58272
2021.81	7.05308
2023.28	6.96129
2024.75	6.92402
2026.22	6.69418
2027.69	6.83835
2029.15	6.88848
2030.62	7.33146
2032.09	6.54387
2033.56	6.41749
2035.02	6.78107
2036.49	7.23261
2037.95	7.56592
2039.42	7.67357
2040.89	7.97345
2042.35	8.55668
2043.82	8.47435
2045.28	8.42919
2046.75	8.25359
2048.21	7.6475
2049.67	7.75405
2051.14	7.05119
2052.6	6.66548
2054.06	7.42665
2055.53	7.88483
2056.99	7.66618
2058.45	7.8215
2059.92	7.40207
2061.38	6.81502
2062.84	5.78036
2064.3	5.29111
2065.76	5.34078
2067.22	5.82416
2068.68	5.82722
2070.14	6.25336
2071.6	5.89659
2073.06	6.31162
2074.52	6.29559
2075.98	6.73455
2077.44	7.23164
2078.9	7.96675
2080.36	8.03911
2081.82	7.97945
2083.27	7.33357
2084.73	7.13586
2086.19	7.25974
2087.65	8.16352
2089.1	9.23092
2090.56	9.85161
2092.01	10.2292
2093.47	10.1099
2094.93	11.009
2096.38	10.6491
2097.84	10.8449
2099.29	11.0543
2100.75	11.587
2102.2	11.8521
2103.66	12.4792
2105.11	13.1497
2106.56	13.2481
2108.02	13.1843
2109.47	13.3909
2110.92	12.7798
2112.37	11.9058
2113.83	11.9265
2115.28	11.1123
2116.73	11.2089
2118.18	10.4991
2119.63	10.3394
2121.09	10.5793
2122.54	11.445
2123.99	11.2815
2125.44	11.7292
2126.89	12.7699
2128.34	12.7792
2129.79	12.5534
2131.23	12.7779
2132.68	12.989
2134.13	13.2719
