#Acq. time (s)=	45
#Accumulations=	2
#Range (cm-¹)=	200...3150
#Windows=	2
#Auto scanning=	Off
#Autofocus=	Off
#Macrospot=	Off
#AutoExposure=	Off
#Spike filter=	Multiple accum.
#Delay time (s)=	0
#Binning=	1
#Readout mode=	Signal
#DeNoise=	Off
#ICS correction=	On
#Dark correction=	Off
#Inst. Process=	Off
#Detector Gain=	Best Dynamic Range
#Detector ADC=	20 kHz       
#Detector temperature (°C)=	-69.85
#Instrument=	LabRAM HR Evol
#Detector=	Synapse
#Objective=	x100
#Grating=	600 gr/mm
#ND Filter=	100%
#Laser (nm)=	532 
#Hole=	100.021
#Range=	Auto
#Laser Pol.=	No
#Raman. Pol.=	No
#Laser Pol. (°)=	-0.0007625
#Raman Pol. (°)=	89.9995
#Collection=	Microscope
#StageXY=	Marzhauser
#StageZ=	Marzhauser
#X (µm)=	-644.1
#Y (µm)=	-1586.9
#Z (µm)=	89.1
#Full time(mm:ss)=	3:10
#Project=	
#Sample=	
#Site=	
#Title=	Mb_10_14_11_2x_45s_532 nm_x100_100%_600 gr_mm
#Remark=	
#Date=	11.07.2022 09:21
#Acquired=	11.07.2022 09:21:14
#Edit:Spike=	11.07.2022 09:59:32
#Edit:Spike=	11.07.2022 09:59:33
#Base:Fit=	10.08.2022 10:21:11
#Base:Sub=	10.08.2022 10:21:41
#Filter:Polynom=	16.08.2022 10:17:53
#AxisType[0]=Intens
#AxisUnit[0]=Cnt
#AxisType[1]=Spectr
#AxisUnit[1]=1/cm
200.388	12.027
202.204	10.0399
204.019	8.84971
205.832	8.9854
207.646	7.15878
209.459	5.50659
211.274	4.20649
213.087	3.56027
214.899	2.8812
216.711	3.70466
218.524	3.51372
220.335	4.2973
222.146	5.88893
223.956	8.18928
225.766	9.45788
227.576	10.3748
229.388	11.2344
231.197	12.7292
233.005	14.1888
234.813	16.0823
236.621	17.4565
238.429	19.9381
240.236	21.4983
242.045	23.5292
243.852	25.1613
245.658	26.4665
247.464	27.5419
249.269	29.0373
251.074	31.1869
252.879	33.4525
254.683	32.8135
256.487	33.5984
258.291	33.9566
260.094	35.1268
261.897	35.8362
263.702	37.4772
265.504	38.3754
267.306	39.5382
269.108	40.1152
270.909	40.4981
272.71	40.3922
274.511	40.7358
276.311	40.8594
278.111	40.8588
279.91	40.0152
281.709	38.6306
283.508	37.6888
285.306	37.1946
287.105	36.5622
288.9	35.5876
290.698	35.0387
292.495	34.291
294.291	33.3161
296.088	31.698
297.884	31.8175
299.679	32.1109
301.475	32.2511
303.27	32.5057
305.064	32.9464
306.858	33.0119
308.652	32.5086
310.444	33.0792
312.237	33.6335
314.03	33.4616
315.822	32.4859
317.615	32.8939
319.406	33.2224
321.198	34.6745
322.987	35.8755
324.778	36.6634
326.568	36.979
328.358	37.4318
330.148	36.9929
331.935	37.079
333.724	37.0392
335.513	37.2571
337.301	37.4146
339.089	38.251
340.875	38.6074
342.662	37.3516
344.449	37.6894
346.236	37.7642
348.02	38.2404
349.806	38.4938
351.592	39.9176
353.375	41.5369
355.16	42.4233
356.944	43.2456
358.728	44.0026
360.51	44.4359
362.294	44.8597
364.077	46.4494
365.858	46.4188
367.64	46.0153
369.422	46.352
371.202	46.8115
372.983	48.0752
374.764	48.3623
376.543	48.0971
378.324	47.8332
380.102	48.6504
381.881	49.5296
383.661	49.7735
385.438	49.4831
387.216	50.0903
388.993	50.8937
390.771	50.131
392.548	50.116
394.324	48.7189
396.101	47.7332
397.875	48.2925
399.651	47.9556
401.425	47.6276
403.201	46.7258
404.974	46.1113
406.749	46.129
408.524	45.4777
410.296	45.3502
412.07	43.7031
413.841	42.2169
415.614	40.428
417.385	38.5422
419.156	37.1798
420.928	36.113
422.698	34.5524
424.469	33.269
426.238	31.0996
428.009	29.7563
429.777	28.0263
431.548	25.6289
433.315	23.9268
435.083	21.4163
436.852	20.2643
438.618	19.0238
440.387	18.2783
442.153	17.0872
443.919	16.3658
445.686	14.4658
447.451	13.4436
449.218	12.186
450.982	12.5796
452.746	12.1407
454.512	11.5217
456.275	12.3704
458.038	13.023
459.803	12.7536
461.565	13.1607
463.327	12.9572
465.091	13.1369
466.852	13.0923
468.613	14.513
470.374	15.2171
472.136	15.3331
473.896	15.4296
475.655	16.8416
477.415	16.1234
479.176	16.3095
480.934	17.1894
482.692	16.9273
484.45	18.751
486.21	20.1341
487.967	20.5549
489.724	21.0895
491.481	21.9804
493.237	22.896
494.995	24.3927
496.75	24.7079
498.506	24.2351
500.26	23.7923
502.015	23.9407
503.769	24.1555
505.525	24.2614
507.279	25.0188
509.032	25.6968
510.785	24.3
512.537	24.5937
514.289	24.2184
516.041	24.2716
517.793	23.5334
519.546	22.6734
521.297	22.8282
523.047	23.7782
524.797	24.284
526.547	24.263
528.297	23.8236
530.046	23.4558
531.795	23.0122
533.543	22.446
535.291	23.0337
537.039	23.4352
538.787	23.5333
540.534	22.8251
542.281	23.3442
544.027	21.9115
545.773	20.2008
547.519	18.9535
549.264	17.9625
551.01	16.0309
552.754	15.6147
554.499	14.9525
556.243	14.7728
557.987	13.5773
559.73	12.5979
561.474	11.4562
563.216	10.4918
564.959	8.04299
566.701	7.87213
568.441	7.2083
570.182	5.81519
571.923	5.89954
573.664	4.67283
575.405	3.78564
577.145	2.63155
578.885	2.28145
580.624	1.90211
582.361	1.55872
584.1	0.645999
585.839	-0.595863
587.577	0.162983
589.315	0.343452
591.052	-0.199027
592.787	-0.0275073
594.524	0.0404801
596.26	-0.193725
597.997	-0.985513
599.732	-0.132348
601.466	0.100431
603.201	0.829019
604.936	1.1534
606.67	1.20798
608.403	2.05853
610.136	2.18073
611.87	2.74813
613.603	3.00297
615.334	3.45978
617.067	3.82967
618.799	4.17013
620.529	4.42065
622.26	4.96418
623.991	5.46149
625.72	6.18837
627.451	5.64208
629.181	5.56723
630.909	4.35581
632.638	5.02094
634.368	5.60073
636.095	5.93621
637.823	6.12334
639.551	7.03522
641.277	7.56695
643.005	7.54958
644.73	7.56705
646.457	8.09825
648.184	7.87986
649.908	8.092
651.634	8.33915
653.357	7.69053
655.083	7.25181
656.806	7.23655
658.53	6.70828
660.253	6.41001
661.977	6.87809
663.7	5.97803
665.422	5.75207
667.145	5.56573
668.865	4.78985
670.588	4.79136
672.308	4.41324
674.027	4.46662
675.749	4.08243
677.468	4.04545
679.188	4.99624
680.907	5.2384
682.627	5.28883
684.345	5.88178
686.064	6.69305
687.781	7.97532
689.498	8.4137
691.216	8.20456
692.932	8.26808
694.65	9.51111
696.366	10.5535
698.081	12.241
699.797	12.244
701.512	12.3932
703.228	12.6838
704.942	13.5587
706.655	15.1949
708.371	15.941
710.083	16.8277
711.796	17.3035
713.51	17.6233
715.222	17.9916
716.934	18.7373
718.645	19.8054
720.358	19.7971
722.068	20.2886
723.779	20.8283
725.49	22.2234
727.2	23.3961
728.909	23.8318
730.618	23.9139
732.329	24.5357
734.037	24.7073
735.745	25.3075
737.453	25.7633
739.16	25.8087
740.869	27.6549
742.576	28.3032
744.282	28.7482
745.988	29.9398
747.694	30.1137
749.401	29.5695
751.107	30.7133
752.811	31.3177
754.516	32.1635
756.22	33.7367
757.924	34.5224
759.627	36.0759
761.332	38.1928
763.035	39.4288
764.738	40.6458
766.44	42.159
768.142	43.1255
769.843	45.0578
771.544	45.9476
773.245	47.487
774.946	48.4337
776.646	49.6881
778.346	50.5911
780.046	52.543
781.745	54.2328
783.444	54.5958
785.143	55.8359
786.841	56.4946
788.539	58.1689
790.237	59.1866
791.934	59.2215
793.631	58.8145
795.328	59.6704
797.024	61.0098
798.72	61.045
800.416	61.0925
802.112	61.4877
803.807	61.707
805.502	60.8053
807.196	61.9646
808.89	61.8351
810.584	62.4905
812.278	62.1313
813.971	61.2944
815.664	61.376
817.354	62.1545
819.047	62.4288
820.739	63.2493
822.43	64.3749
824.122	64.3404
825.813	65.5689
827.503	65.3632
829.192	65.4922
830.882	64.7953
832.571	65.0664
834.261	64.7155
835.95	65.2971
837.637	64.3479
839.325	64.6739
841.013	64.6925
842.701	64.0303
844.389	64.0634
846.074	63.5084
847.761	62.7671
849.447	62.2984
851.131	62.0565
852.817	60.8358
854.503	59.6568
856.188	58.8197
857.871	56.8577
859.556	55.3459
861.24	54.081
862.922	52.9278
864.606	52.0679
866.289	50.5902
867.97	49.3643
869.653	48.5679
871.336	46.666
873.016	45.951
874.698	43.7684
876.379	42.2929
878.058	41.3176
879.739	40.9975
881.418	39.6584
883.098	37.6861
884.778	36.8136
886.456	35.598
888.135	34.9424
889.812	33.5607
891.49	33.4246
893.167	33.4197
894.845	33.65
896.523	33.0797
898.198	33.8447
899.875	35.0675
901.55	34.8785
903.226	35.2165
904.901	36.3321
906.576	37.0268
908.25	37.2798
909.925	37.8453
911.598	37.9828
913.271	37.1781
914.945	37.299
916.617	37.6126
918.291	36.7661
919.962	36.9627
921.635	36.6977
923.306	36.5801
924.978	36.3945
926.648	36.3863
928.318	36.2089
929.989	36.1016
931.659	34.7681
933.328	33.7906
934.998	33.1519
936.666	31.7258
938.336	31.2277
940.004	30.8155
941.671	29.8477
943.34	30.4339
945.007	29.5535
946.673	29.1554
948.339	28.8172
950.007	29.6183
951.672	29.9478
953.337	28.58
955.004	28.1411
956.669	26.9373
958.333	26.2165
959.997	25.9172
961.662	25.3084
963.326	25.4205
964.989	26.1595
966.651	26.6365
968.315	25.8634
969.977	26.6121
971.639	27.5895
973.301	27.8213
974.962	28.5993
976.624	29.8875
978.285	29.6803
979.945	30.3229
981.605	31.4913
983.264	30.813
984.924	30.3939
986.583	31.1965
988.243	31.5723
989.901	31.2379
991.56	30.7505
993.217	30.7017
994.875	30.5791
996.532	30.0994
998.188	29.5618
999.845	29.722
1001.5	29.3517
1003.16	29.3812
1004.81	28.8082
1006.47	27.8544
1008.12	27.8116
1009.78	27.1408
1011.43	26.7533
1013.09	26.5053
1014.74	25.5304
1016.39	26.5688
1018.05	26.7848
1019.7	26.7015
1021.35	27.596
1023	28.484
1024.65	28.9171
1026.31	29.5476
1027.96	30.3366
1029.61	30.9542
1031.26	31.5325
1032.91	32.1983
1034.56	31.2374
1036.21	30.1754
1037.86	30.7205
1039.51	30.047
1041.16	30.8865
1042.8	30.312
1044.45	30.4688
1046.1	31.0617
1047.75	30.9216
1049.39	30.3155
1051.04	30.0096
1052.69	31.2101
1054.33	31.0745
1055.98	30.4788
1057.62	30.5464
1059.27	29.86
1060.91	28.7385
1062.56	28.3015
1064.2	27.3707
1065.85	26.0899
1067.49	26.4628
1069.13	26.3451
1070.77	25.9851
1072.42	24.5003
1074.06	24.9257
1075.7	25.2005
1077.34	24.1311
1078.98	23.2218
1080.62	22.3881
1082.27	23.0299
1083.91	21.6205
1085.55	21.468
1087.18	20.4512
1088.82	20.1221
1090.46	20.125
1092.1	19.9393
1093.74	20.4314
1095.38	20.436
1097.02	20.1649
1098.65	21.4858
1100.29	21.23
1101.93	21.7832
1103.56	22.003
1105.2	21.9024
1106.84	21.8782
1108.47	22.4914
1110.11	22.5795
1111.74	21.7413
1113.38	22.1608
1115.01	20.7424
1116.64	19.9573
1118.28	18.7477
1119.91	18.1415
1121.54	16.2481
1123.18	14.9577
1124.81	13.919
1126.44	13.1433
1128.07	12.864
1129.7	12.8404
1131.33	12.9756
1132.97	12.7375
1134.6	12.0842
1136.23	11.7961
1137.86	11.3207
1139.49	10.5275
1141.11	10.1787
1142.74	10.412
1144.37	11.2659
1146	11.1657
1147.63	11.6429
1149.26	11.8094
1150.88	11.1322
1152.51	11.1437
1154.14	10.4723
1155.76	11.6701
1157.39	11.0984
1159.01	9.61879
1160.64	9.40136
1162.27	9.40232
1163.89	8.89299
1165.51	8.64454
1167.14	8.52033
1168.76	8.49432
1170.39	8.72173
1172.01	9.07326
1173.63	8.84423
1175.25	8.85141
1176.88	9.08273
1178.5	9.65888
1180.12	10.704
1181.74	11.1941
1183.36	11.0658
1184.98	11.4995
1186.6	11.7422
1188.22	12.2422
1189.84	12.6525
1191.46	12.5131
1193.08	12.5119
1194.7	13.1357
1196.32	12.7889
1197.94	13.1378
1199.55	12.8582
1201.17	13.963
1202.79	14.9457
1204.41	16.8569
1206.02	18.322
1207.64	18.8833
1209.25	20.1753
1210.87	22.074
1212.48	23.0125
1214.1	24.646
1215.71	25.7903
1217.33	27.9858
1218.94	29.5891
1220.56	31.5316
1222.17	33.1864
1223.79	34.7699
1225.4	35.1208
1227.01	36.4851
1228.62	38.1879
1230.23	39.3361
1231.85	40.325
1233.46	41.1244
1235.07	41.8748
1236.68	43.1093
1238.29	42.9841
1239.9	42.7765
1241.51	43.9764
1243.12	44.0594
1244.73	44.8249
1246.34	46.0131
1247.94	46.0065
1249.55	46.8096
1251.16	46.38
1252.77	46.5909
1254.37	46.249
1255.98	46.8613
1257.59	46.7922
1259.2	46.3448
1260.8	45.9636
1262.41	46.0739
1264.01	45.2087
1265.62	45.026
1267.22	45.5763
1268.83	45.7762
1270.43	45.3863
1272.03	45.6944
1273.64	46.1777
1275.24	45.603
1276.85	46.1371
1278.45	46.548
1280.05	47.5915
1281.65	48.7078
1283.25	49.604
1284.85	50.2352
1286.46	49.6041
1288.06	50.3485
1289.66	50.8337
1291.26	52.9183
1292.86	53.7926
1294.46	55.0554
1296.06	55.6954
1297.66	56.602
1299.25	57.6118
1300.85	57.7415
1302.45	58.0085
1304.05	58.5731
1305.65	58.1872
1307.24	59.5609
1308.84	59.2142
1310.43	59.8108
1312.03	59.8326
1313.63	60.3031
1315.22	60.5873
1316.82	61.1424
1318.41	60.9742
1320.01	61.286
1321.6	61.6147
1323.2	61.482
1324.79	62.167
1326.38	62.1113
1327.98	60.7557
1329.57	60.3047
1331.16	59.3187
1332.76	59.2941
1334.35	58.6319
1335.94	57.5579
1337.53	56.2824
1339.12	56.2277
1340.71	56.2093
1342.3	55.1849
1343.89	54.6301
1345.48	54.0385
1347.07	54.3611
1348.66	52.8553
1350.25	52.0818
1351.84	51.9701
1353.43	51.0893
1355.01	50.0111
1356.6	50.5006
1358.19	49.6632
1359.77	49.1419
1361.36	48.7644
1362.95	48.343
1364.53	47.2847
1366.12	45.9913
1367.71	45.3006
1369.29	45.7632
1370.88	45.9758
1372.46	45.368
1374.04	45.3247
1375.63	43.927
1377.21	43.6183
1378.8	42.8125
1380.38	41.6382
1381.96	41.1863
1383.54	39.7649
1385.13	39.4007
1386.71	39.4075
1388.29	39.8442
1389.87	40.1528
1391.45	39.3093
1393.03	38.5044
1394.61	37.8961
1396.19	38.7751
1397.77	38.0007
1399.35	38.3583
1400.93	37.9196
1402.51	37.8582
1404.09	37.6914
1405.67	37.3829
1407.24	37.5422
1408.82	37.9518
1410.4	38.8218
1411.98	39.2394
1413.55	39.7268
1415.13	41.4044
1416.71	43.1494
1418.28	44.996
1419.86	45.8056
1421.43	47.3873
1423.01	48.5904
1424.58	50.0182
1426.16	52.3798
1427.73	54.4857
1429.31	56.8603
1430.88	59.173
1432.45	60.9942
1434.02	62.8016
1435.6	64.7929
1437.17	66.3163
1438.74	68.1837
1440.31	69.8761
1441.88	71.3222
1443.45	72.6418
1445.03	73.7096
1446.6	75.2148
1448.17	76.8198
1449.74	77.0246
1451.3	78.2363
1452.87	78.5095
1454.44	77.4284
1456.01	77.9505
1457.58	76.6336
1459.15	75.6356
1460.72	74.1238
1462.28	72.4404
1463.85	71.2651
1465.42	69.8046
1466.98	68.6234
1468.55	66.6818
1470.12	64.0646
1471.68	62.496
1473.25	60.3085
1474.81	58.82
1476.38	55.861
1477.94	53.8328
1479.51	50.5294
1481.07	49.1116
1482.63	46.6424
1484.2	44.5263
1485.76	42.7155
1487.32	40.4744
1488.88	39.0092
1490.45	36.4867
1492.01	35.2628
1493.57	34.452
1495.13	33.209
1496.69	31.7
1498.25	30.025
1499.81	29.5019
1501.37	28.3937
1502.93	28.5827
1504.49	27.5448
1506.05	26.8599
1507.61	26.0505
1509.17	24.9271
1510.73	23.7776
1512.28	22.9002
1513.84	22.3611
1515.4	21.9795
1516.96	22.0985
1518.51	21.668
1520.07	21.704
1521.63	21.6888
1523.18	21.6132
1524.74	21.3302
1526.29	21.5093
1527.85	21.6295
1529.4	21.5632
1530.96	20.5526
1532.51	20.9156
1534.06	20.4166
1535.62	19.8112
1537.17	20.3314
1538.72	20.2094
1540.28	20.6064
1541.83	21.5667
1543.38	21.6229
1544.93	21.538
1546.48	21.4399
1548.03	21.2079
1549.59	22.065
1551.14	21.3704
1552.69	22.2232
1554.24	22.0073
1555.79	22.1188
1557.34	21.9847
1558.88	23.0036
1560.43	23.5336
1561.98	24.5726
1563.53	25.9414
1565.08	26.4069
1566.62	27.1577
1568.17	27.5186
1569.72	28.6253
1571.27	29.169
1572.81	29.7888
1574.36	29.9043
1575.9	30.8172
1577.45	32.6101
1579	33.2424
1580.54	34.01
1582.09	34.2746
1583.63	36.029
1585.17	36.9673
1586.72	38.438
1588.26	39.3609
1589.8	40.1981
1591.35	41.4477
1592.89	42.3188
1594.43	43.8851
1595.97	45.2558
1597.52	46.5021
1599.06	46.9448
1600.6	47.2461
1602.14	47.6605
1603.68	48.7886
1605.22	48.7158
1606.76	48.8225
1608.3	49.1021
1609.84	48.9603
1611.38	48.4098
1612.92	47.981
1614.46	47.3218
1615.99	46.8312
1617.53	46.4206
1619.07	45.8963
1620.61	45.0378
1622.14	45.1408
1623.68	44.6468
1625.22	44.6009
1626.75	43.9044
1628.29	42.9194
1629.82	43.6148
1631.36	43.6699
1632.9	43.6489
1634.43	44.123
1635.96	45.2544
1637.5	45.7117
1639.03	44.7239
1640.57	43.4125
1642.1	42.072
1643.63	42.0442
1645.16	42.0122
1646.7	41.8243
1648.23	42.3354
1649.76	43.1192
1651.29	43.4026
1652.82	43.9506
1654.36	44.3326
1655.89	43.4759
1657.42	43.9036
1658.95	44.355
1660.48	45.373
1662.01	45.7607
1663.53	46.1935
1665.06	45.6462
1666.59	45.7044
1668.12	45.5839
1669.65	45.6831
1671.18	45.7167
1672.7	45.6544
1674.23	43.9709
1675.76	42.8047
1677.29	41.3884
1678.81	41.153
1680.34	40.1107
1681.86	38.3352
1683.39	36.7621
1684.91	35.071
1686.44	32.9244
1687.96	31.3435
1689.49	29.3882
1691.01	28.3165
1692.54	27.3825
1694.06	25.5396
1695.58	23.6954
1697.11	21.7553
1698.63	19.6956
1700.15	17.8663
1701.67	17.0835
1703.2	16.4284
1704.72	15.1425
1706.24	14.2749
1707.76	12.3504
1709.28	10.629
1710.8	9.47648
1712.32	7.76316
1713.84	6.01734
1715.36	4.19786
1716.88	2.76439
1718.4	2.7799
1719.91	2.55867
1721.43	1.91073
1722.95	1.80481
1724.47	2.01555
1725.99	1.6791
1727.5	1.73119
1729.02	2.04536
1730.54	1.90645
1732.05	1.60305
1733.57	1.60567
1735.09	1.95886
1736.6	2.08283
1738.12	2.21009
1739.63	2.45404
1741.15	2.33998
1742.66	2.17014
1744.18	2.24396
1745.69	2.5708
1747.2	2.31429
1748.72	2.57179
1750.23	1.64304
1751.74	1.87576
1753.25	1.59977
1754.77	1.82182
1756.28	0.712754
1757.79	0.279298
1759.3	0.066067
1760.81	0.272829
1762.32	0.497182
1763.83	1.2034
1765.34	1.30772
1766.85	1.11439
1768.36	1.09696
1769.87	1.07668
1771.38	0.795649
1772.89	1.07275
1774.4	1.32816
1775.91	1.67748
1777.41	2.4488
1778.92	2.92701
1780.43	2.14149
1781.94	2.47785
1783.44	2.63635
1784.95	2.79501
1786.45	2.55474
1787.96	2.52965
1789.47	2.69485
1790.97	3.35292
1792.47	3.87804
1793.98	3.93215
1795.48	3.99141
1796.99	4.58453
1798.49	4.9936
1800	5.10299
1801.5	5.28655
1803	5.03051
1804.51	4.56104
1806.01	3.74038
1807.51	3.38431
1809.01	3.16271
1810.51	3.4524
1812.02	3.66069
1813.52	3.6325
1815.02	2.74657
1816.52	2.1341
1818.02	1.8166
1819.52	1.97559
1821.02	1.67779
1822.52	1.24415
1824.02	0.79244
1825.51	0.204043
1827.01	0.0535427
1828.51	0.127928
1830.01	-0.343236
1831.51	-0.555358
1833	-0.169168
1834.5	-0.24427
1836	0.114886
1837.49	0.233255
1838.99	0.447977
1840.49	0.0165578
1841.98	0.34652
1843.48	0.290774
1844.97	0.839121
1846.47	1.04403
1847.96	1.51045
1849.46	1.29558
1850.95	1.56328
1852.45	1.87841
1853.94	1.98497
1855.43	1.77684
1856.92	1.73385
1858.42	1.8283
1859.91	1.87681
1861.4	1.76863
1862.89	2.78448
1864.39	2.88498
1865.88	3.45073
1867.37	3.59435
1868.86	3.32414
1870.35	4.40664
1871.84	4.84302
1873.33	4.76657
1874.82	5.41015
1876.31	5.86072
1877.8	6.28438
1879.29	6.59889
1880.77	6.49915
1882.26	6.7401
1882.52	7.45881
1884.02	7.60651
1885.51	7.26749
1887.01	6.96381
1888.5	6.90695
1889.99	7.09876
1891.49	7.07983
1892.98	7.65601
1894.47	7.34534
1895.96	7.22433
1897.46	7.04839
1898.95	6.92092
1900.44	6.96638
1901.93	6.70418
1903.42	5.87238
1904.91	5.74156
1906.4	5.19982
1907.89	5.10712
1909.38	5.52679
1910.87	5.8914
1912.36	6.50304
1913.85	6.35948
1915.34	6.33142
1916.83	6.43769
1918.32	6.43921
1919.8	5.57941
1921.29	5.05788
1922.78	4.20763
1924.27	4.70071
1925.75	4.50512
1927.24	4.04558
1928.73	4.42406
1930.21	3.90699
1931.7	4.22477
1933.18	4.13757
1934.67	4.2615
1936.15	4.2792
1937.64	4.31332
1939.12	4.76055
1940.61	5.58216
1942.09	5.06845
1943.57	5.99762
1945.06	5.69929
1946.54	5.77078
1948.02	5.63978
1949.51	5.32987
1950.99	5.0637
1952.47	4.67708
1953.95	4.87257
1955.43	4.68438
1956.91	4.76965
1958.39	3.68728
1959.87	3.47241
1961.36	3.58022
1962.84	3.22915
1964.32	2.81723
1965.79	3.09845
1967.27	3.1416
1968.75	2.33301
1970.23	2.63889
1971.71	2.22626
1973.19	1.90447
1974.66	1.8946
1976.14	1.32183
1977.62	1.4583
1979.1	1.38123
1980.57	1.66897
1982.05	2.17072
1983.53	2.35948
1985	2.9034
1986.48	3.09453
1987.95	2.36391
1989.43	2.46845
1990.9	2.55005
1992.38	2.42207
1993.85	2.67763
1995.33	3.07867
1996.8	2.56031
1998.27	3.24549
1999.75	2.65131
2001.22	2.98097
2002.69	3.62109
2004.16	2.89771
2005.64	3.01082
2007.11	3.02836
2008.58	3.16391
2010.05	2.63655
2011.52	2.88926
2012.99	2.54972
2014.46	2.96874
2015.93	2.31908
2017.4	2.90804
2018.87	2.4127
2020.34	2.84589
2021.81	2.37265
2023.28	2.67667
2024.75	2.94007
2026.22	2.87596
2027.69	2.57733
2029.15	2.23572
2030.62	2.91651
2032.09	2.86174
2033.56	2.84424
2035.02	2.77372
2036.49	3.05111
2037.95	3.33369
2039.42	3.6036
2040.89	3.13898
2042.35	3.40645
2043.82	4.32794
2045.28	4.15298
2046.75	4.44799
2048.21	5.04543
2049.67	5.25046
2051.14	5.42587
2052.6	5.45465
2054.06	5.53555
2055.53	6.20376
2056.99	6.55306
2058.45	7.43735
2059.92	7.47011
2061.38	7.61825
2062.84	8.59219
2064.3	8.87626
2065.76	8.90174
2067.22	8.73112
2068.68	8.45488
2070.14	8.27289
2071.6	8.8862
2073.06	8.57615
2074.52	8.62792
2075.98	7.88304
2077.44	7.10389
2078.9	7.13951
2080.36	7.65781
2081.82	7.94028
2083.27	7.36213
2084.73	7.22923
2086.19	7.45277
2087.65	8.2751
2089.1	7.86986
2090.56	8.04336
2092.01	8.02559
2093.47	8.37952
2094.93	7.80335
2096.38	8.58764
2097.84	8.98185
2099.29	8.47296
2100.75	8.47925
2102.2	9.63817
2103.66	9.73102
2105.11	8.85113
2106.56	9.34263
2108.02	9.62922
2109.47	9.87265
2110.92	10.2444
2112.37	10.5973
2113.83	11.066
2115.28	11.6521
2116.73	12.2254
2118.18	11.6656
2119.63	12.2049
2121.09	11.8797
2122.54	11.9178
2123.99	12.159
2125.44	12.5889
2126.89	12.9126
2128.34	13.489
