#Acq. time (s)=	45
#Accumulations=	2
#Range (cm-¹)=	200...3150
#Windows=	2
#Auto scanning=	Off
#Autofocus=	Off
#Macrospot=	Off
#AutoExposure=	Off
#Spike filter=	Multiple accum.
#Delay time (s)=	0
#Binning=	1
#Readout mode=	Signal
#DeNoise=	Off
#ICS correction=	On
#Dark correction=	Off
#Inst. Process=	Off
#Detector Gain=	Best Dynamic Range
#Detector ADC=	20 kHz       
#Detector temperature (°C)=	-70.08
#Instrument=	LabRAM HR Evol
#Detector=	Synapse
#Objective=	x100
#Grating=	600 gr/mm
#ND Filter=	100%
#Laser (nm)=	532 
#Hole=	100.021
#Range=	Auto
#Laser Pol.=	No
#Raman. Pol.=	No
#Laser Pol. (°)=	-0.0007625
#Raman Pol. (°)=	89.9995
#Collection=	Microscope
#StageXY=	Marzhauser
#StageZ=	Marzhauser
#X (µm)=	-2412.9
#Y (µm)=	2136
#Z (µm)=	-40.85
#Full time(mm:ss)=	3:20
#Project=	
#Sample=	
#Site=	
#Title=	Mb_10_14_01_2x_45s_532 nm_x100_100%_600 gr_mm
#Remark=	
#Date=	07.07.2022 13:30
#Acquired=	07.07.2022 13:30:45
#Base:Fit=	10.08.2022 10:21:11
#Base:Sub=	10.08.2022 10:21:41
#Filter:Polynom=	16.08.2022 10:17:53
#AxisType[0]=Intens
#AxisUnit[0]=Cnt
#AxisType[1]=Spectr
#AxisUnit[1]=1/cm
200.43	-2.08995
202.246	-0.400171
204.061	1.08941
205.875	2.33365
207.688	3.62606
209.501	5.00345
211.316	6.22782
213.129	7.55682
214.941	8.42568
216.753	9.58951
218.566	11.1904
220.377	13.1085
222.188	14.1095
223.999	14.7227
225.809	15.9395
227.618	16.9609
229.43	19.1767
231.239	19.9991
233.047	21.6285
234.855	23.0137
236.663	23.3234
238.471	24.9125
240.278	26.8917
242.087	27.5384
243.894	27.9273
245.7	28.7866
247.506	28.3738
249.311	29.0696
251.116	28.6677
252.921	28.7329
254.725	27.4111
256.529	27.9383
258.333	27.8276
260.136	27.7853
261.939	26.7628
263.744	24.5554
265.546	24.1789
267.348	22.1672
269.15	21.3687
270.951	21.3565
272.752	21.1928
274.552	19.3987
276.353	19.1567
278.152	16.9235
279.952	15.301
281.751	14.3372
283.55	12.6206
285.348	11.9733
287.146	9.31715
288.942	8.4998
290.739	6.80599
292.536	6.41914
294.333	4.71582
296.129	3.72806
297.925	3.38944
299.721	2.79744
301.516	1.77742
303.311	1.40742
305.106	0.275334
306.9	1.01659
308.694	0.942017
310.486	0.636226
312.279	-0.282948
314.072	-0.282752
315.864	-0.24694
317.656	0.465956
319.448	0.967852
321.24	1.27578
323.029	2.21287
324.819	2.74321
326.61	3.195
328.4	4.68786
330.19	4.30321
331.977	2.62574
333.766	2.59982
335.555	3.28653
337.343	3.20946
339.131	4.88549
340.917	5.0286
342.704	5.07484
344.491	4.88011
346.277	6.02523
348.062	6.16775
349.848	7.15732
351.633	7.20982
353.416	7.91507
355.201	9.67296
356.986	12.0578
358.77	14.6913
360.552	16.0702
362.335	16.5708
364.118	18.0723
365.899	19.9892
367.682	21.5734
369.464	23.8723
371.243	24.7321
373.025	25.2718
374.806	26.822
376.585	28.7247
378.365	31.5019
380.143	31.9032
381.923	33.718
383.702	35.5948
385.479	37.3212
387.258	38.6124
389.034	39.7154
390.812	40.0704
392.59	41.0279
394.365	41.4025
396.142	42.4089
397.916	41.7753
399.693	41.5702
401.467	41.9601
403.242	41.6693
405.015	41.5442
406.79	42.1885
408.565	41.3645
410.337	40.142
412.111	38.147
413.882	35.7932
415.656	33.8839
417.426	31.364
419.197	28.4349
420.969	26.619
422.739	25.3215
424.51	23.6748
426.279	22.8767
428.05	20.3344
429.819	18.1712
431.589	15.5333
433.356	15.1519
435.124	14.3823
436.893	13.2527
438.66	13.3154
440.428	10.8976
442.194	9.90351
443.96	10.0836
445.727	10.1206
447.492	9.10807
449.259	7.88318
451.023	7.13455
452.787	6.90181
454.553	6.24345
456.316	5.76324
458.079	6.01229
459.844	5.89918
461.606	7.21707
463.368	7.97774
465.132	9.6088
466.893	10.9118
468.654	9.81238
470.415	11.5667
472.177	12.8339
473.937	12.555
475.696	14.5806
477.456	17.0872
479.217	18.4262
480.975	20.5745
482.733	21.6067
484.491	24.068
486.251	26.4146
488.008	28.5072
489.765	28.8435
491.522	29.409
493.278	30.8309
495.036	31.0448
496.791	32.6519
498.546	32.7947
500.301	34.1879
502.056	34.1732
503.81	35.0397
505.566	35.2798
507.319	35.9196
509.073	37.0756
510.825	37.9193
512.578	38.1966
514.33	39.4486
516.082	37.9076
517.833	38.4556
519.587	39.2737
521.337	39.1924
523.088	38.5836
524.838	37.7989
526.588	38.4939
528.337	37.0488
530.087	37.7499
531.835	37.7485
533.584	36.5252
535.332	36.293
537.08	35.1531
538.827	34.0166
540.574	33.5343
542.321	32.2815
544.068	31.0336
545.814	29.2196
547.56	27.5859
549.305	25.8111
551.05	24.4709
552.795	24.9849
554.54	24.1218
556.284	22.3904
558.027	22.393
559.771	21.3861
561.514	20.0629
563.257	21.0647
564.999	20.2752
566.742	19.4065
568.481	19.1895
570.223	18.1642
571.964	18.3141
573.705	16.1357
575.445	14.6006
577.185	12.7379
578.925	12.9517
580.665	11.5694
582.402	11.0421
584.141	11.3932
585.879	9.23942
587.617	8.24959
589.355	6.65146
591.092	6.41565
592.828	7.09751
594.564	6.82156
596.301	6.67944
598.037	5.20723
599.773	4.54024
601.506	5.26162
603.242	4.78574
604.976	4.7402
606.711	5.04164
608.443	3.52384
610.177	4.07726
611.91	4.76468
613.644	6.80357
615.374	6.87738
617.107	8.16072
618.839	8.02657
620.569	8.1429
622.3	8.30828
624.032	8.13795
625.761	8.7761
627.491	10.0371
629.221	9.81115
630.949	9.95811
632.679	11.7346
634.408	13.8909
636.135	15.7591
637.863	16.6545
639.592	17.7551
641.318	17.9853
643.045	18.9217
644.77	20.6206
646.497	21.1952
648.224	21.5978
649.948	24.3672
651.674	25.2303
653.398	26.2794
655.123	26.7231
656.846	27.2374
658.57	29.0966
660.293	30.337
662.017	31.9367
663.738	32.6167
665.462	33.8239
667.185	35.0013
668.905	36.6136
670.628	38.364
672.348	39.4143
674.067	40.8571
675.789	41.5755
677.508	42.8327
679.228	44.1777
680.947	43.9714
682.667	44.3587
684.385	43.5272
686.104	44.9434
687.821	44.9073
689.538	43.9027
691.256	42.588
692.972	43.1332
694.69	43.1739
696.406	44.0799
698.121	43.9082
699.837	44.04
701.552	43.3986
703.268	42.586
704.982	42.6818
706.695	43.1114
708.41	43.7154
710.123	44.2999
711.836	44.2173
713.55	43.672
715.262	43.422
716.973	43.5139
718.685	42.7013
720.398	41.3721
722.108	39.9317
723.818	38.5772
725.53	39.3185
727.24	39.5024
728.949	40.0141
730.658	40.0876
732.369	40.5326
734.077	41.6142
735.785	43.4993
737.493	44.3714
739.2	44.3572
740.909	44.5719
742.616	45.9007
744.322	47.3869
746.028	47.7036
747.734	48.6094
749.441	50.9401
751.146	52.3241
752.851	53.2144
754.555	53.3279
756.26	54.2611
757.963	54.4715
759.667	55.7174
761.372	55.9963
763.075	56.6477
764.777	55.5563
766.479	54.949
768.181	54.3806
769.883	54.9039
771.584	56.9157
773.285	55.5212
774.986	56.3251
776.686	58.1941
778.386	60.3309
780.085	59.9135
781.785	60.6548
783.484	60.8896
785.182	62.5955
786.881	62.9336
788.579	64.1993
790.276	65.2183
791.974	65.6858
793.671	66.4904
795.367	66.251
797.064	65.6622
798.76	66.2865
800.456	67.0981
802.151	66.6587
803.846	66.7773
805.541	68.4469
807.236	68.9064
808.93	68.6496
810.624	69.9511
812.317	70.2743
814.01	70.9611
815.703	71.6453
817.394	73.3299
819.086	73.087
820.778	73.5596
822.47	72.8427
824.161	72.4656
825.852	73.1264
827.543	74.0623
829.231	74.9618
830.921	74.6418
832.611	74.5974
834.3	74.4187
835.989	73.7002
837.676	72.5529
839.364	71.6208
841.053	71.441
842.74	71.5604
844.426	71.6712
846.113	70.3731
847.8	67.5903
849.486	65.8192
851.171	66.5564
852.857	65.0176
854.542	64.8498
856.227	63.2656
857.911	60.985
859.595	60.8533
861.279	59.9626
862.961	58.905
864.645	58.4089
866.329	58.6996
868.01	57.6734
869.692	57.8046
871.375	55.6611
873.055	55.6106
874.737	53.333
876.418	52.5667
878.097	50.7046
879.778	50.3324
881.457	49.1364
883.137	49.0564
884.817	47.7864
886.495	46.6548
888.174	46.4089
889.851	43.3083
891.53	41.3103
893.206	40.0585
894.884	41.834
896.562	41.9259
898.237	41.6155
899.914	41.5158
901.589	41.7243
903.265	40.9732
904.94	41.2087
906.615	41.5937
908.289	43.2032
909.964	42.7922
911.637	42.5125
913.31	43.8208
914.984	44.3563
916.656	44.7128
918.33	44.4968
920.001	45.3642
921.674	43.9362
923.345	44.0454
925.015	45.1979
926.687	44.883
928.357	44.8424
930.028	44.668
931.698	44.3089
933.366	45.4815
935.037	46.3262
936.705	47.6075
938.373	50.0851
940.043	51.0077
941.71	50.8905
943.379	51.7376
945.046	51.6138
946.712	51.3404
948.378	51.0777
950.046	50.8578
951.711	50.3126
953.376	51.4692
955.043	49.955
956.708	49.249
958.372	47.9337
960.036	46.7701
961.701	46.2677
963.364	47.7301
965.027	46.0921
966.69	46.9379
968.354	47.3375
970.016	46.9954
971.678	46.8838
973.339	47.2805
975	49.0827
976.661	49.3467
978.324	50.9719
979.984	51.1591
981.644	50.8679
983.303	52.3635
984.962	53.5277
986.621	53.7575
988.282	53.3917
989.94	53.5603
991.598	53.089
993.256	51.2836
994.913	51.9577
996.57	52.5919
998.227	51.6729
999.884	51.6058
1001.54	52.0141
1003.2	53.1006
1004.85	53.1765
1006.51	54.6212
1008.16	56.2139
1009.82	57.0993
1011.47	58.7964
1013.12	60.1581
1014.78	59.9974
1016.43	61.0032
1018.08	63.3733
1019.74	65.321
1021.39	63.9114
1023.04	64.7122
1024.69	65.1262
1026.34	67.071
1028	68.1249
1029.65	71.1626
1031.3	72.0811
1032.95	73.5508
1034.6	73.4212
1036.25	73.2341
1037.9	72.4435
1039.55	72.3506
1041.19	73.004
1042.84	73.3209
1044.49	75.0099
1046.14	76.1778
1047.79	75.4284
1049.43	76.4107
1051.08	74.4162
1052.73	72.941
1054.37	72.2059
1056.02	71.1453
1057.66	68.9146
1059.31	66.5862
1060.95	65.7421
1062.6	63.4057
1064.24	61.3835
1065.88	58.5575
1067.53	54.8422
1069.17	51.5591
1070.81	49.9501
1072.46	48.135
1074.1	46.1682
1075.74	44.2539
1077.38	42.9034
1079.02	40.9512
1080.66	38.5015
1082.3	36.0975
1083.94	33.4125
1085.58	31.6799
1087.22	30.9143
1088.86	29.0839
1090.5	28.5766
1092.14	27.5685
1093.78	25.8617
1095.42	25.0391
1097.05	23.136
1098.69	24.429
1100.33	24.0423
1101.97	23.9822
1103.6	23.9306
1105.24	25.705
1106.87	25.4647
1108.51	25.6441
1110.15	25.5202
1111.78	26.4426
1113.41	25.9667
1115.05	27.1418
1116.68	26.6273
1118.31	25.9798
1119.95	27.533
1121.58	26.5625
1123.21	26.3158
1124.85	26.6846
1126.48	26.313
1128.11	26.3963
1129.74	25.9885
1131.37	26.0218
1133	24.6311
1134.63	25.3384
1136.26	25.4067
1137.89	25.4144
1139.52	24.8826
1141.15	25.0312
1142.78	26.0137
1144.41	26.4774
1146.04	25.6253
1147.66	24.6361
1149.29	25.8581
1150.92	25.8474
1152.55	26.1065
1154.17	23.9546
1155.8	22.6583
1157.43	21.4356
1159.05	19.264
1160.68	18.0861
1162.3	15.9435
1163.93	15.4342
1165.55	14.3347
1167.17	13.5037
1168.8	13.1532
1170.42	10.8652
1172.05	10.7248
1173.67	10.0497
1175.29	9.54672
1176.91	10.3589
1178.54	10.1352
1180.16	11.5408
1181.78	10.4368
1183.4	11.7882
1185.02	11.931
1186.64	12.5652
1188.26	12.8598
1189.88	12.6072
1191.5	14.1064
1193.12	15.0432
1194.74	14.4957
1196.36	15.0027
1197.97	15.3138
1199.59	16.499
1201.21	17.8627
1202.83	19.1575
1204.44	20.998
1206.06	22.236
1207.68	22.8722
1209.29	25.3955
1210.91	27.1411
1212.52	28.8497
1214.14	31.171
1215.75	33.565
1217.37	36.2369
1218.98	38.3089
1220.6	40.1441
1222.21	41.8968
1223.82	43.2589
1225.44	43.48
1227.05	44.2754
1228.66	46.9269
1230.27	48.5282
1231.88	48.2001
1233.49	49.7074
1235.1	50.3926
1236.72	53.3308
1238.33	54.1549
1239.94	54.5839
1241.55	58.2276
1243.16	58.8608
1244.76	61.7323
1246.37	61.7436
1247.98	63.9909
1249.59	65.7139
1251.2	66.852
1252.8	68.725
1254.41	69.562
1256.02	70.6995
1257.63	70.9589
1259.23	70.0768
1260.84	70.7906
1262.44	70.7657
1264.05	72.7305
1265.66	72.9483
1267.26	72.5502
1268.87	72.0731
1270.47	73.5739
1272.07	76.2264
1273.68	76.0612
1275.28	77.2277
1276.88	78.0244
1278.48	79.2541
1280.09	79.9162
1281.69	79.8836
1283.29	80.2753
1284.89	78.804
1286.49	78.923
1288.09	79.2761
1289.69	79.9885
1291.3	80.3378
1292.9	81.0419
1294.49	80.904
1296.09	80.8612
1297.69	80.6514
1299.29	79.8323
1300.89	79.37
1302.49	79.4074
1304.09	80.7322
1305.68	81.0627
1307.28	83.5665
1308.88	83.4282
1310.47	82.401
1312.07	83.4343
1313.66	85.5548
1315.26	87.5169
1316.86	89.8515
1318.45	89.49
1320.05	90.7363
1321.64	92.4687
1323.23	92.2266
1324.83	93.8249
1326.42	92.5132
1328.01	93.3664
1329.61	92.3446
1331.2	91.8366
1332.79	92.1743
1334.38	90.6999
1335.98	90.7836
1337.57	90.2574
1339.16	90.8289
1340.75	91.5389
1342.34	90.9558
1343.93	91.2595
1345.52	89.5296
1347.11	88.5906
1348.7	89.7247
1350.29	90.7515
1351.87	89.1649
1353.46	86.1953
1355.05	85.8106
1356.64	84.0878
1358.23	83.3896
1359.81	81.3716
1361.4	79.7179
1362.99	77.4861
1364.57	76.3971
1366.16	76.4615
1367.74	75.5712
1369.33	74.4384
1370.91	74.2556
1372.5	73.2477
1374.08	72.021
1375.67	71.4246
1377.25	70.9518
1378.83	70.0606
1380.42	70.4498
1382	70.3175
1383.58	69.5294
1385.16	67.9258
1386.75	67.771
1388.33	66.2693
1389.91	67.8134
1391.49	70.4477
1393.07	70.8839
1394.65	71.0867
1396.23	70.7909
1397.81	70.5176
1399.39	71.0819
1400.97	71.2154
1402.55	71.615
1404.13	71.3746
1405.7	70.8511
1407.28	72.416
1408.86	72.6543
1410.44	74.2434
1412.01	75.4921
1413.59	76.4209
1415.17	79.2332
1416.74	81.2303
1418.32	82.8633
1419.89	85.2387
1421.47	86.6966
1423.05	89.6018
1424.62	91.0744
1426.19	94.6781
1427.77	97.2498
1429.34	97.7583
1430.92	100.516
1432.49	102.751
1434.06	106.535
1435.63	109.707
1437.2	113.004
1438.78	115.92
1440.35	117.95
1441.92	119.042
1443.49	121.137
1445.06	122.323
1446.63	122.042
1448.2	122.34
1449.77	122.57
1451.34	120.506
1452.91	120.624
1454.48	118.707
1456.05	118.818
1457.62	116.865
1459.18	115.673
1460.75	113.411
1462.32	111.486
1463.89	109.686
1465.45	108.995
1467.02	106.403
1468.59	104.047
1470.15	99.8015
1471.72	96.4466
1473.28	92.8027
1474.85	88.9557
1476.41	85.4406
1477.98	82.0852
1479.54	78.9461
1481.11	75.2795
1482.67	71.8195
1484.23	69.3277
1485.8	67.5006
1487.36	64.5391
1488.92	62.4544
1490.48	59.8945
1492.05	57.0139
1493.61	52.7935
1495.17	51.2043
1496.73	49.9822
1498.29	49.6183
1499.85	47.6738
1501.41	46.3957
1502.97	45.4892
1504.53	44.7094
1506.09	44.417
1507.65	44.8672
1509.2	45.422
1510.76	45.2504
1512.32	45.6863
1513.88	46.0622
1515.44	45.3792
1516.99	44.8047
1518.55	44.1162
1520.1	44.1343
1521.66	45.1966
1523.22	44.6848
1524.77	43.6452
1526.33	43.8727
1527.88	43.61
1529.44	44.7779
1530.99	47.0969
1532.55	47.1944
1534.1	47.9221
1535.65	49.096
1537.21	50.2129
1538.76	51.6758
1540.31	52.6155
1541.86	53.3013
1543.42	53.6313
1544.97	54.5998
1546.52	56.1676
1548.07	56.8261
1549.62	57.8809
1551.17	58.578
1552.72	59.8427
1554.27	60.5148
1555.82	62.2706
1557.37	62.755
1558.92	61.6192
1560.47	62.6304
1562.02	63.0906
1563.57	63.4115
1565.11	64.1606
1566.66	64.9578
1568.21	64.588
1569.75	65.4616
1571.3	66.3242
1572.85	69.1412
1574.39	71.4265
1575.94	72.031
1577.49	72.3983
1579.03	74.4437
1580.58	76.333
1582.12	77.1927
1583.67	78.9235
1585.21	78.391
1586.75	79.9487
1588.3	81.789
1589.84	82.2417
1591.38	82.8639
1592.93	83.136
1594.47	83.4507
1596.01	84.7374
1597.55	84.4067
1599.09	83.4864
1600.63	82.0342
1602.18	81.8351
1603.72	82.1046
1605.26	82.3581
1606.8	82.3448
1608.34	81.2001
1609.87	80.5219
1611.41	80.2586
1612.95	81.0297
1614.49	79.8112
1616.03	79.9874
1617.57	79.2053
1619.11	79.6417
1620.64	80.3161
1622.18	81.6502
1623.72	80.3324
1625.25	79.2948
1626.79	78.5845
1628.32	79.0087
1629.86	77.2347
1631.4	77.6527
1632.93	76.9596
1634.47	77.0408
1636	76.9729
1637.53	77.3329
1639.07	77.5908
1640.6	78.5499
1642.14	79.8857
1643.67	80.7056
1645.2	80.187
1646.73	81.0782
1648.27	82.9072
1649.8	83.5701
1651.33	84.1383
1652.86	84.474
1654.39	86.1986
1655.92	87.2872
1657.45	87.5545
1658.98	88.352
1660.51	89.6811
1662.04	91.331
1663.57	92.742
1665.1	90.7197
1666.63	89.4957
1668.16	88.2634
1669.69	86.7621
1671.21	84.3654
1672.74	82.2717
1674.27	78.8083
1675.79	75.8966
1677.32	72.1902
1678.85	68.5468
1680.37	66.3369
1681.9	63.7428
1683.42	60.5978
1684.95	57.2445
1686.47	54.5591
1688	50.6919
1689.52	48.1035
1691.05	45.1301
1692.57	42.7627
1694.1	39.8594
1695.62	37.5187
1697.14	34.382
1698.66	30.207
1700.19	26.4926
1701.71	23.7367
1703.23	20.7324
1704.75	19.314
1706.27	17.5127
1707.79	17.7912
1709.32	14.9614
1710.83	13.5093
1712.35	10.4048
1713.88	8.04863
1715.39	7.539
1716.91	7.47878
1718.43	6.92345
1719.95	5.94678
1721.47	4.02852
1722.99	4.56432
1724.5	5.10077
1726.02	4.10962
1727.54	5.76596
1729.06	6.87541
1730.57	8.29119
1732.09	9.02679
1733.61	10.4715
1735.12	11.3927
1736.64	12.514
1738.15	12.0028
1739.67	9.87261
1741.18	8.6532
1742.7	8.71331
1744.21	8.46869
1745.72	8.27729
1747.24	7.51953
1748.75	7.42042
1750.26	6.15783
1751.78	5.27806
1753.29	4.71344
1754.8	4.7465
1756.31	5.82306
1757.82	5.3385
1759.34	4.74377
1760.85	4.79173
1762.36	4.81881
1763.87	4.48947
1765.38	5.08694
1766.89	4.18883
1768.4	4.49244
1769.91	3.36585
1771.41	1.90167
1772.92	1.50865
1774.43	1.03944
1775.94	1.05041
1777.45	1.71808
1778.96	1.85103
1780.46	2.40633
1781.97	1.93176
1783.48	2.13233
1784.98	0.479375
1786.49	0.664851
1788	0.471574
1789.5	1.26125
1791.01	1.25969
1792.51	1.77329
1794.01	1.36386
1795.52	1.60095
1797.02	1.30317
1798.53	2.36148
1800.03	3.0059
1801.54	4.09646
1803.04	5.4229
1804.54	5.77677
1806.04	7.0631
1807.54	6.84138
1809.05	6.56121
1810.55	7.15474
1812.05	7.56425
1813.55	7.1194
1815.05	7.26152
1816.55	8.14227
1818.05	9.10026
1819.55	9.08182
1821.05	8.91127
1822.55	7.5996
1824.05	7.2663
1825.55	7.41351
1827.05	8.42358
1828.55	8.89883
1830.04	9.40801
1831.54	9.61799
1833.04	9.78158
1834.54	8.95062
1836.03	8.28756
1837.53	7.2309
1839.03	6.98936
1840.52	6.68693
1842.02	5.75364
1843.51	5.43359
1845.01	4.93653
1846.5	5.13893
1848	5.71551
1849.49	5.84236
1850.99	5.25169
1852.48	5.81132
1853.97	4.76315
1855.47	5.24782
1856.96	4.67225
1858.45	4.55238
1859.94	5.02333
1861.44	5.46251
1862.93	5.61312
1864.42	5.52101
1865.91	5.95136
1867.4	6.15939
1868.89	5.18383
1870.38	5.91511
1871.87	5.50393
1873.36	6.28904
1874.85	7.55474
1876.34	8.54133
1877.83	8.849
1879.32	8.86689
1880.81	9.14221
1882.3	9.04537
1882.56	8.95694
1884.06	9.23542
1885.55	8.92994
1887.04	9.25511
1888.54	7.62918
1890.03	8.36086
1891.52	8.27125
1893.02	7.81408
1894.51	7.9857
1896	7.69987
1897.49	8.38546
1898.99	9.3311
1900.48	8.85271
1901.97	8.53413
1903.46	7.25878
1904.95	6.36643
1906.44	6.13561
1907.93	4.95018
1909.42	3.67944
1910.91	4.1102
1912.4	4.65161
1913.89	3.38896
1915.38	3.56883
1916.86	4.01295
1918.35	4.84504
1919.84	5.31346
1921.33	4.56872
1922.82	4.28337
1924.3	4.44829
1925.79	4.15075
1927.28	4.6936
1928.76	5.70372
1930.25	4.88718
1931.74	6.14649
1933.22	6.34024
1934.71	6.30108
1936.19	6.39863
1937.67	5.54148
1939.16	5.73504
1940.64	5.91051
1942.13	6.19974
1943.61	6.74715
1945.09	6.53007
1946.58	7.97915
1948.06	8.92941
1949.54	8.53321
1951.03	7.58954
1952.51	6.8513
1953.99	6.58932
1955.47	6.42865
1956.95	4.90888
1958.43	5.09118
1959.91	5.45117
1961.39	5.74427
1962.87	4.86091
1964.35	6.40893
1965.83	5.75854
1967.31	6.56248
1968.79	7.06309
1970.27	7.01627
1971.75	7.65709
1973.22	8.26986
1974.7	8.52492
1976.18	7.87566
1977.66	6.60827
1979.13	6.44023
1980.61	7.1997
1982.09	6.97546
1983.56	7.71147
1985.04	8.98037
1986.52	8.9037
1987.99	8.7849
1989.47	9.58469
1990.94	10.5015
1992.41	10.2852
1993.89	9.67899
1995.36	9.31339
1996.84	9.77872
1998.31	10.963
1999.78	12.1287
2001.26	13.5214
2002.73	13.0766
2004.2	13.6887
2005.67	14.1012
2007.15	13.444
2008.62	14.4762
2010.09	13.835
2011.56	14.6164
2013.03	15.6282
2014.5	16.2367
2015.97	16.1506
2017.44	16.2723
2018.91	17.7277
2020.38	17.0449
2021.85	16.7446
2023.32	15.187
2024.79	15.6742
2026.25	16.3919
2027.72	17.5805
2029.19	16.6824
2030.66	16.123
2032.13	18.3419
2033.59	17.9381
2035.06	17.8082
2036.53	17.2655
2037.99	17.8435
2039.46	19.0093
2040.92	20.0628
2042.39	20.2237
2043.85	19.5595
2045.32	18.6898
2046.78	19.0511
2048.25	18.6199
2049.71	17.0436
2051.18	17.5785
2052.64	17.6162
2054.1	16.9577
2055.56	15.8522
2057.03	15.9349
2058.49	15.9389
2059.95	15.8838
2061.42	15.4697
2062.88	15.7793
2064.34	16.4167
2065.8	15.4337
2067.26	16.412
2068.72	16.187
2070.18	16.1075
2071.64	15.7178
2073.1	15.5697
2074.56	14.8751
2076.02	15.9212
2077.48	15.6805
2078.94	15.0351
2080.39	15.4357
2081.85	15.6102
2083.31	15.3586
2084.77	17.0578
2086.22	16.7074
2087.68	16.3438
2089.14	16.2693
2090.6	15.9511
2092.05	16.3281
2093.51	14.2812
2094.96	15.8681
2096.42	15.7833
2097.87	16.583
2099.33	16.77
2100.78	16.162
2102.24	15.9776
2103.69	16.5847
2105.15	18.3175
2106.6	18.1826
2108.05	18.6014
2109.51	18.7634
2110.96	18.9278
2112.41	18.5025
2113.86	18.0208
2115.32	18.1995
2116.77	18.1556
2118.22	17.9407
2119.67	19.7065
2121.12	20.3111
2122.57	21.1576
2124.02	20.7978
2125.47	20.9499
2126.92	20.4141
2128.37	22.903
2129.82	24.0817
2131.27	24.6925
2132.72	24.6213
2134.17	25.3736
2135.62	25.3475
