#Acq. time (s)=	45
#Accumulations=	2
#Range (cm-¹)=	200...3150
#Windows=	2
#Auto scanning=	Off
#Autofocus=	Off
#Macrospot=	Off
#AutoExposure=	Off
#Spike filter=	Multiple accum.
#Delay time (s)=	0
#Binning=	1
#Readout mode=	Signal
#DeNoise=	Off
#ICS correction=	On
#Dark correction=	Off
#Inst. Process=	Off
#Detector Gain=	Best Dynamic Range
#Detector ADC=	20 kHz       
#Detector temperature (°C)=	-70.08
#Instrument=	LabRAM HR Evol
#Detector=	Synapse
#Objective=	x100
#Grating=	600 gr/mm
#ND Filter=	100%
#Laser (nm)=	532 
#Hole=	100.021
#Range=	Auto
#Laser Pol.=	No
#Raman. Pol.=	No
#Laser Pol. (°)=	-0.0007625
#Raman Pol. (°)=	89.9995
#Collection=	Microscope
#StageXY=	Marzhauser
#StageZ=	Marzhauser
#X (µm)=	-2405.6
#Y (µm)=	2130
#Z (µm)=	-40.8
#Full time(mm:ss)=	3:19
#Project=	
#Sample=	
#Site=	
#Title=	Mb_10_14_08_2x_45s_532 nm_x100_100%_600 gr_mm
#Remark=	
#Date=	07.07.2022 13:59
#Acquired=	07.07.2022 13:59:03
#Base:Fit=	10.08.2022 10:21:11
#Base:Sub=	10.08.2022 10:21:41
#Filter:Polynom=	16.08.2022 10:17:53
#AxisType[0]=Intens
#AxisUnit[0]=Cnt
#AxisType[1]=Spectr
#AxisUnit[1]=1/cm
200.43	7.41805
202.246	8.04285
204.061	5.28662
205.875	3.06765
207.688	1.49504
209.501	0.488577
211.316	-0.803054
213.129	-0.64263
214.941	-0.405169
216.753	0.386833
218.566	1.224
220.377	2.78263
222.188	4.43582
223.999	4.9894
225.809	5.22764
227.618	7.1
229.43	9.54209
231.239	10.8865
233.047	12.5778
234.855	13.6555
236.663	14.3891
238.471	16.0616
240.278	16.6243
242.087	18.0888
243.894	19.5246
245.7	21.5081
247.506	23.2885
249.311	25.2183
251.116	26.7272
252.921	27.9096
254.725	28.7831
256.529	29.5803
258.333	30.5563
260.136	31.0942
261.939	31.4508
263.744	33.2758
265.546	33.0977
267.348	34.1495
269.15	33.6966
270.951	33.5481
272.752	33.4464
274.552	33.7985
276.353	32.1373
278.152	31.7131
279.952	31.6735
281.751	30.0755
283.55	28.566
285.348	27.5081
287.146	24.6253
288.942	23.9225
290.739	23.7935
292.536	22.6181
294.333	23.3982
296.129	23.0784
297.925	21.8703
299.721	21.3698
301.516	21.29
303.311	22.4151
305.106	21.733
306.9	21.3391
308.694	20.27
310.486	20.826
312.279	20.6111
314.072	20.5214
315.864	20.5254
317.656	22.3208
319.448	22.0932
321.24	21.6424
323.029	21.4708
324.819	21.3851
326.61	21.8763
328.4	22.8432
330.19	22.5016
331.977	23.4857
333.766	23.1213
335.555	23.6552
337.343	24.2088
339.131	23.5053
340.917	23.0225
342.704	22.9406
344.491	23.1729
346.277	23.6119
348.062	25.7482
349.848	25.7821
351.633	27.968
353.416	29.9728
355.201	30.6286
356.986	30.513
358.77	31.5169
360.552	32.8605
362.335	33.5674
364.118	33.6435
365.899	34.0677
367.682	37.0467
369.464	38.1281
371.243	40.4828
373.025	42.676
374.806	43.7261
376.585	43.8244
378.365	45.7934
380.143	48.1428
381.923	49.1957
383.702	49.5155
385.479	51.3719
387.258	52.5426
389.034	55.7786
390.812	57.622
392.59	58.5893
394.365	61.6474
396.142	62.9545
397.916	65.0188
399.693	65.976
401.467	66.6538
403.242	66.0622
405.015	65.4184
406.79	65.4874
408.565	63.7285
410.337	62.8751
412.111	61.897
413.882	60.3216
415.656	58.8969
417.426	57.4041
419.197	55.1315
420.969	53.2299
422.739	51.1725
424.51	49.7619
426.279	47.3377
428.05	43.6585
429.819	42.4123
431.589	40.9009
433.356	39.9709
435.124	37.5614
436.893	36.1036
438.66	33.5429
440.428	33.3346
442.194	30.9127
443.96	28.8541
445.727	26.1461
447.492	26.0343
449.259	24.3644
451.023	22.7183
452.787	22.1876
454.553	21.895
456.316	20.4355
458.079	17.7881
459.844	17.5589
461.606	16.1649
463.368	15.7688
465.132	15.7759
466.893	16.9884
468.654	17.5536
470.415	17.9316
472.177	19.5696
473.937	22.2505
475.696	23.6066
477.456	26.9579
479.217	27.8325
480.975	28.9768
482.733	31.3715
484.491	30.4192
486.251	32.2393
488.008	32.4785
489.765	33.7156
491.522	34.6199
493.278	36.5101
495.036	37.3141
496.791	38.8597
498.546	41.0374
500.301	42.7061
502.056	43.4251
503.81	44.7013
505.566	45.4211
507.319	45.3377
509.073	46.2946
510.825	46.1602
512.578	45.8381
514.33	45.1239
516.082	45.3397
517.833	46.2468
519.587	46.0625
521.337	44.9154
523.088	43.4903
524.838	43.5738
526.588	42.834
528.337	41.2104
530.087	38.8187
531.835	36.7366
533.584	36.0165
535.332	35.8586
537.08	33.8829
538.827	32.6102
540.574	30.7652
542.321	28.12
544.068	26.3901
545.814	25.4366
547.56	24.3165
549.305	24.1346
551.05	23.3411
552.795	21.8612
554.54	20.8044
556.284	19.8286
558.027	19.1998
559.771	18.4222
561.514	16.1359
563.257	15.1192
564.999	14.9151
566.742	12.5293
568.481	11.4052
570.223	11.3133
571.964	9.48473
573.705	9.71227
575.445	8.55085
577.185	8.46584
578.925	8.2617
580.665	7.89791
582.402	7.0329
584.141	7.52055
585.879	7.16852
587.617	6.14976
589.355	4.74612
591.092	4.38121
592.828	4.70587
594.564	3.9918
596.301	4.09698
598.037	3.14248
599.773	3.34792
601.506	2.91861
603.242	3.80688
604.976	3.62759
606.711	2.75477
608.443	2.25694
610.177	2.31546
611.91	2.12109
613.644	1.96214
615.374	2.22807
617.107	2.99222
618.839	3.16806
620.569	4.13348
622.3	4.17252
624.032	4.09285
625.761	3.61727
627.491	2.70342
629.221	3.0512
630.949	4.89326
632.679	6.26297
634.408	6.5063
636.135	6.21121
637.863	5.7956
639.592	5.8451
641.318	6.03566
643.045	5.49022
644.77	5.96643
646.497	6.35081
648.224	6.85425
649.948	8.12754
651.674	8.04266
653.398	8.20471
655.123	8.62611
656.846	9.00917
658.57	8.77837
660.293	9.76276
662.017	10.0215
663.738	10.6338
665.462	11.0623
667.185	11.0993
668.905	11.8984
670.628	12.3936
672.348	11.9217
674.067	11.9502
675.789	12.4771
677.508	13.7945
679.228	13.3706
680.947	13.0884
682.667	13.4836
684.385	12.8948
686.104	13.2603
687.821	12.2086
689.538	13.3742
691.256	13.6649
692.972	14.2372
694.69	14.7493
696.406	13.9743
698.121	13.9828
699.837	14.8691
701.552	14.8515
703.268	14.632
704.982	13.9725
706.695	14.1064
708.41	13.861
710.123	13.8251
711.836	13.8206
713.55	14.5983
715.262	15.2948
716.973	16.6778
718.685	16.8593
720.398	15.7363
722.108	16.3345
723.818	18.0534
725.53	18.2724
727.24	18.4017
728.949	18.5007
730.658	19.1358
732.369	18.1732
734.077	18.7847
735.785	19.211
737.493	18.692
739.2	21.1444
740.909	21.3074
742.616	22.292
744.322	22.8344
746.028	23.4686
747.734	25.3865
749.441	27.5408
751.146	28.4391
752.851	28.4166
754.555	29.8345
756.26	30.1584
757.963	31.0965
759.667	33.4297
761.372	34.0165
763.075	34.0692
764.777	34.4841
766.479	35.9801
768.181	34.995
769.883	35.569
771.584	36.9389
773.285	37.9794
774.986	40.4972
776.686	40.2579
778.386	41.1309
780.085	41.1241
781.785	40.8789
783.484	41.9982
785.182	42.3904
786.881	42.0954
788.579	43.452
790.276	43.9127
791.974	45.0498
793.671	45.2112
795.367	46.6763
797.064	47.3205
798.76	48.2861
800.456	48.5409
802.151	48.7878
803.846	49.0178
805.541	48.87
807.236	49.4124
808.93	48.2541
810.624	48.7469
812.317	49.4558
814.01	49.492
815.703	49.9771
817.394	50.1268
819.086	50.4526
820.778	50.2483
822.47	49.7652
824.161	50.2168
825.852	48.3655
827.543	48.4716
829.231	47.9916
830.921	47.6703
832.611	48.645
834.3	47.8778
835.989	45.7322
837.676	45.0588
839.364	43.631
841.053	43.0112
842.74	42.1117
844.426	40.8684
846.113	38.4418
847.8	36.4616
849.486	35.9016
851.171	34.0154
852.857	32.6337
854.542	33.5339
856.227	32.5145
857.911	30.8182
859.595	28.4425
861.279	26.4021
862.961	26.1976
864.645	23.9906
866.329	22.0131
868.01	21.9664
869.692	20.7792
871.375	19.8094
873.055	19.8725
874.737	18.2776
876.418	18.3051
878.097	17.1167
879.778	17.0285
881.457	17.2751
883.137	17.1513
884.817	17.0768
886.495	17.1451
888.174	18.4649
889.851	18.0938
891.53	19.2813
893.206	18.8943
894.884	20.3603
896.562	19.5139
898.237	18.5465
899.914	17.9903
901.589	17.09
903.265	17.5002
904.94	17.8464
906.615	17.5991
908.289	17.5198
909.964	17.5374
911.637	18.3728
913.31	18.2508
914.984	18.3834
916.656	19.0676
918.33	18.207
920.001	18.263
921.674	19.5772
923.345	18.924
925.015	19.3108
926.687	19.4687
928.357	18.5008
930.028	17.9295
931.698	17.6358
933.366	17.1623
935.037	17.0664
936.705	16.5411
938.373	15.7693
940.043	14.8087
941.71	13.7566
943.379	13.1846
945.046	12.4164
946.712	10.9462
948.378	7.90898
950.046	8.67875
951.711	9.08419
953.376	7.87154
955.043	6.70888
956.708	5.20087
958.372	3.84138
960.036	3.72983
961.701	3.06039
963.364	4.4638
965.027	5.48658
966.69	6.55593
968.354	7.94344
970.016	8.76234
971.678	9.99308
973.339	10.8251
975	11.6845
976.661	10.7823
978.324	11.6824
979.984	12.1185
981.644	13.6378
983.303	14.544
984.962	14.6801
986.621	15.3203
988.282	15.2965
989.94	14.5972
991.598	14.6148
993.256	14.5893
994.913	14.2969
996.57	15.221
998.227	15.8959
999.884	15.561
1001.54	15.9582
1003.2	16.7944
1004.85	16.6005
1006.51	14.8947
1008.16	15.0178
1009.82	15.8702
1011.47	16.9062
1013.12	17.9798
1014.78	19.4397
1016.43	19.6651
1018.08	21.7193
1019.74	22.7991
1021.39	25.1152
1023.04	26.5993
1024.69	27.1798
1026.34	27.6174
1028	27.9307
1029.65	28.7682
1031.3	28.5767
1032.95	31.005
1034.6	29.7338
1036.25	29.6409
1037.9	28.6539
1039.55	29.2075
1041.19	30.9486
1042.84	33.1662
1044.49	34.4446
1046.14	35.6322
1047.79	36.6225
1049.43	37.3292
1051.08	36.9177
1052.73	36.2743
1054.37	34.3442
1056.02	33.3084
1057.66	31.9003
1059.31	31.0691
1060.95	31.352
1062.6	30.4199
1064.24	29.2855
1065.88	27.4608
1067.53	25.2647
1069.17	22.9592
1070.81	21.0725
1072.46	19.1613
1074.1	19.2744
1075.74	18.0083
1077.38	16.4519
1079.02	15.4514
1080.66	14.0252
1082.3	13.1825
1083.94	13.8482
1085.58	11.7321
1087.22	10.721
1088.86	9.95918
1090.5	11.4983
1092.14	12.1844
1093.78	12.7988
1095.42	12.8187
1097.05	13.3194
1098.69	12.8039
1100.33	13.8264
1101.97	14.5495
1103.6	13.6431
1105.24	12.7078
1106.87	12.6644
1108.51	11.1985
1110.15	9.98524
1111.78	9.84029
1113.41	8.36356
1115.05	8.63711
1116.68	7.86133
1118.31	8.08671
1119.95	6.97851
1121.58	7.48407
1123.21	7.68707
1124.85	7.95914
1126.48	7.01478
1128.11	7.42576
1129.74	7.23921
1131.37	5.83854
1133	5.38363
1134.63	4.67782
1136.26	4.73761
1137.89	5.64871
1139.52	5.8776
1141.15	6.50806
1142.78	7.72831
1144.41	5.74047
1146.04	5.74066
1147.66	4.72475
1149.29	4.97873
1150.92	4.74665
1152.55	6.3445
1154.17	6.32641
1155.8	6.22582
1157.43	5.49099
1159.05	4.81389
1160.68	5.05415
1162.3	5.11842
1163.93	4.71487
1165.55	3.95665
1167.17	2.73249
1168.8	3.5633
1170.42	3.97502
1172.05	4.52421
1173.67	4.53227
1175.29	3.78345
1176.91	3.01553
1178.54	1.77933
1180.16	1.14766
1181.78	1.50346
1183.4	0.923773
1185.02	0.859315
1186.64	2.23492
1188.26	2.2633
1189.88	0.690203
1191.5	1.82728
1193.12	2.81179
1194.74	3.10257
1196.36	3.97745
1197.97	5.6396
1199.59	7.59099
1201.21	10.4776
1202.83	13.0693
1204.44	15.5457
1206.06	16.942
1207.68	18.9674
1209.29	20.8823
1210.91	22.7709
1212.52	24.7618
1214.14	27.5797
1215.75	29.8171
1217.37	32.7281
1218.98	35.5658
1220.6	37.306
1222.21	40.3997
1223.82	42.5631
1225.44	43.621
1227.05	46.984
1228.66	50.2931
1230.27	52.8107
1231.88	53.533
1233.49	54.7288
1235.1	55.3319
1236.72	56.8493
1238.33	58.0415
1239.94	58.9778
1241.55	61.009
1243.16	62.3578
1244.76	63.1968
1246.37	64.1695
1247.98	64.3323
1249.59	63.9618
1251.2	63.977
1252.8	64.5834
1254.41	64.8544
1256.02	63.6379
1257.63	63.743
1259.23	64.3565
1260.84	65.0141
1262.44	65.4121
1264.05	65.166
1265.66	65.594
1267.26	65.808
1268.87	65.2123
1270.47	65.2932
1272.07	67.101
1273.68	68.2601
1275.28	69.4721
1276.88	71.1813
1278.48	72.3083
1280.09	74.5631
1281.69	75.2036
1283.29	75.6266
1284.89	76.7998
1286.49	78.8956
1288.09	81.4606
1289.69	82.9193
1291.3	85.0205
1292.9	87.2438
1294.49	88.6185
1296.09	90.2284
1297.69	92.48
1299.29	95.0216
1300.89	96.4726
1302.49	99.6795
1304.09	100.983
1305.68	102.522
1307.28	104.083
1308.88	106.254
1310.47	107.452
1312.07	108.715
1313.66	110.05
1315.26	110.998
1316.86	112.618
1318.45	113.967
1320.05	115.177
1321.64	114.479
1323.23	114.206
1324.83	113.652
1326.42	113.847
1328.01	113.037
1329.61	111.915
1331.2	111.033
1332.79	111.099
1334.38	108.706
1335.98	106.836
1337.57	106.435
1339.16	105.609
1340.75	103.893
1342.34	102.353
1343.93	100.153
1345.52	98.5097
1347.11	96.0125
1348.7	94.9507
1350.29	93.5655
1351.87	92.3853
1353.46	90.5052
1355.05	88.2228
1356.64	85.7861
1358.23	82.6282
1359.81	82.0854
1361.4	79.9583
1362.99	79.4935
1364.57	77.3551
1366.16	76.1362
1367.74	73.6226
1369.33	71.7754
1370.91	69.3576
1372.5	67.6061
1374.08	65.821
1375.67	64.9096
1377.25	64.085
1378.83	62.5289
1380.42	61.1887
1382	59.7621
1383.58	58.808
1385.16	57.9351
1386.75	58.1493
1388.33	57.6459
1389.91	56.4402
1391.49	55.4885
1393.07	55.424
1394.65	54.7087
1396.23	55.3495
1397.81	54.6386
1399.39	54.0737
1400.97	53.1153
1402.55	54.1494
1404.13	54.3443
1405.7	54.8162
1407.28	54.6059
1408.86	55.5165
1410.44	58.2059
1412.01	60.8576
1413.59	62.6663
1415.17	64.7888
1416.74	68.5395
1418.32	72.0496
1419.89	75.3594
1421.47	79.1718
1423.05	83.0611
1424.62	87.6614
1426.19	91.7228
1427.77	97.4733
1429.34	100.978
1430.92	104.66
1432.49	107.79
1434.06	111.754
1435.63	116.196
1437.2	120.512
1438.78	124.999
1440.35	127.171
1441.92	129.525
1443.49	132.232
1445.06	133.925
1446.63	135.228
1448.2	136.252
1449.77	136.587
1451.34	137.154
1452.91	137.169
1454.48	136.003
1456.05	135.315
1457.62	133.703
1459.18	133.009
1460.75	131.486
1462.32	132.314
1463.89	131.419
1465.45	130.785
1467.02	128.431
1468.59	125.866
1470.15	124.365
1471.72	122.654
1473.28	120.532
1474.85	117.988
1476.41	114.731
1477.98	112.748
1479.54	110.293
1481.11	108.36
1482.67	105.291
1484.23	101.93
1485.8	99.1332
1487.36	96.8933
1488.92	93.4978
1490.48	90.2517
1492.05	87.9
1493.61	85.4744
1495.17	84.6404
1496.73	82.5026
1498.29	80.6754
1499.85	79.6278
1501.41	77.7082
1502.97	75.4327
1504.53	73.1127
1506.09	70.931
1507.65	68.236
1509.2	66.0609
1510.76	63.5047
1512.32	61.5075
1513.88	59.3179
1515.44	55.658
1516.99	53.0038
1518.55	50.8661
1520.1	50.1124
1521.66	47.7893
1523.22	45.9425
1524.77	43.6214
1526.33	42.3233
1527.88	40.5587
1529.44	39.8392
1530.99	39.8003
1532.55	40.3887
1534.1	39.9111
1535.65	39.7015
1537.21	39.7427
1538.76	40.1468
1540.31	41.0988
1541.86	41.6411
1543.42	42.535
1544.97	42.9276
1546.52	44.5482
1548.07	46.3082
1549.62	48.1963
1551.17	49.8709
1552.72	49.9954
1554.27	51.4716
1555.82	53.1221
1557.37	53.5761
1558.92	53.9579
1560.47	54.3271
1562.02	53.9784
1563.57	54.8207
1565.11	55.3456
1566.66	55.7313
1568.21	57.4627
1569.75	59.4244
1571.3	61.3414
1572.85	63.0062
1574.39	64.9343
1575.94	66.9959
1577.49	68.1058
1579.03	68.1247
1580.58	69.2477
1582.12	71.1696
1583.67	72.4217
1585.21	73.883
1586.75	75.6774
1588.3	76.6899
1589.84	77.9603
1591.38	79.7551
1592.93	80.2794
1594.47	82.0371
1596.01	82.9791
1597.55	82.9232
1599.09	82.998
1600.63	84.0138
1602.18	82.7612
1603.72	83.7237
1605.26	83.0467
1606.8	83.0641
1608.34	81.6064
1609.87	80.0986
1611.41	77.9247
1612.95	77.9364
1614.49	76.9005
1616.03	76.9091
1617.57	77.6792
1619.11	78.4459
1620.64	78.4643
1622.18	78.0856
1623.72	78.561
1625.25	79.0356
1626.79	80.207
1628.32	80.8099
1629.86	80.3081
1631.4	81.8805
1632.93	82.6089
1634.47	82.6698
1636	83.6619
1637.53	83.949
1639.07	83.6361
1640.6	85.4701
1642.14	87.688
1643.67	89.1757
1645.2	91.4831
1646.73	93.5201
1648.27	94.1082
1649.8	95.282
1651.33	96.6527
1652.86	97.4872
1654.39	98.4011
1655.92	98.5487
1657.45	99.5469
1658.98	100.188
1660.51	99.6281
1662.04	99.8289
1663.57	99.7397
1665.1	98.2552
1666.63	96.2837
1668.16	94.2891
1669.69	92.7671
1671.21	90.8105
1672.74	88.7759
1674.27	86.0571
1675.79	84.1303
1677.32	80.4924
1678.85	77.4972
1680.37	75.387
1681.9	71.883
1683.42	68.3445
1684.95	65.3459
1686.47	62.4588
1688	58.8351
1689.52	56.1469
1691.05	52.2813
1692.57	49.8557
1694.1	47.0145
1695.62	43.4679
1697.14	41.0073
1698.66	39.1092
1700.19	37.2222
1701.71	35.9853
1703.23	33.6058
1704.75	31.3177
1706.27	28.7445
1707.79	27.0705
1709.32	24.3807
1710.83	22.6489
1712.35	20.8637
1713.88	18.3467
1715.39	17.9234
1716.91	17.2022
1718.43	16.8264
1719.95	15.8253
1721.47	14.9922
1722.99	14.1971
1724.5	12.8257
1726.02	12.9304
1727.54	11.9244
1729.06	11.0225
1730.57	10.6251
1732.09	9.89174
1733.61	10.0825
1735.12	9.46023
1736.64	8.89895
1738.15	8.83782
1739.67	8.30225
1741.18	7.71994
1742.7	7.16176
1744.21	7.0036
1745.72	6.96323
1747.24	6.29532
1748.75	6.86121
1750.26	5.96896
1751.78	6.02757
1753.29	5.79801
1754.8	6.80246
1756.31	6.40196
1757.82	4.82608
1759.34	3.92092
1760.85	3.58665
1762.36	2.37813
1763.87	1.97804
1765.38	2.01217
1766.89	2.35158
1768.4	2.46108
1769.91	2.66155
1771.41	2.84967
1772.92	3.46545
1774.43	3.69282
1775.94	3.12435
1777.45	3.12312
1778.96	1.97099
1780.46	2.0023
1781.97	2.24688
1783.48	2.54706
1784.98	2.73379
1786.49	3.09096
1788	3.18004
1789.5	3.78481
1791.01	4.91183
1792.51	4.65588
1794.01	5.52255
1795.52	5.01657
1797.02	4.75767
1798.53	4.70998
1800.03	4.25267
1801.54	4.71105
1803.04	4.01993
1804.54	3.42366
1806.04	3.77076
1807.54	3.51482
1809.05	2.88652
1810.55	1.85808
1812.05	1.66491
1813.55	1.23586
1815.05	1.1641
1816.55	0.90627
1818.05	0.904923
1819.55	0.805191
1821.05	1.49547
1822.55	1.85692
1824.05	1.93501
1825.55	1.35227
1827.05	1.56073
1828.55	2.2974
1830.04	2.23482
1831.54	1.19009
1833.04	0.97438
1834.54	0.916979
1836.03	1.42585
1837.53	1.84146
1839.03	3.43193
1840.52	4.32965
1842.02	5.13023
1843.51	5.18809
1845.01	5.73837
1846.5	5.49671
1848	6.11564
1849.49	6.56265
1850.99	6.35272
1852.48	5.80419
1853.97	5.61212
1855.47	6.0128
1856.96	6.40984
1858.45	5.7893
1859.94	6.62116
1861.44	6.02142
1862.93	6.28889
1864.42	6.41551
1865.91	6.95654
1867.4	6.83176
1868.89	6.98023
1870.38	6.16976
1871.87	5.48065
1873.36	5.31044
1874.85	5.0232
1876.34	4.7493
1877.83	4.44338
1879.32	4.6262
1880.81	5.7228
1882.3	4.61942
1882.56	4.4506
1884.06	4.58804
1885.55	5.11091
1887.04	4.82983
1888.54	5.12039
1890.03	4.98262
1891.52	4.98592
1893.02	4.95209
1894.51	5.19614
1896	4.26805
1897.49	3.99034
1898.99	5.09338
1900.48	6.17204
1901.97	6.95108
1903.46	6.74174
1904.95	6.60557
1906.44	7.03701
1907.93	7.62311
1909.42	7.48814
1910.91	8.49744
1912.4	9.64046
1913.89	10.169
1915.38	9.88156
1916.86	9.97171
1918.35	10.4798
1919.84	10.6456
1921.33	10.7371
1922.82	10.6594
1924.3	9.9139
1925.79	10.3414
1927.28	11.0928
1928.76	10.6304
1930.25	10.9247
1931.74	10.3949
1933.22	10.6193
1934.71	9.46053
1936.19	10.4201
1937.67	10.287
1939.16	10.3603
1940.64	8.97721
1942.13	9.36701
1943.61	8.73618
1945.09	8.64616
1946.58	8.83117
1948.06	7.96124
1949.54	8.24076
1951.03	7.64918
1952.51	6.75441
1953.99	7.26095
1955.47	6.32732
1956.95	6.17882
1958.43	4.45008
1959.91	3.91758
1961.39	3.34731
1962.87	3.42575
1964.35	2.59563
1965.83	2.51398
1967.31	3.16531
1968.79	2.89457
1970.27	3.36355
1971.75	3.9369
1973.22	4.69199
1974.7	4.53536
1976.18	3.92499
1977.66	3.74982
1979.13	4.4598
1980.61	5.08714
1982.09	5.07867
1983.56	5.38886
1985.04	7.73067
1986.52	8.19189
1987.99	8.08271
1989.47	8.54616
1990.94	9.71667
1992.41	10.6497
1993.89	10.8435
1995.36	11.411
1996.84	11.5944
1998.31	11.295
1999.78	11.7387
2001.26	10.6114
2002.73	10.0451
2004.2	10.5985
2005.67	10.0847
2007.15	9.3984
2008.62	9.38218
2010.09	9.64136
2011.56	8.84631
2013.03	8.49377
2014.5	7.87565
2015.97	8.43059
2017.44	7.57514
2018.91	7.43942
2020.38	6.85494
2021.85	7.07018
2023.32	7.53725
2024.79	7.40909
2026.25	8.25366
2027.72	8.31209
2029.19	7.38056
2030.66	6.86511
2032.13	6.14064
2033.59	6.87143
2035.06	7.07799
2036.53	6.74549
2037.99	6.66712
2039.46	7.18531
2040.92	7.75408
2042.39	7.77423
2043.85	7.77036
2045.32	7.92897
2046.78	8.01964
2048.25	8.31724
2049.71	8.42016
2051.18	8.32056
2052.64	8.65043
2054.1	8.8776
2055.56	9.44211
2057.03	10.3437
2058.49	10.5052
2059.95	9.74254
2061.42	9.84809
2062.88	10.5944
2064.34	11.398
2065.8	10.479
2067.26	10.3017
2068.72	9.23414
2070.18	8.09285
2071.64	7.81922
2073.1	7.37595
2074.56	6.7599
2076.02	7.01179
2077.48	7.19752
2078.94	6.2602
2080.39	6.74981
2081.85	6.91828
2083.31	7.2087
2084.77	7.29879
2086.22	7.70794
2087.68	8.10979
2089.14	8.54104
2090.6	8.87165
2092.05	9.60007
2093.51	9.36686
2094.96	9.50901
2096.42	9.8144
2097.87	10.1853
2099.33	9.21895
2100.78	8.59114
2102.24	9.53182
2103.69	9.61324
2105.15	9.66677
2106.6	10.3258
2108.05	11.3123
2109.51	11.5699
2110.96	12.6648
2112.41	13.2487
2113.86	12.9771
2115.32	13.6641
2116.77	13.5665
2118.22	13.9585
2119.67	13.6218
2121.12	14.9912
2122.57	15.9261
2124.02	16.4515
2125.47	18.2315
2126.92	18.9877
2128.37	19.4864
2129.82	19.7316
2131.27	19.9979
2132.72	20.0381
2134.17	20.5462
2135.62	21.1311
