#Acq. time (s)=	45
#Accumulations=	2
#Range (cm-¹)=	200...3150
#Windows=	2
#Auto scanning=	Off
#Autofocus=	Off
#Macrospot=	Off
#AutoExposure=	Off
#Spike filter=	Multiple accum.
#Delay time (s)=	0
#Binning=	1
#Readout mode=	Signal
#DeNoise=	Off
#ICS correction=	On
#Dark correction=	Off
#Inst. Process=	Off
#Detector Gain=	Best Dynamic Range
#Detector ADC=	20 kHz       
#Detector temperature (°C)=	-69.85
#Instrument=	LabRAM HR Evol
#Detector=	Synapse
#Objective=	x100
#Grating=	600 gr/mm
#ND Filter=	100%
#Laser (nm)=	532 
#Hole=	100.021
#Range=	Auto
#Laser Pol.=	No
#Raman. Pol.=	No
#Laser Pol. (°)=	-0.0007625
#Raman Pol. (°)=	89.9995
#Collection=	Microscope
#StageXY=	Marzhauser
#StageZ=	Marzhauser
#X (µm)=	-603.2
#Y (µm)=	-1684.8
#Z (µm)=	89.65
#Full time(mm:ss)=	3:18
#Project=	
#Sample=	
#Site=	
#Title=	Mb_10_14_43_2x_45s_532 nm_x100_100%_600 gr_mm
#Remark=	
#Date=	11.07.2022 11:54
#Acquired=	11.07.2022 11:54:54
#Edit:Spike=	11.07.2022 11:59:44
#Base:Fit=	10.08.2022 10:21:11
#Base:Sub=	10.08.2022 10:21:41
#Filter:Polynom=	16.08.2022 10:17:53
#AxisType[0]=Intens
#AxisUnit[0]=Cnt
#AxisType[1]=Spectr
#AxisUnit[1]=1/cm
200.388	7.82903
202.204	10.1894
204.019	11.7572
205.832	14.7412
207.646	15.9223
209.459	16.237
211.274	16.5062
213.087	15.7362
214.899	14.9644
216.711	13.5436
218.524	12.9424
220.335	13.4772
222.146	11.9425
223.956	12.0059
225.766	12.6966
227.576	11.675
229.388	9.82909
231.197	8.62916
233.005	9.16546
234.813	9.70205
236.621	11.7591
238.429	11.9006
240.236	12.8597
242.045	12.9208
243.852	13.3863
245.658	13.4313
247.464	13.9684
249.269	14.9498
251.074	14.5165
252.879	14.6338
254.683	15.1628
256.487	15.0707
258.291	13.9046
260.094	15.4121
261.897	14.5045
263.702	15.4234
265.504	15.8459
267.306	15.9372
269.108	17.2495
270.909	16.9807
272.71	16.9495
274.511	17.7945
276.311	17.9365
278.111	17.7382
279.91	17.8535
281.709	18.0916
283.508	17.633
285.306	17.555
287.105	17.9566
288.9	17.4484
290.698	17.3937
292.495	16.1317
294.291	15.3733
296.088	13.6544
297.884	13.336
299.679	14.0221
301.475	12.548
303.27	12.2761
305.064	13.6377
306.858	13.9992
308.652	14.7694
310.444	14.6459
312.237	14.1606
314.03	15.2787
315.822	14.6309
317.615	14.1897
319.406	14.3471
321.198	15.1809
322.987	16.8788
324.778	16.4326
326.568	16.3375
328.358	15.133
330.148	14.7004
331.935	13.6845
333.724	13.4784
335.513	13.7476
337.301	14.4253
339.089	13.5985
340.875	13.167
342.662	13.9015
344.449	13.1973
346.236	12.6468
348.02	13.2104
349.806	13.5868
351.592	12.8411
353.375	12.2135
355.16	10.9771
356.944	9.89363
358.728	10.2469
360.51	9.30602
362.294	8.67937
364.077	7.77243
365.858	6.16622
367.64	6.04264
369.422	6.35585
371.202	6.99692
372.983	6.32262
374.764	5.55108
376.543	5.27707
378.324	5.06383
380.102	5.23824
381.881	4.65194
383.661	5.33466
385.438	5.50632
387.216	6.10376
388.993	6.65226
390.771	7.9002
392.548	9.8175
394.324	10.5864
396.101	10.4282
397.875	9.93334
399.651	11.3083
401.425	13.0252
403.201	12.9764
404.974	13.5804
406.749	14.7077
408.524	14.0063
410.296	14.3165
412.07	14.796
413.841	15.0232
415.614	16.4806
417.385	17.4724
419.156	17.7077
420.928	18.5383
422.698	19.8792
424.469	21.1501
426.238	20.1771
428.009	19.8602
429.777	21.4181
431.548	20.9741
433.315	20.8765
435.083	20.1961
436.852	19.9896
438.618	19.135
440.387	18.6301
442.153	18.2069
443.919	17.9624
445.686	17.1146
447.451	17.2342
449.218	16.9317
450.982	16.0326
452.746	15.6572
454.512	16.0795
456.275	17.2864
458.038	16.4266
459.803	15.6241
461.565	15.0138
463.327	14.692
465.091	14.9987
466.852	14.9766
468.613	16.0968
470.374	16.6533
472.136	16.2979
473.896	16.9852
475.655	18.4115
477.415	18.9636
479.176	19.7628
480.934	19.7869
482.692	20.4631
484.45	21.3726
486.21	21.7785
487.967	24.0765
489.724	24.0657
491.481	24.0515
493.237	24.6425
494.995	25.1259
496.75	25.4211
498.506	26.7883
500.26	27.3026
502.015	28.0255
503.769	27.7137
505.525	27.1086
507.279	27.2916
509.032	27.7039
510.785	27.3578
512.537	26.4353
514.289	25.0689
516.041	25.7953
517.793	24.4029
519.546	23.762
521.297	22.7348
523.047	21.4418
524.797	21.6731
526.547	21.1823
528.297	20.2012
530.046	18.6388
531.795	17.4207
533.543	17.5269
535.291	18.1709
537.039	18.5197
538.787	17.4936
540.534	17.0496
542.281	16.9775
544.027	15.8801
545.773	14.942
547.519	15.118
549.264	14.7873
551.01	14.7298
552.754	14.5552
554.499	14.2483
556.243	14.8224
557.987	14.148
559.73	14.1014
561.474	15.1354
563.216	15.3254
564.959	14.2925
566.701	13.7833
568.441	14.6303
570.182	14.5505
571.923	13.3846
573.664	12.6334
575.405	12.7985
577.145	12.4141
578.885	12.6765
580.624	11.6333
582.361	10.9956
584.1	10.401
585.839	9.88457
587.577	9.33695
589.315	8.99143
591.052	8.56218
592.787	8.44567
594.524	8.23416
596.26	7.19176
597.997	6.60254
599.732	5.83089
601.466	6.10112
603.201	6.14103
604.936	5.47796
606.67	7.03499
608.403	6.35042
610.136	6.80393
611.87	7.24553
613.603	6.80322
615.334	6.50799
617.067	7.03921
618.799	7.90858
620.529	7.87646
622.26	7.35647
623.991	7.22533
625.72	6.35908
627.451	6.45184
629.181	7.47588
630.909	7.30431
632.638	7.94971
634.368	9.10655
636.095	9.29932
637.823	9.37068
639.551	9.41089
641.277	8.82109
643.005	8.91941
644.73	8.27578
646.457	8.45185
648.184	8.07361
649.908	8.16967
651.634	8.00491
653.357	7.81568
655.083	8.28058
656.806	6.75556
658.53	6.48052
660.253	6.13386
661.977	6.42989
663.7	6.10312
665.422	5.31358
667.145	5.10895
668.865	5.63405
670.588	7.49623
672.308	8.16535
674.027	8.56507
675.749	9.47751
677.468	10.6121
679.188	11.499
680.907	12.2371
682.627	12.8683
684.345	14.0874
686.064	14.447
687.781	15.252
689.498	15.4242
691.216	16.3042
692.932	17.2084
694.65	17.5222
696.366	18.5931
698.081	19.6276
699.797	20.205
701.512	20.7781
703.228	21.276
704.942	21.9582
706.655	22.7154
708.371	23.5923
710.083	23.8255
711.796	24.1637
713.51	25.3533
715.222	25.6097
716.934	24.2315
718.645	24.8145
720.358	25.4482
722.068	24.8514
723.779	24.388
725.49	24.4313
727.2	24.0767
728.909	24.567
730.618	25.6218
732.329	25.4347
734.037	25.4118
735.745	26.9749
737.453	27.3955
739.16	27.2027
740.869	28.4621
742.576	29.0788
744.282	30.4479
745.988	31.9395
747.694	33.1828
749.401	33.7954
751.107	35.1466
752.811	36.6356
754.516	38.2604
756.22	39.9145
757.924	40.8112
759.627	42.8235
761.332	44.4585
763.035	46.2546
764.738	47.4115
766.44	48.594
768.142	49.9763
769.843	51.4979
771.544	52.5209
773.245	54.4327
774.946	56.2315
776.646	57.7762
778.346	59.6128
780.046	61.7812
781.745	62.7195
783.444	63.9144
785.143	64.9423
786.841	66.4338
788.539	68.2076
790.237	70.3458
791.934	71.5725
793.631	72.3224
795.328	72.857
797.024	74.9458
798.72	76.2303
800.416	76.8642
802.112	77.3298
803.807	78.7089
805.502	79.4113
807.196	79.9216
808.89	80.9088
810.584	81.8034
812.278	82.9494
813.971	83.4347
815.664	83.9865
817.354	83.8931
819.047	85.0901
820.739	86.0157
822.43	85.6028
824.122	86.1603
825.813	86.7873
827.503	88.0648
829.192	87.673
830.882	87.6074
832.571	86.774
834.261	86.6158
835.95	86.5227
837.637	86.4827
839.325	87.3223
841.013	86.9048
842.701	86.9464
844.389	86.8953
846.074	85.6564
847.761	84.4195
849.447	83.4081
851.131	83.101
852.817	81.6758
854.503	80.7952
856.188	80.5748
857.871	80.1517
859.556	78.9843
861.24	78.6418
862.922	77.6201
864.606	76.2329
866.289	74.8053
867.97	74.8885
869.653	74.9973
871.336	74.8148
873.016	74.3986
874.698	73.8727
876.379	72.7679
878.058	72.1012
879.739	71.2912
881.418	71.0453
883.098	70.269
884.778	69.2887
886.456	68.7473
888.135	67.8795
889.812	67.6854
891.49	68.0482
893.167	67.9244
894.845	67.6255
896.523	67.3754
898.198	66.7693
899.875	66.3851
901.55	66.6388
903.226	66.3581
904.901	66.4786
906.576	66.9479
908.25	67.4494
909.925	67.505
911.598	67.6427
913.271	66.3994
914.945	66.5176
916.617	65.5724
918.291	64.9408
919.962	65.3939
921.635	65.5208
923.306	66.414
924.978	67.4739
926.648	68.614
928.318	69.3749
929.989	69.8414
931.659	71.2951
933.328	73.5414
934.998	73.7144
936.666	73.6565
938.336	74.9602
940.004	75.8477
941.671	76.1743
943.34	76.2622
945.007	76.4271
946.673	76.3963
948.339	76.5761
950.007	77.1295
951.672	77.5676
953.337	78.1229
955.004	77.6959
956.669	77.1413
958.333	75.7462
959.997	74.3121
961.662	72.4996
963.326	71.5402
964.989	71.6053
966.651	71.9544
968.315	71.5007
969.977	70.9749
971.639	70.7719
973.301	71.2296
974.962	70.8925
976.624	69.7803
978.285	69.023
979.945	68.7878
981.605	66.988
983.264	65.6758
984.924	65.704
986.583	64.0084
988.243	62.6595
989.901	62.0213
991.56	60.0819
993.217	58.7094
994.875	57.5535
996.532	57.0098
998.188	55.8585
999.845	55.3375
1001.5	56.2877
1003.16	57.8904
1004.81	58.7336
1006.47	60.2435
1008.12	61.3456
1009.78	61.8673
1011.43	61.8888
1013.09	61.679
1014.74	62.1668
1016.39	61.1684
1018.05	60.7489
1019.7	60.9957
1021.35	60.5525
1023	60.0887
1024.65	59.5274
1026.31	59.2186
1027.96	59.1512
1029.61	59.1458
1031.26	57.7481
1032.91	57.6738
1034.56	56.928
1036.21	55.5724
1037.86	54.9405
1039.51	53.1251
1041.16	52.5775
1042.8	52.1208
1044.45	52.3614
1046.1	54.1741
1047.75	54.5161
1049.39	54.6838
1051.04	53.9968
1052.69	53.4815
1054.33	53.8207
1055.98	52.8746
1057.62	51.7998
1059.27	51.7437
1060.91	51.6188
1062.56	51.4207
1064.2	50.3206
1065.85	50.5526
1067.49	50.0093
1069.13	48.8696
1070.77	47.9929
1072.42	48.4825
1074.06	47.28
1075.7	47.7089
1077.34	47.5677
1078.98	47.6433
1080.62	47.2931
1082.27	48.7378
1083.91	49.2256
1085.55	49.1373
1087.18	48.2685
1088.82	48.7734
1090.46	48.9648
1092.1	49.0613
1093.74	49.0681
1095.38	48.8576
1097.02	48.6415
1098.65	48.1513
1100.29	48.2048
1101.93	48.0573
1103.56	48.1043
1105.2	48.0186
1106.84	48.0889
1108.47	48.1456
1110.11	47.4974
1111.74	47.6891
1113.38	47.024
1115.01	47.7419
1116.64	46.662
1118.28	46.0256
1119.91	46.3865
1121.54	45.8546
1123.18	46.4949
1124.81	45.7825
1126.44	46.0223
1128.07	45.7268
1129.7	44.7432
1131.33	44.8825
1132.97	43.5964
1134.6	44.0682
1136.23	43.3582
1137.86	43.0149
1139.49	42.5325
1141.11	43.4218
1142.74	43.0123
1144.37	42.3865
1146	41.7895
1147.63	42.0665
1149.26	41.7012
1150.88	41.3471
1152.51	39.7914
1154.14	39.9771
1155.76	39.3808
1157.39	39.8601
1159.01	38.8217
1160.64	37.6853
1162.27	37.3449
1163.89	36.8971
1165.51	35.8911
1167.14	35.3043
1168.76	35.4736
1170.39	36.2001
1172.01	35.9572
1173.63	35.9955
1175.25	35.4142
1176.88	34.0045
1178.5	34.244
1180.12	34.4393
1181.74	33.9498
1183.36	34.8886
1184.98	34.1685
1186.6	33.7434
1188.22	34.1392
1189.84	33.7742
1191.46	33.3264
1193.08	34.0325
1194.7	33.84
1196.32	33.4344
1197.94	32.554
1199.55	33.3647
1201.17	33.7879
1202.79	34.379
1204.41	34.1698
1206.02	33.655
1207.64	33.8543
1209.25	34.3915
1210.87	35.8119
1212.48	36.1438
1214.1	37.2242
1215.71	38.6034
1217.33	39.2844
1218.94	41.8771
1220.56	44.1011
1222.17	46.4588
1223.79	47.1837
1225.4	48.284
1227.01	50.1982
1228.62	52.8333
1230.23	54.1941
1231.85	56.0452
1233.46	57.672
1235.07	59.7867
1236.68	61.744
1238.29	62.7203
1239.9	63.3907
1241.51	65.3983
1243.12	67.2649
1244.73	68.056
1246.34	69.3185
1247.94	70.8891
1249.55	71.6788
1251.16	72.6128
1252.77	73.0898
1254.37	72.6227
1255.98	73.3012
1257.59	73.5213
1259.2	74.582
1260.8	73.8626
1262.41	73.7025
1264.01	74.239
1265.62	73.3958
1267.22	73.3135
1268.83	73.5787
1270.43	73.0071
1272.03	73.9559
1273.64	74.8541
1275.24	74.2257
1276.85	74.3248
1278.45	73.459
1280.05	74.367
1281.65	74.0304
1283.25	73.7218
1284.85	73.0752
1286.46	72.4883
1288.06	73.5631
1289.66	74.4206
1291.26	75.317
1292.86	75.6092
1294.46	77.679
1296.06	78.1916
1297.66	79.8976
1299.25	80.8279
1300.85	81.6576
1302.45	82.0483
1304.05	81.9101
1305.65	83.0521
1307.24	84.6665
1308.84	85.9039
1310.43	86.906
1312.03	87.5693
1313.63	87.7278
1315.22	87.7839
1316.82	88.7008
1318.41	88.9391
1320.01	90.2685
1321.6	90.9103
1323.2	89.8147
1324.79	88.6973
1326.38	88.2156
1327.98	88.5126
1329.57	87.4151
1331.16	87.3999
1332.76	86.2697
1334.35	85.366
1335.94	85.6324
1337.53	84.3643
1339.12	83.6502
1340.71	82.4382
1342.3	82.2657
1343.89	81.9357
1345.48	81.5064
1347.07	81.016
1348.66	79.8207
1350.25	79.3759
1351.84	79.2943
1353.43	77.8731
1355.01	76.721
1356.6	76.0551
1358.19	74.6249
1359.77	73.8464
1361.36	72.21
1362.95	70.8419
1364.53	69.9172
1366.12	70.216
1367.71	71.3831
1369.29	70.644
1370.88	70.3561
1372.46	68.9837
1374.04	68.5599
1375.63	67.0732
1377.21	66.5814
1378.8	65.3965
1380.38	64.7551
1381.96	64.1338
1383.54	63.5392
1385.13	63.4166
1386.71	63.688
1388.29	63.8721
1389.87	63.2598
1391.45	62.0411
1393.03	60.5466
1394.61	60.6912
1396.19	60.1852
1397.77	60.0824
1399.35	59.2728
1400.93	57.9228
1402.51	57.3989
1404.09	57.5921
1405.67	57.8563
1407.24	58.9872
1408.82	58.8483
1410.4	59.5711
1411.98	60.4297
1413.55	60.9068
1415.13	61.8535
1416.71	62.8738
1418.28	63.7795
1419.86	65.5108
1421.43	67.5747
1423.01	69.8852
1424.58	71.8545
1426.16	74.0606
1427.73	76.8754
1429.31	81.1152
1430.88	83.5855
1432.45	86.4664
1434.02	89.2737
1435.6	90.7837
1437.17	93.1735
1438.74	95.5664
1440.31	98.4433
1441.88	101.225
1443.45	103.567
1445.03	106.544
1446.6	107.862
1448.17	107.89
1449.74	109.11
1451.3	109.219
1452.87	110.211
1454.44	110.266
1456.01	109.962
1457.58	109.586
1459.15	108.99
1460.72	108.283
1462.28	107.576
1463.85	105.776
1465.42	104.071
1466.98	101.213
1468.55	96.7526
1470.12	93.7901
1471.68	91.6242
1473.25	89.6268
1474.81	86.5808
1476.38	84.0928
1477.94	80.7742
1479.51	78.7904
1481.07	77.4582
1482.63	74.7174
1484.2	72.2962
1485.76	71.0172
1487.32	68.4545
1488.88	66.5391
1490.45	64.3951
1492.01	62.4446
1493.57	61.159
1495.13	59.6358
1496.69	57.4612
1498.25	56.097
1499.81	55.6093
1501.37	54.8515
1502.93	53.3022
1504.49	52.1803
1506.05	51.3396
1507.61	50.1512
1509.17	49.1267
1510.73	48.014
1512.28	46.2736
1513.84	44.5558
1515.4	44.3445
1516.96	44.3924
1518.51	43.5716
1520.07	43.4218
1521.63	42.6645
1523.18	41.9614
1524.74	40.8911
1526.29	39.9122
1527.85	39.634
1529.4	38.4929
1530.96	38.3667
1532.51	38.0529
1534.06	36.892
1535.62	35.8922
1537.17	35.3152
1538.72	34.8937
1540.28	34.972
1541.83	34.2983
1543.38	34.3155
1544.93	34.4685
1546.48	34.8715
1548.03	35.958
1549.59	36.8761
1551.14	37.242
1552.69	38.1701
1554.24	38.247
1555.79	38.919
1557.34	40.1515
1558.88	41.5118
1560.43	42.1565
1561.98	43.9149
1563.53	44.3059
1565.08	44.8065
1566.62	46.222
1568.17	47.1352
1569.72	48.2813
1571.27	49.34
1572.81	50.1417
1574.36	51.1593
1575.9	53.143
1577.45	54.9988
1579	56.0604
1580.54	57.3202
1582.09	58.4168
1583.63	59.2912
1585.17	60.794
1586.72	61.2342
1588.26	61.5297
1589.8	62.2553
1591.35	63.1058
1592.89	64.4951
1594.43	65.6711
1595.97	65.5755
1597.52	65.9833
1599.06	66.306
1600.6	65.3527
1602.14	65.0954
1603.68	64.1075
1605.22	63.835
1606.76	63.3681
1608.3	63.259
1609.84	62.59
1611.38	61.422
1612.92	60.8913
1614.46	61.5894
1615.99	60.976
1617.53	60.9495
1619.07	59.6148
1620.61	58.7775
1622.14	58.841
1623.68	57.9187
1625.22	57.0987
1626.75	57.3295
1628.29	57.6304
1629.82	57.2032
1631.36	56.8663
1632.9	57.5185
1634.43	58.579
1635.96	59.6439
1637.5	60.21
1639.03	59.6774
1640.57	59.3454
1642.1	60.9244
1643.63	61.8153
1645.16	62.7229
1646.7	63.2264
1648.23	64.8883
1649.76	65.844
1651.29	67.342
1652.82	67.3035
1654.36	67.6005
1655.89	68.2623
1657.42	67.9021
1658.95	67.0539
1660.48	67.1631
1662.01	67.7375
1663.53	66.9809
1665.06	66.8934
1666.59	66.0011
1668.12	64.8926
1669.65	63.7359
1671.18	62.3732
1672.7	60.6613
1674.23	58.8137
1675.76	57.0411
1677.29	54.3713
1678.81	52.4994
1680.34	50.7141
1681.86	49.1472
1683.39	47.0101
1684.91	45.3085
1686.44	42.8991
1687.96	40.6261
1689.49	38.3901
1691.01	35.7898
1692.54	33.3122
1694.06	31.5493
1695.58	29.3137
1697.11	28.2216
1698.63	26.6252
1700.15	24.6179
1701.67	23.867
1703.2	22.9841
1704.72	21.6005
1706.24	19.7338
1707.76	19.2296
1709.28	18.2365
1710.8	17.1913
1712.32	16.2817
1713.84	15.5369
1715.36	14.4478
1716.88	15.3931
1718.4	15.0937
1719.91	15.3913
1721.43	15.2525
1722.95	13.9673
1724.47	14.262
1725.99	13.6593
1727.5	13.2714
1729.02	12.6709
1730.54	12.7954
1732.05	12.9063
1733.57	12.4281
1735.09	12.6533
1736.6	12.9444
1738.12	12.8107
1739.63	12.0032
1741.15	11.3645
1742.66	10.5531
1744.18	10.2362
1745.69	9.57416
1747.2	9.2909
1748.72	9.10033
1750.23	8.54346
1751.74	8.26368
1753.25	7.8296
1754.77	7.19252
1756.28	6.7911
1757.79	6.08544
1759.3	5.70853
1760.81	5.5376
1762.32	4.49585
1763.83	4.00407
1765.34	3.40582
1766.85	2.37665
1768.36	1.87499
1769.87	1.23144
1771.38	0.493751
1772.89	0.321974
1774.4	-0.210762
1775.91	0.0882666
1777.41	0.0742944
1778.92	-0.57407
1780.43	-0.801151
1781.94	-1.11333
1783.44	-1.14874
1784.95	-1.38661
1786.45	-0.84148
1787.96	0.0916555
1789.47	0.432521
1790.97	0.168076
1792.47	0.373825
1793.98	-0.361908
1795.48	-0.491537
1796.99	-0.762857
1798.49	-0.799106
1800	0.0583233
1801.5	0.826294
1803	0.657448
1804.51	0.679131
1806.01	0.318241
1807.51	0.57474
1809.01	1.35411
1810.51	1.76682
1812.02	1.67749
1813.52	1.86778
1815.02	1.78694
1816.52	2.11254
1818.02	2.15542
1819.52	2.55825
1821.02	2.72682
1822.52	3.45268
1824.02	3.87173
1825.51	4.00467
1827.01	3.82639
1828.51	4.05435
1830.01	3.91934
1831.51	3.58808
1833	3.41778
1834.5	3.20916
1836	3.3695
1837.49	3.22136
1838.99	2.92845
1840.49	2.34454
1841.98	1.7613
1843.48	1.82227
1844.97	2.283
1846.47	2.20362
1847.96	2.15464
1849.46	1.88682
1850.95	1.80946
1852.45	1.12342
1853.94	0.0274936
1855.43	-0.176889
1856.92	-0.23658
1858.42	-0.000830052
1859.91	0.133218
1861.4	-0.00125236
1862.89	-0.887281
1864.39	-1.05236
1865.88	-1.28003
1867.37	-1.02066
1868.86	-0.657699
1870.35	-0.486746
1871.84	0.197066
1873.33	0.146099
1874.82	0.435855
1876.31	0.543038
1877.8	-0.035695
1879.29	0.488579
1880.77	0.990504
1882.26	1.70861
1882.52	2.08201
1884.02	1.71151
1885.51	1.51196
1887.01	1.661
1888.5	1.86654
1889.99	2.45084
1891.49	2.17438
1892.98	2.90521
1894.47	2.8799
1895.96	3.26662
1897.46	2.97674
1898.95	2.70543
1900.44	2.42901
1901.93	2.41314
1903.42	2.70581
1904.91	3.03735
1906.4	3.10976
1907.89	3.37716
1909.38	3.72683
1910.87	3.70406
1912.36	3.35008
1913.85	3.40613
1915.34	3.57939
1916.83	4.1068
1918.32	3.67602
1919.8	2.92937
1921.29	2.35148
1922.78	2.21781
1924.27	2.17001
1925.75	1.97978
1927.24	1.40733
1928.73	1.6826
1930.21	1.6615
1931.7	1.15788
1933.18	0.768729
1934.67	0.725325
1936.15	0.92625
1937.64	1.90023
1939.12	2.38459
1940.61	2.72113
1942.09	3.02262
1943.57	3.11159
1945.06	3.35217
1946.54	3.44633
1948.02	3.23212
1949.51	3.21476
1950.99	2.87508
1952.47	3.32474
1953.95	3.40346
1955.43	3.30922
1956.91	2.73886
1958.39	2.75426
1959.87	2.58077
1961.36	2.62011
1962.84	2.82856
1964.32	2.80623
1965.79	2.77973
1967.27	3.31177
1968.75	2.39234
1970.23	2.45534
1971.71	1.93039
1973.19	2.65197
1974.66	2.6901
1976.14	2.88909
1977.62	3.07251
1979.1	2.61026
1980.57	2.08127
1982.05	2.57638
1983.53	2.33773
1985	2.0957
1986.48	2.07984
1987.95	2.57061
1989.43	3.16827
1990.9	2.68677
1992.38	2.14417
1993.85	2.50419
1995.33	2.86587
1996.8	3.33945
1998.27	2.91648
1999.75	2.39538
2001.22	1.99621
2002.69	2.09348
2004.16	2.40749
2005.64	3.13288
2007.11	3.42575
2008.58	4.15272
2010.05	4.82826
2011.52	5.67913
2012.99	6.51043
2014.46	7.12084
2015.93	7.20819
2017.4	6.91279
2018.87	6.92822
2020.34	7.32319
2021.81	7.41473
2023.28	7.74322
2024.75	7.23754
2026.22	7.53162
2027.69	7.34903
2029.15	7.55511
2030.62	7.49246
2032.09	7.34275
2033.56	6.79256
2035.02	7.55208
2036.49	7.18887
2037.95	7.26526
2039.42	7.95976
2040.89	7.17342
2042.35	6.66035
2043.82	6.55118
2045.28	7.26216
2046.75	7.14474
2048.21	6.81022
2049.67	7.06056
2051.14	6.84991
2052.6	7.00076
2054.06	7.2299
2055.53	7.55627
2056.99	7.85708
2058.45	8.71656
2059.92	9.004
2061.38	8.76034
2062.84	7.95155
2064.3	7.38919
2065.76	8.06916
2067.22	8.33102
2068.68	8.02516
2070.14	8.23901
2071.6	7.28648
2073.06	7.25224
2074.52	7.63879
2075.98	7.68673
2077.44	8.31149
2078.9	8.72828
2080.36	8.78607
2081.82	9.39182
2083.27	9.45311
2084.73	9.56668
2086.19	9.40062
2087.65	9.54486
2089.1	8.59412
2090.56	8.41438
2092.01	9.07951
2093.47	8.65091
2094.93	8.56586
2096.38	8.28629
2097.84	8.7235
2099.29	9.36755
2100.75	9.23327
2102.2	9.64483
2103.66	10.0358
2105.11	10.2627
2106.56	11.1287
2108.02	12.3997
2109.47	11.7942
2110.92	12.9973
2112.37	13.6273
2113.83	13.0802
2115.28	14.183
2116.73	14.5682
2118.18	15.5951
2119.63	15.5046
2121.09	16.0452
2122.54	16.6201
2123.99	17.251
2125.44	18.2484
2126.89	18.9168
