#Acq. time (s)=	45
#Accumulations=	2
#Range (cm-¹)=	200...3150
#Windows=	2
#Auto scanning=	Off
#Autofocus=	Off
#Macrospot=	Off
#AutoExposure=	Off
#Spike filter=	Multiple accum.
#Delay time (s)=	0
#Binning=	1
#Readout mode=	Signal
#DeNoise=	Off
#ICS correction=	On
#Dark correction=	Off
#Inst. Process=	Off
#Detector Gain=	Best Dynamic Range
#Detector ADC=	20 kHz       
#Detector temperature (°C)=	-69.85
#Instrument=	LabRAM HR Evol
#Detector=	Synapse
#Objective=	x100
#Grating=	600 gr/mm
#ND Filter=	100%
#Laser (nm)=	532 
#Hole=	100.021
#Range=	Auto
#Laser Pol.=	No
#Raman. Pol.=	No
#Laser Pol. (°)=	-0.0007625
#Raman Pol. (°)=	89.9995
#Collection=	Microscope
#StageXY=	Marzhauser
#StageZ=	Marzhauser
#X (µm)=	-615.9
#Y (µm)=	-1600
#Z (µm)=	89.8
#Full time(mm:ss)=	3:18
#Project=	
#Sample=	
#Site=	
#Title=	Mb_10_14_29_2x_45s_532 nm_x100_100%_600 gr_mm
#Remark=	
#Date=	11.07.2022 10:40
#Acquired=	11.07.2022 10:40:54
#Base:Fit=	10.08.2022 10:21:11
#Base:Sub=	10.08.2022 10:21:41
#Filter:Polynom=	16.08.2022 10:17:53
#AxisType[0]=Intens
#AxisUnit[0]=Cnt
#AxisType[1]=Spectr
#AxisUnit[1]=1/cm
200.388	13.3369
202.204	15.5122
204.019	13.7115
205.832	13.0741
207.646	11.7965
209.459	10.8056
211.274	9.86654
213.087	8.95693
214.899	9.23749
216.711	9.25527
218.524	8.9005
220.335	9.63547
222.146	11.6232
223.956	12.4646
225.766	13.3848
227.576	14.6565
229.388	16.0554
231.197	15.5367
233.005	16.3196
234.813	17.5458
236.621	18.4079
238.429	20.2326
240.236	21.3646
242.045	22.212
243.852	22.1219
245.658	22.7646
247.464	22.8276
249.269	22.3085
251.074	22.5927
252.879	24.1569
254.683	24.7524
256.487	26.1269
258.291	27.7253
260.094	27.8657
261.897	27.7255
263.702	28.0296
265.504	27.1076
267.306	26.7644
269.108	26.553
270.909	26.5352
272.71	25.7171
274.511	24.3681
276.311	23.2654
278.111	21.9719
279.91	20.5656
281.709	19.445
283.508	16.9478
285.306	15.6062
287.105	13.8341
288.9	12.0723
290.698	10.289
292.495	9.87582
294.291	9.07947
296.088	8.13208
297.884	7.56003
299.679	7.39612
301.475	6.24659
303.27	6.37218
305.064	6.20496
306.858	4.67032
308.652	4.46219
310.444	5.12468
312.237	5.39795
314.03	4.6697
315.822	4.741
317.615	3.34252
319.406	2.71963
321.198	2.5142
322.987	4.17685
324.778	4.46447
326.568	4.93955
328.358	5.77334
330.148	5.44976
331.935	4.53495
333.724	4.37912
335.513	5.50089
337.301	5.83972
339.089	6.86996
340.875	7.25056
342.662	6.93536
344.449	7.16761
346.236	6.97107
348.02	7.40541
349.806	7.98371
351.592	9.40451
353.375	10.6292
355.16	10.5353
356.944	11.1702
358.728	10.9372
360.51	12.4061
362.294	12.7106
364.077	13.5897
365.858	15.1935
367.64	16.1336
369.422	18.8806
371.202	19.6401
372.983	20.8238
374.764	21.896
376.543	23.2582
378.324	25.0126
380.102	27.0913
381.881	28.4315
383.661	29.9043
385.438	32.1889
387.216	32.3377
388.993	33.904
390.771	34.7002
392.548	35.3074
394.324	36.0993
396.101	36.7761
397.875	38.5581
399.651	38.4828
401.425	38.4246
403.201	38.8633
404.974	38.4474
406.749	37.7606
408.524	38.3832
410.296	38.8723
412.07	38.3395
413.841	36.306
415.614	36.2446
417.385	34.8997
419.156	33.6173
420.928	32.4484
422.698	32.4076
424.469	31.7501
426.238	30.7774
428.009	29.9257
429.777	28.3551
431.548	27.2495
433.315	25.9332
435.083	23.8249
436.852	24.0885
438.618	21.6466
440.387	19.8598
442.153	17.838
443.919	16.0399
445.686	14.8433
447.451	14.0182
449.218	13.8574
450.982	13.3956
452.746	13.7299
454.512	13.675
456.275	14.0784
458.038	14.945
459.803	14.0145
461.565	14.416
463.327	14.9079
465.091	15.7744
466.852	17.3031
468.613	18.8282
470.374	18.8131
472.136	19.947
473.896	20.6791
475.655	20.0537
477.415	21.4508
479.176	21.0908
480.934	21.879
482.692	22.9188
484.45	24.193
486.21	24.7021
487.967	25.0131
489.724	26.3571
491.481	27.1236
493.237	27.6275
494.995	28.0947
496.75	29.768
498.506	31.2217
500.26	31.5987
502.015	32.0713
503.769	33.876
505.525	34.6541
507.279	34.6673
509.032	35.9999
510.785	34.8851
512.537	34.5047
514.289	34.3245
516.041	33.5736
517.793	32.3337
519.546	30.8163
521.297	30.2435
523.047	29.599
524.797	28.9606
526.547	27.8297
528.297	26.5822
530.046	24.9396
531.795	24.6573
533.543	23.9423
535.291	23.36
537.039	22.813
538.787	22.1929
540.534	20.993
542.281	20.1593
544.027	19.2362
545.773	17.55
547.519	16.3266
549.264	16.3681
551.01	15.6632
552.754	14.6231
554.499	13.516
556.243	11.1145
557.987	9.16194
559.73	7.91635
561.474	6.62183
563.216	5.06781
564.959	4.26861
566.701	3.11861
568.441	3.90206
570.182	3.08354
571.923	3.10062
573.664	2.71425
575.405	2.12865
577.145	1.61319
578.885	1.20902
580.624	1.67887
582.361	1.62068
584.1	3.15069
585.839	2.37952
587.577	2.456
589.315	1.83938
591.052	1.75866
592.787	0.532205
594.524	-0.360979
596.26	0.8544
597.997	-0.28925
599.732	0.516817
601.466	0.250634
603.201	-0.117325
604.936	-0.268419
606.67	0.114552
608.403	0.139707
610.136	0.947102
611.87	0.433116
613.603	0.744575
615.334	0.35427
617.067	0.762476
618.799	2.53017
620.529	1.62448
622.26	2.81138
623.991	2.19086
625.72	1.53524
627.451	1.785
629.181	2.07619
630.909	2.01372
632.638	3.21183
634.368	3.83463
636.095	4.6605
637.823	3.01637
639.551	2.7992
641.277	1.90838
643.005	2.13503
644.73	3.15865
646.457	2.31606
648.184	2.77501
649.908	2.60551
651.634	2.29262
653.357	2.16842
655.083	2.91609
656.806	3.16498
658.53	3.56005
660.253	3.69493
661.977	3.22789
663.7	3.82867
665.422	4.72954
667.145	5.64497
668.865	5.44411
670.588	5.53942
672.308	4.11283
674.027	4.64283
675.749	4.0817
677.468	4.62301
679.188	4.72691
680.907	5.8338
682.627	6.58164
684.345	5.41619
686.064	5.45716
687.781	6.30884
689.498	6.81006
691.216	7.39271
692.932	7.90282
694.65	8.2239
696.366	9.95757
698.081	9.66887
699.797	10.3168
701.512	11.6919
703.228	12.4326
704.942	13.4654
706.655	13.8006
708.371	14.8217
710.083	14.6495
711.796	16.5289
713.51	17.5592
715.222	17.4052
716.934	18.3886
718.645	19.0538
720.358	18.8418
722.068	19.807
723.779	19.4681
725.49	20.7316
727.2	20.7425
728.909	21.3695
730.618	22.2284
732.329	21.9616
734.037	23.6274
735.745	23.4178
737.453	20.9084
739.16	18.9721
740.869	21.4733
742.576	23.2278
744.282	25.318
745.988	26.9717
747.694	29.7009
749.401	32.6445
751.107	34.9439
752.811	36.5952
754.516	38.5372
756.22	40.253
757.924	41.7712
759.627	44.839
761.332	46.5774
763.035	49.2077
764.738	51.0225
766.44	52.919
768.142	55.0877
769.843	56.9393
771.544	59.3364
773.245	62.037
774.946	63.2839
776.646	64.6151
778.346	65.4752
780.046	67.6164
781.745	69.2013
783.444	69.4823
785.143	70.3249
786.841	71.3414
788.539	72.333
790.237	73.8963
791.934	73.8592
793.631	73.936
795.328	73.9826
797.024	73.9757
798.72	73.2581
800.416	74.8764
802.112	75.4304
803.807	74.3246
805.502	73.208
807.196	72.6008
808.89	72.5089
810.584	71.9003
812.278	69.9825
813.971	69.1895
815.664	67.8149
817.354	65.5641
819.047	63.963
820.739	62.0992
822.43	61.7496
824.122	65.0709
825.813	68.4432
827.503	68.7638
829.192	68.3411
830.882	68.1566
832.571	69.5859
834.261	69.3408
835.95	68.5181
837.637	68.4322
839.325	66.9246
841.013	66.08
842.701	66.1589
844.389	66.9225
846.074	66.4502
847.761	65.5363
849.447	64.702
851.131	63.5762
852.817	62.3715
854.503	61.0073
856.188	60.7473
857.871	59.4924
859.556	57.2754
861.24	56.0578
862.922	55.3534
864.606	55.0538
866.289	53.1152
867.97	52.2871
869.653	51.3176
871.336	51.5037
873.016	51.6632
874.698	50.1698
876.379	49.209
878.058	48.7998
879.739	48.6113
881.418	48.4034
883.098	47.8532
884.778	47.7428
886.456	45.9076
888.135	45.642
889.812	46.095
891.49	46.9873
893.167	47.472
894.845	46.6383
896.523	46.5657
898.198	46.4987
899.875	47.6006
901.55	47.6293
903.226	48.5299
904.901	49.0408
906.576	49.2626
908.25	49.5065
909.925	48.1278
911.598	47.7163
913.271	47.929
914.945	48.1534
916.617	48.6766
918.291	48.2348
919.962	48.2515
921.635	48.008
923.306	47.7491
924.978	49.1492
926.648	49.4703
928.318	49.5077
929.989	48.9406
931.659	47.6093
933.328	48.0241
934.998	47.4689
936.666	47.7424
938.336	48.032
940.004	48.0929
941.671	46.4288
943.34	46.4903
945.007	46.6162
946.673	46.5516
948.339	46.1341
950.007	46.1005
951.672	46.5341
953.337	46.2407
955.004	46.8525
956.669	45.9181
958.333	46.1777
959.997	46.6401
961.662	45.3556
963.326	46.7066
964.989	47.5828
966.651	48.9429
968.315	50.1689
969.977	52.7282
971.639	54.8085
973.301	55.7636
974.962	55.9573
976.624	57.0511
978.285	57.4682
979.945	57.4418
981.605	57.3088
983.264	58.2006
984.924	56.9177
986.583	55.7654
988.243	55.2276
989.901	54.4826
991.56	53.4889
993.217	51.8445
994.875	51.0589
996.532	50.5226
998.188	48.2837
999.845	48.8803
1001.5	47.6283
1003.16	47.2251
1004.81	46.3983
1006.47	46.0247
1008.12	44.013
1009.78	43.0558
1011.43	41.9351
1013.09	42.0656
1014.74	41.9224
1016.39	41.9199
1018.05	41.4149
1019.7	41.4102
1021.35	41.23
1023	40.9749
1024.65	40.9431
1026.31	40.9207
1027.96	41.0958
1029.61	41.1392
1031.26	40.9386
1032.91	41.4849
1034.56	41.8345
1036.21	42.7037
1037.86	43.7619
1039.51	43.4881
1041.16	44.9143
1042.8	45.2024
1044.45	46.4237
1046.1	48.6713
1047.75	49.6967
1049.39	50.1653
1051.04	49.9899
1052.69	51.0654
1054.33	50.9959
1055.98	49.0356
1057.62	46.971
1059.27	45.7392
1060.91	44.766
1062.56	43.2526
1064.2	41.578
1065.85	39.9808
1067.49	37.3116
1069.13	34.489
1070.77	32.9554
1072.42	29.9271
1074.06	28.3311
1075.7	26.8854
1077.34	24.7705
1078.98	23.4095
1080.62	22.0639
1082.27	22.0858
1083.91	20.4059
1085.55	20.4386
1087.18	19.9989
1088.82	20.3261
1090.46	19.8876
1092.1	20.8117
1093.74	21.2864
1095.38	22.0534
1097.02	20.857
1098.65	20.1995
1100.29	20.9127
1101.93	20.7963
1103.56	21.5153
1105.2	21.5989
1106.84	21.4894
1108.47	21.1963
1110.11	21.4826
1111.74	21.7524
1113.38	22.0477
1115.01	22.6598
1116.64	23.4254
1118.28	23.3289
1119.91	22.7887
1121.54	22.569
1123.18	23.5725
1124.81	23.4777
1126.44	23.5668
1128.07	22.9961
1129.7	22.4679
1131.33	21.9816
1132.97	21.4888
1134.6	21.2155
1136.23	19.9483
1137.86	17.6414
1139.49	16.1329
1141.11	16.0688
1142.74	16.1513
1144.37	14.0539
1146	12.8882
1147.63	11.8928
1149.26	10.5942
1150.88	9.73668
1152.51	8.18486
1154.14	7.47223
1155.76	7.48427
1157.39	7.59889
1159.01	6.36209
1160.64	6.06952
1162.27	5.66772
1163.89	5.39516
1165.51	4.72142
1167.14	4.33417
1168.76	3.44222
1170.39	2.93966
1172.01	1.66963
1173.63	1.22478
1175.25	2.04454
1176.88	1.82322
1178.5	1.03611
1180.12	0.578596
1181.74	1.06794
1183.36	1.15697
1184.98	2.24088
1186.6	1.65734
1188.22	1.33017
1189.84	1.70861
1191.46	1.66423
1193.08	2.55576
1194.7	3.46271
1196.32	4.51158
1197.94	5.93509
1199.55	5.40057
1201.17	6.19517
1202.79	6.63981
1204.41	7.44919
1206.02	8.05092
1207.64	8.69789
1209.25	9.63981
1210.87	11.4686
1212.48	12.1636
1214.1	13.2757
1215.71	14.4918
1217.33	14.9943
1218.94	15.8198
1220.56	17.0127
1222.17	19.2619
1223.79	21.3866
1225.4	22.4023
1227.01	24.5633
1228.62	26.1485
1230.23	26.5613
1231.85	27.781
1233.46	28.7396
1235.07	31.1078
1236.68	32.39
1238.29	33.0214
1239.9	32.4328
1241.51	34.7121
1243.12	34.7754
1244.73	36.3138
1246.34	36.7962
1247.94	37.6162
1249.55	38.2937
1251.16	39.4687
1252.77	39.5123
1254.37	40.8446
1255.98	41.2168
1257.59	41.5789
1259.2	41.9604
1260.8	41.6085
1262.41	42.2845
1264.01	43.0622
1265.62	44.0488
1267.22	44.453
1268.83	44.1865
1270.43	44.9061
1272.03	45.4878
1273.64	47.5458
1275.24	49.513
1276.85	49.5678
1278.45	50.1121
1280.05	49.6252
1281.65	51.233
1283.25	51.7592
1284.85	52.2327
1286.46	53.3817
1288.06	54.0218
1289.66	54.7171
1291.26	54.9533
1292.86	55.55
1294.46	56.9206
1296.06	57.5457
1297.66	57.6776
1299.25	58.5517
1300.85	59.9077
1302.45	61.8175
1304.05	62.2959
1305.65	63.0205
1307.24	63.8157
1308.84	63.4703
1310.43	63.7503
1312.03	65.6118
1313.63	66.3346
1315.22	66.4351
1316.82	66.2048
1318.41	66.1525
1320.01	67.0832
1321.6	68.3452
1323.2	67.8798
1324.79	68.4174
1326.38	67.2594
1327.98	66.1813
1329.57	66.3015
1331.16	66.4382
1332.76	67.0376
1334.35	66.614
1335.94	66.3379
1337.53	66.4512
1339.12	64.9478
1340.71	63.6408
1342.3	64.4423
1343.89	64.3741
1345.48	63.4013
1347.07	61.8727
1348.66	61.0602
1350.25	60.6854
1351.84	59.7726
1353.43	58.5725
1355.01	57.3288
1356.6	54.8652
1358.19	54.0894
1359.77	52.6041
1361.36	51.3605
1362.95	50.4372
1364.53	48.778
1366.12	48.196
1367.71	46.9501
1369.29	45.7233
1370.88	44.1399
1372.46	43.9633
1374.04	42.0931
1375.63	41.782
1377.21	41.5415
1378.8	40.9148
1380.38	40.9395
1381.96	39.9467
1383.54	39.3682
1385.13	39.0338
1386.71	37.7822
1388.29	37.5497
1389.87	38.5207
1391.45	38.4687
1393.03	38.3608
1394.61	38.1599
1396.19	37.7727
1397.77	37.8093
1399.35	38.5482
1400.93	39.1118
1402.51	39.4923
1404.09	39.2727
1405.67	39.5605
1407.24	40.7422
1408.82	42.4871
1410.4	43.3172
1411.98	45.3088
1413.55	46.413
1415.13	48.9474
1416.71	50.7995
1418.28	52.2585
1419.86	55.3154
1421.43	58.1109
1423.01	58.8796
1424.58	61.5626
1426.16	63.7953
1427.73	66.9714
1429.31	69.4089
1430.88	71.9949
1432.45	75.0594
1434.02	78.0523
1435.6	81.274
1437.17	83.7813
1438.74	86.8125
1440.31	88.445
1441.88	90.9926
1443.45	92.3959
1445.03	94.918
1446.6	96.5644
1448.17	96.9103
1449.74	98.4253
1451.3	99.0422
1452.87	99.075
1454.44	99.8923
1456.01	99.2342
1457.58	97.095
1459.15	96.9244
1460.72	95.0803
1462.28	94.0565
1463.85	91.9721
1465.42	90.7968
1466.98	89.1092
1468.55	86.6994
1470.12	83.99
1471.68	81.1087
1473.25	78.2199
1474.81	75.5302
1476.38	74.1742
1477.94	71.901
1479.51	68.8013
1481.07	66.5037
1482.63	63.5854
1484.2	61.0426
1485.76	60.5686
1487.32	58.3709
1488.88	56.2706
1490.45	54.8916
1492.01	52.2796
1493.57	50.2093
1495.13	48.1399
1496.69	46.4622
1498.25	45.2084
1499.81	42.7494
1501.37	40.3444
1502.93	39.58
1504.49	37.844
1506.05	36.4658
1507.61	34.7976
1509.17	33.2204
1510.73	32.5979
1512.28	31.3539
1513.84	30.1828
1515.4	28.2546
1516.96	27.258
1518.51	26.0644
1520.07	26.1138
1521.63	25.1368
1523.18	23.7187
1524.74	22.4757
1526.29	22.0618
1527.85	22.0838
1529.4	20.2168
1530.96	20.0526
1532.51	19.7097
1534.06	18.9897
1535.62	18.8188
1537.17	20.0292
1538.72	19.8113
1540.28	20.4267
1541.83	20.9404
1543.38	21.4328
1544.93	21.7159
1546.48	22.2556
1548.03	22.764
1549.59	24.3299
1551.14	26.4792
1552.69	27.7317
1554.24	29.3234
1555.79	30.1263
1557.34	31.3498
1558.88	33.2401
1560.43	33.956
1561.98	35.534
1563.53	36.376
1565.08	36.0296
1566.62	37.0903
1568.17	38.6404
1569.72	39.9792
1571.27	41.8282
1572.81	43.4163
1574.36	44.4467
1575.9	46.0885
1577.45	46.7954
1579	47.8203
1580.54	49.0306
1582.09	50.2982
1583.63	51.7855
1585.17	52.9352
1586.72	53.7866
1588.26	55.0405
1589.8	55.3698
1591.35	55.326
1592.89	56.1993
1594.43	57.211
1595.97	57.0432
1597.52	55.859
1599.06	55.8718
1600.6	55.9252
1602.14	56.1206
1603.68	55.6455
1605.22	54.9855
1606.76	53.8042
1608.3	53.9971
1609.84	53.5063
1611.38	53.0956
1612.92	52.7711
1614.46	51.9387
1615.99	51.7299
1617.53	50.6861
1619.07	50.3268
1620.61	50.4728
1622.14	50.0583
1623.68	50.0778
1625.22	50.8348
1626.75	52.5467
1628.29	52.2204
1629.82	51.8855
1631.36	52.0145
1632.9	52.5547
1634.43	53.2985
1635.96	54.3052
1637.5	54.476
1639.03	55.3372
1640.57	56.3977
1642.1	57.3092
1643.63	59.1394
1645.16	60.5163
1646.7	61.7399
1648.23	63.257
1649.76	63.9474
1651.29	64.424
1652.82	65.476
1654.36	66.2096
1655.89	67.3793
1657.42	68.6661
1658.95	69.57
1660.48	70.3043
1662.01	70.1551
1663.53	69.6501
1665.06	68.556
1666.59	67.4382
1668.12	66.6441
1669.65	65.7517
1671.18	64.0483
1672.7	61.2152
1674.23	59.55
1675.76	58.3021
1677.29	56.3159
1678.81	54.422
1680.34	51.704
1681.86	49.9174
1683.39	47.1985
1684.91	46.0234
1686.44	43.4335
1687.96	41.3429
1689.49	39.0628
1691.01	37.1286
1692.54	35.9317
1694.06	33.7958
1695.58	32.1757
1697.11	29.9941
1698.63	27.1955
1700.15	25.7352
1701.67	23.6812
1703.2	21.3751
1704.72	18.8521
1706.24	16.8313
1707.76	16.2394
1709.28	16.0322
1710.8	14.5578
1712.32	13.1401
1713.84	11.8429
1715.36	10.5186
1716.88	10.2527
1718.4	8.65574
1719.91	8.77536
1721.43	8.68985
1722.95	8.87978
1724.47	8.86002
1725.99	8.28774
1727.5	8.59664
1729.02	8.88228
1730.54	9.09092
1732.05	8.99
1733.57	8.96514
1735.09	8.86102
1736.6	9.18347
1738.12	8.23203
1739.63	7.73667
1741.15	7.60564
1742.66	8.27252
1744.18	8.21782
1745.69	7.47151
1747.2	7.08622
1748.72	6.52813
1750.23	7.02474
1751.74	7.8876
1753.25	8.41588
1754.77	8.48352
1756.28	8.17759
1757.79	8.6422
1759.3	8.71088
1760.81	9.53863
1762.32	8.59146
1763.83	8.50711
1765.34	8.27649
1766.85	7.15207
1768.36	6.66023
1769.87	5.70914
1771.38	4.95764
1772.89	4.22635
1774.4	3.94854
1775.91	3.87618
1777.41	3.37798
1778.92	2.90342
1780.43	2.80497
1781.94	2.73624
1783.44	3.57982
1784.95	3.16701
1786.45	2.84957
1787.96	2.75531
1789.47	2.15629
1790.97	2.03131
1792.47	2.68184
1793.98	2.36539
1795.48	3.00294
1796.99	3.7148
1798.49	3.18718
1800	2.66516
1801.5	2.13542
1803	2.29844
1804.51	2.11708
1806.01	2.04027
1807.51	2.40368
1809.01	2.53365
1810.51	2.7795
1812.02	3.21527
1813.52	3.3774
1815.02	3.30324
1816.52	3.05628
1818.02	3.18929
1819.52	3.18642
1821.02	3.13694
1822.52	3.85448
1824.02	4.23001
1825.51	4.859
1827.01	5.05974
1828.51	4.81571
1830.01	4.94424
1831.51	4.59436
1833	4.07032
1834.5	3.74398
1836	3.17817
1837.49	2.41274
1838.99	2.05134
1840.49	2.08736
1841.98	1.75169
1843.48	2.42058
1844.97	2.17913
1846.47	1.95702
1847.96	1.81023
1849.46	2.46587
1850.95	2.62238
1852.45	2.55721
1853.94	2.61319
1855.43	2.85164
1856.92	2.80286
1858.42	3.1921
1859.91	3.05489
1861.4	3.50941
1862.89	3.03204
1864.39	2.4975
1865.88	2.4574
1867.37	2.4705
1868.86	1.70137
1870.35	1.71435
1871.84	2.03007
1873.33	2.26439
1874.82	2.58276
1876.31	3.35624
1877.8	4.52255
1879.29	4.80032
1880.77	5.1926
1882.26	5.11419
1882.52	5.22324
1884.02	5.29269
1885.51	4.73631
1887.01	4.6368
1888.5	4.56498
1889.99	4.63312
1891.49	4.27189
1892.98	4.31608
1894.47	5.08183
1895.96	5.08471
1897.46	4.79536
1898.95	5.16617
1900.44	4.785
1901.93	4.60036
1903.42	4.89492
1904.91	5.02422
1906.4	5.41393
1907.89	5.46012
1909.38	5.44697
1910.87	5.64809
1912.36	5.6607
1913.85	6.52381
1915.34	6.82233
1916.83	7.34499
1918.32	7.11978
1919.8	7.45945
1921.29	8.19332
1922.78	8.84499
1924.27	8.70957
1925.75	8.97182
1927.24	9.00881
1928.73	9.17644
1930.21	8.25619
1931.7	8.19109
1933.18	8.27151
1934.67	8.10883
1936.15	7.50742
1937.64	7.79327
1939.12	7.8619
1940.61	8.17529
1942.09	7.88424
1943.57	9.42758
1945.06	9.36663
1946.54	9.01072
1948.02	8.99577
1949.51	8.49837
1950.99	7.77954
1952.47	6.51661
1953.95	6.29063
1955.43	5.25328
1956.91	5.29625
1958.39	4.76007
1959.87	3.75216
1961.36	3.56723
1962.84	2.49774
1964.32	1.90958
1965.79	1.73143
1967.27	1.57275
1968.75	1.66798
1970.23	1.20712
1971.71	1.2279
1973.19	1.50826
1974.66	1.48872
1976.14	1.53958
1977.62	2.16414
1979.1	2.08717
1980.57	1.74166
1982.05	1.40252
1983.53	1.2643
1985	1.90609
1986.48	2.05894
1987.95	2.24646
1989.43	2.20049
1990.9	2.11963
1992.38	2.04783
1993.85	2.68088
1995.33	3.19784
1996.8	3.22548
1998.27	3.96156
1999.75	4.33951
2001.22	4.2728
2002.69	4.05018
2004.16	3.2965
2005.64	4.30032
2007.11	4.87091
2008.58	4.4917
2010.05	4.52195
2011.52	4.13374
2012.99	3.87592
2014.46	3.87932
2015.93	4.58528
2017.4	4.1451
2018.87	2.87726
2020.34	3.0697
2021.81	3.47818
2023.28	3.34596
2024.75	3.89611
2026.22	4.26613
2027.69	5.11513
2029.15	5.01434
2030.62	5.13495
2032.09	4.66925
2033.56	4.72201
2035.02	4.86885
2036.49	5.37828
2037.95	5.78564
2039.42	4.96665
2040.89	4.81395
2042.35	5.22111
2043.82	4.86285
2045.28	4.86458
2046.75	4.94805
2048.21	4.45629
2049.67	3.90416
2051.14	4.16088
2052.6	4.54145
2054.06	4.66713
2055.53	4.65143
2056.99	4.59573
2058.45	5.51326
2059.92	5.4185
2061.38	5.50594
2062.84	6.16642
2064.3	6.11434
2065.76	6.57579
2067.22	6.92817
2068.68	6.88951
2070.14	7.07697
2071.6	7.80683
2073.06	7.17696
2074.52	7.74369
2075.98	7.7865
2077.44	8.16703
2078.9	8.69331
2080.36	9.03177
2081.82	9.23427
2083.27	9.51685
2084.73	9.8898
2086.19	10.5979
2087.65	10.7562
2089.1	11.4971
2090.56	10.8113
2092.01	11.3495
2093.47	11.3473
2094.93	12.3692
2096.38	12.2327
2097.84	12.2682
2099.29	12.1545
2100.75	12.6243
2102.2	11.7486
2103.66	10.4792
2105.11	11.0043
2106.56	11.3115
2108.02	11.4019
2109.47	10.8282
2110.92	10.343
2112.37	9.87684
2113.83	10.557
2115.28	10.336
2116.73	10.0652
2118.18	10.6499
2119.63	10.7078
2121.09	10.9217
2122.54	12.157
2123.99	12.5528
2125.44	13.0743
2126.89	12.8602
2128.34	13.2391
2129.79	14.4003
2131.23	15.0395
2132.68	15.072
2134.13	15.3699
2135.58	15.5431
2137.03	15.9639
