#Acq. time (s)=	45
#Accumulations=	2
#Range (cm-¹)=	200...3150
#Windows=	2
#Auto scanning=	Off
#Autofocus=	Off
#Macrospot=	Off
#AutoExposure=	Off
#Spike filter=	Multiple accum.
#Delay time (s)=	0
#Binning=	1
#Readout mode=	Signal
#DeNoise=	Off
#ICS correction=	On
#Dark correction=	Off
#Inst. Process=	Off
#Detector Gain=	Best Dynamic Range
#Detector ADC=	20 kHz       
#Detector temperature (°C)=	-69.85
#Instrument=	LabRAM HR Evol
#Detector=	Synapse
#Objective=	x100
#Grating=	600 gr/mm
#ND Filter=	100%
#Laser (nm)=	532 
#Hole=	100.021
#Range=	Auto
#Laser Pol.=	No
#Raman. Pol.=	No
#Laser Pol. (°)=	-0.0007625
#Raman Pol. (°)=	89.9995
#Collection=	Microscope
#StageXY=	Marzhauser
#StageZ=	Marzhauser
#X (µm)=	-622.7
#Y (µm)=	-1581.6
#Z (µm)=	89.85
#Full time(mm:ss)=	3:18
#Project=	
#Sample=	
#Site=	
#Title=	Mb_10_14_19_2x_45s_532 nm_x100_100%_600 gr_mm
#Remark=	
#Date=	11.07.2022 10:00
#Acquired=	11.07.2022 10:00:11
#Base:Fit=	10.08.2022 10:21:11
#Base:Sub=	10.08.2022 10:21:41
#Filter:Polynom=	16.08.2022 10:17:53
#AxisType[0]=Intens
#AxisUnit[0]=Cnt
#AxisType[1]=Spectr
#AxisUnit[1]=1/cm
200.388	7.56795
202.204	7.84121
204.019	4.06537
205.832	2.54075
207.646	1.17613
209.459	0.344384
211.274	-0.34331
213.087	-1.0973
214.899	-1.41211
216.711	0.0491458
218.524	0.850759
220.335	2.75612
222.146	5.61158
223.956	6.76098
225.766	8.64263
227.576	9.32526
229.388	9.73552
231.197	11.3651
233.005	13.11
234.813	14.1343
236.621	15.6955
238.429	17.1205
240.236	17.771
242.045	19.0292
243.852	19.9847
245.658	21.4227
247.464	22.6608
249.269	23.703
251.074	25.8757
252.879	25.8601
254.683	26.5929
256.487	26.871
258.291	26.7798
260.094	27.786
261.897	29.1038
263.702	29.55
265.504	29.378
267.306	29.1922
269.108	29.4825
270.909	29.1344
272.71	29.0132
274.511	29.0757
276.311	28.86
278.111	27.5573
279.91	26.9711
281.709	26.747
283.508	25.9541
285.306	25.314
287.105	24.2725
288.9	23.7109
290.698	23.4268
292.495	23.2237
294.291	23.4899
296.088	23.0932
297.884	23.9417
299.679	23.8515
301.475	24.2292
303.27	24.3808
305.064	25.3798
306.858	26.2977
308.652	25.608
310.444	25.9911
312.237	25.6931
314.03	24.2031
315.822	23.9983
317.615	23.5586
319.406	22.8209
321.198	23.0608
322.987	21.7253
324.778	20.093
326.568	18.8204
328.358	17.6765
330.148	16.6078
331.935	16.186
333.724	16.1427
335.513	15.2609
337.301	13.6547
339.089	13.3862
340.875	12.7574
342.662	11.5028
344.449	10.998
346.236	10.7929
348.02	10.6703
349.806	10.6589
351.592	9.77694
353.375	8.21878
355.16	7.89621
356.944	7.92651
358.728	8.29082
360.51	7.86637
362.294	8.02831
364.077	9.41854
365.858	10.5588
367.64	11.8418
369.422	12.6373
371.202	14.3927
372.983	14.5341
374.764	15.7674
376.543	17.5991
378.324	19.7933
380.102	21.7454
381.881	22.4719
383.661	24.2064
385.438	26.9154
387.216	28.7797
388.993	29.7216
390.771	31.2309
392.548	31.5068
394.324	32.8352
396.101	33.8733
397.875	34.396
399.651	34.8085
401.425	34.9072
403.201	34.3536
404.974	34.2595
406.749	33.2804
408.524	30.8927
410.296	30.4608
412.07	28.6423
413.841	28.3468
415.614	27.3634
417.385	26.8111
419.156	26.5772
420.928	25.8296
422.698	24.8051
424.469	23.3441
426.238	22.4692
428.009	22.2471
429.777	20.8111
431.548	20.3516
433.315	18.7912
435.083	18.0643
436.852	16.315
438.618	15.3187
440.387	13.4159
442.153	13.1452
443.919	12.2334
445.686	11.9664
447.451	11.8722
449.218	11.4962
450.982	11.6707
452.746	12.0091
454.512	12.0263
456.275	11.708
458.038	11.6854
459.803	13.1055
461.565	13.9112
463.327	15.1075
465.091	15.6797
466.852	15.9224
468.613	17.1496
470.374	16.723
472.136	18.1933
473.896	19.4007
475.655	20.9561
477.415	22.0292
479.176	22.183
480.934	21.4115
482.692	22.3152
484.45	22.9454
486.21	23.0808
487.967	22.6308
489.724	23.4355
491.481	24.3749
493.237	24.9645
494.995	24.7004
496.75	24.9632
498.506	26.1183
500.26	26.1485
502.015	26.9806
503.769	26.9259
505.525	26.6391
507.279	27.3382
509.032	27.9965
510.785	28.1634
512.537	28.6905
514.289	28.5454
516.041	28.7632
517.793	28.0541
519.546	28.2297
521.297	28.0347
523.047	27.1433
524.797	26.7151
526.547	26.4691
528.297	25.0653
530.046	26.0626
531.795	26.0397
533.543	25.7283
535.291	24.8335
537.039	24.235
538.787	23.3188
540.534	22.9802
542.281	22.0066
544.027	21.0315
545.773	20.6319
547.519	20.2347
549.264	19.1573
551.01	18.1771
552.754	17.3469
554.499	16.9906
556.243	16.47
557.987	14.8626
559.73	15.4855
561.474	14.542
563.216	13.3367
564.959	10.8628
566.701	9.10806
568.441	9.0637
570.182	9.28258
571.923	8.53682
573.664	7.39771
575.405	5.92917
577.145	6.46567
578.885	5.51886
580.624	4.32115
582.361	3.74525
584.1	4.37438
585.839	4.6204
587.577	4.40315
589.315	4.61389
591.052	4.90159
592.787	4.6393
594.524	6.33155
596.26	6.87503
597.997	6.57772
599.732	7.2876
601.466	7.76924
603.201	8.49779
604.936	8.73117
606.67	9.07449
608.403	8.86546
610.136	8.91338
611.87	9.53464
613.603	9.27765
615.334	9.33737
617.067	10.9054
618.799	10.9956
620.529	10.4712
622.26	10.5964
623.991	10.4664
625.72	11.1471
627.451	11.2911
629.181	11.1323
630.909	12.0596
632.638	12.4156
634.368	13.0432
636.095	13.7169
637.823	12.5208
639.551	12.4695
641.277	12.2681
643.005	12.2737
644.73	11.9649
646.457	11.1301
648.184	9.99135
649.908	10.0994
651.634	10.6145
653.357	11.2997
655.083	11.2848
656.806	10.7861
658.53	10.3299
660.253	11.4389
661.977	11.3369
663.7	12.8019
665.422	12.8459
667.145	14.0083
668.865	14.3641
670.588	14.7549
672.308	14.8631
674.027	15.5911
675.749	16.4557
677.468	16.9757
679.188	17.2313
680.907	18.0685
682.627	18.0328
684.345	18.6163
686.064	19.6021
687.781	19.777
689.498	19.9876
691.216	19.4691
692.932	19.7192
694.65	20.2381
696.366	20.0742
698.081	20.8051
699.797	20.1476
701.512	20.1901
703.228	20.5905
704.942	20.3865
706.655	20.2949
708.371	19.9631
710.083	19.9076
711.796	20.5101
713.51	20.7843
715.222	22.2932
716.934	22.1415
718.645	22.0677
720.358	22.226
722.068	21.915
723.779	21.3391
725.49	22.6118
727.2	22.738
728.909	23.3962
730.618	23.1621
732.329	23.4894
734.037	25.0143
735.745	26.2164
737.453	26.1275
739.16	26.3578
740.869	27.4167
742.576	28.0354
744.282	28.2201
745.988	29.2094
747.694	29.7032
749.401	31.8292
751.107	32.1344
752.811	33.6057
754.516	34.7288
756.22	36.1086
757.924	38.3008
759.627	40.7339
761.332	41.6125
763.035	42.473
764.738	44.6458
766.44	46.8351
768.142	49.1362
769.843	51.0255
771.544	52.8191
773.245	53.5372
774.946	54.9705
776.646	55.4582
778.346	56.1766
780.046	57.7366
781.745	59.169
783.444	60.973
785.143	61.5673
786.841	63.7078
788.539	65.4376
790.237	67.2664
791.934	68.3323
793.631	69.4451
795.328	71.2583
797.024	73.1999
798.72	74.8891
800.416	75.9541
802.112	75.7705
803.807	76.7284
805.502	76.6037
807.196	76.4665
808.89	76.8617
810.584	76.1945
812.278	75.8242
813.971	74.9703
815.664	74.4307
817.354	74.6388
819.047	74.1448
820.739	72.7124
822.43	72.5605
824.122	72.2125
825.813	71.1
827.503	69.4821
829.192	68.3357
830.882	67.6553
832.571	66.7609
834.261	65.1062
835.95	64.3547
837.637	64.665
839.325	63.267
841.013	62.6341
842.701	61.909
844.389	60.8304
846.074	58.4955
847.761	57.5209
849.447	56.9721
851.131	55.2623
852.817	53.0576
854.503	51.4887
856.188	50.6583
857.871	49.0287
859.556	47.9854
861.24	47.5259
862.922	46.5116
864.606	46.7831
866.289	46.5109
867.97	45.3783
869.653	45.4117
871.336	44.7929
873.016	44.7438
874.698	45.0194
876.379	44.5745
878.058	45.1406
879.739	45.0673
881.418	44.9523
883.098	44.4252
884.778	43.4495
886.456	43.1583
888.135	42.9284
889.812	41.6414
891.49	41.1537
893.167	41.4477
894.845	40.7594
896.523	41.2264
898.198	41.1585
899.875	41.3675
901.55	41.3104
903.226	40.3844
904.901	39.7021
906.576	40.3479
908.25	38.1
909.925	37.5196
911.598	37.4356
913.271	36.8614
914.945	37.4928
916.617	37.638
918.291	38.3891
919.962	39.6499
921.635	38.6632
923.306	37.0964
924.978	37.1734
926.648	36.0774
928.318	34.9568
929.989	34.6786
931.659	35.1933
933.328	35.8809
934.998	35.7112
936.666	35.4307
938.336	35.6734
940.004	35.0943
941.671	35.2765
943.34	34.6533
945.007	34.1827
946.673	32.6239
948.339	32.9034
950.007	33.3456
951.672	32.6214
953.337	33.7298
955.004	33.8865
956.669	33.9144
958.333	32.9272
959.997	31.9327
961.662	32.0099
963.326	31.3797
964.989	32.3472
966.651	33.4648
968.315	34.4087
969.977	35.4659
971.639	35.2014
973.301	35.68
974.962	36.8621
976.624	37.4988
978.285	37.5338
979.945	37.9774
981.605	38.1912
983.264	37.8634
984.924	37.5941
986.583	37.0628
988.243	35.9481
989.901	35.93
991.56	34.8713
993.217	35.8798
994.875	35.8001
996.532	36.4344
998.188	37.188
999.845	36.4432
1001.5	36.2737
1003.16	35.6505
1004.81	34.7789
1006.47	34.2928
1008.12	34.4246
1009.78	34.3924
1011.43	35.0604
1013.09	35.8892
1014.74	36.2597
1016.39	36.3725
1018.05	35.3412
1019.7	35.328
1021.35	36.3907
1023	36.6267
1024.65	37.3078
1026.31	36.3498
1027.96	37.1077
1029.61	37.5245
1031.26	37.9079
1032.91	38.3395
1034.56	38.1868
1036.21	38.7136
1037.86	38.316
1039.51	37.7256
1041.16	37.5743
1042.8	39.0324
1044.45	40.1473
1046.1	40.8195
1047.75	41.6423
1049.39	42.1232
1051.04	41.3986
1052.69	40.3495
1054.33	39.019
1055.98	38.3794
1057.62	36.8059
1059.27	36.0183
1060.91	34.5102
1062.56	33.4029
1064.2	32.189
1065.85	29.9905
1067.49	29.0049
1069.13	26.6758
1070.77	25.5919
1072.42	25.2618
1074.06	23.5373
1075.7	23.7313
1077.34	22.8062
1078.98	21.4327
1080.62	19.3666
1082.27	17.898
1083.91	15.9379
1085.55	15.1394
1087.18	14.8565
1088.82	14.6894
1090.46	15.1584
1092.1	15.5801
1093.74	15.026
1095.38	14.2256
1097.02	14.611
1098.65	15.2595
1100.29	15.1247
1101.93	16.2153
1103.56	16.2352
1105.2	15.4098
1106.84	15.5172
1108.47	15.8665
1110.11	14.9281
1111.74	14.736
1113.38	14.7469
1115.01	15.0195
1116.64	15.0062
1118.28	15.853
1119.91	15.6542
1121.54	16.2517
1123.18	16.657
1124.81	17.4446
1126.44	17.1122
1128.07	16.4296
1129.7	16.7539
1131.33	16.833
1132.97	15.4658
1134.6	14.9048
1136.23	15.3536
1137.86	14.88
1139.49	14.2509
1141.11	13.739
1142.74	12.3465
1144.37	11.9431
1146	11.7379
1147.63	10.7164
1149.26	10.5454
1150.88	9.15136
1152.51	9.66112
1154.14	9.28568
1155.76	9.0298
1157.39	9.43387
1159.01	7.70515
1160.64	6.67871
1162.27	6.39313
1163.89	6.14459
1165.51	5.98147
1167.14	7.31598
1168.76	7.00633
1170.39	6.96087
1172.01	6.1092
1173.63	5.3531
1175.25	4.76023
1176.88	5.07372
1178.5	5.6368
1180.12	5.19124
1181.74	4.8232
1183.36	5.88325
1184.98	4.96511
1186.6	5.7535
1188.22	6.61722
1189.84	7.20654
1191.46	6.88196
1193.08	9.06217
1194.7	9.62415
1196.32	10.6549
1197.94	11.8756
1199.55	12.8739
1201.17	14.1397
1202.79	15.893
1204.41	17.2321
1206.02	18.5016
1207.64	19.929
1209.25	20.9838
1210.87	23.8747
1212.48	24.9464
1214.1	27.0977
1215.71	28.2321
1217.33	29.9345
1218.94	29.8138
1220.56	30.7495
1222.17	31.8993
1223.79	33.074
1225.4	35.6057
1227.01	37.1213
1228.62	38.4275
1230.23	38.7318
1231.85	39.8034
1233.46	41.0865
1235.07	42.285
1236.68	42.6187
1238.29	43.1182
1239.9	43.0677
1241.51	43.8032
1243.12	44.948
1244.73	45.9885
1246.34	46.7326
1247.94	46.8126
1249.55	46.7009
1251.16	47.5595
1252.77	46.6901
1254.37	47.0507
1255.98	47.7361
1257.59	47.6222
1259.2	47.896
1260.8	48.392
1262.41	49.1419
1264.01	49.0421
1265.62	48.7318
1267.22	49.9947
1268.83	50.3432
1270.43	51.298
1272.03	51.6024
1273.64	51.4659
1275.24	50.9677
1276.85	51.1954
1278.45	51.0237
1280.05	51.4498
1281.65	52.8221
1283.25	53.0413
1284.85	53.8685
1286.46	54.5825
1288.06	54.2469
1289.66	54.1603
1291.26	55.5484
1292.86	56.0796
1294.46	56.5794
1296.06	56.6603
1297.66	57.3139
1299.25	58.1004
1300.85	58.3415
1302.45	59.386
1304.05	59.5233
1305.65	60.8783
1307.24	61.4261
1308.84	62.0304
1310.43	62.4153
1312.03	63.7817
1313.63	65.0161
1315.22	65.0463
1316.82	65.2218
1318.41	64.8924
1320.01	64.7782
1321.6	65.8908
1323.2	66.6262
1324.79	66.6896
1326.38	65.9413
1327.98	64.9886
1329.57	64.9571
1331.16	65.2596
1332.76	64.6085
1334.35	64.9051
1335.94	64.6056
1337.53	63.3286
1339.12	62.6077
1340.71	61.3656
1342.3	59.9342
1343.89	58.1753
1345.48	58.0806
1347.07	57.4943
1348.66	56.2256
1350.25	54.664
1351.84	52.5923
1353.43	49.9903
1355.01	48.443
1356.6	47.0882
1358.19	45.5831
1359.77	45.0792
1361.36	43.4136
1362.95	42.2347
1364.53	41.3949
1366.12	40.2656
1367.71	39.2553
1369.29	39.4029
1370.88	39.7847
1372.46	39.1151
1374.04	39.0583
1375.63	38.7557
1377.21	38.3059
1378.8	37.985
1380.38	36.7586
1381.96	37.8907
1383.54	37.3278
1385.13	38.1196
1386.71	38.0209
1388.29	36.7074
1389.87	36.9715
1391.45	37.362
1393.03	37.6873
1394.61	37.2565
1396.19	37.1051
1397.77	37.292
1399.35	38.8488
1400.93	40.2583
1402.51	40.2067
1404.09	40.7041
1405.67	41.8585
1407.24	42.6927
1408.82	43.9795
1410.4	44.9767
1411.98	44.6535
1413.55	45.6927
1415.13	46.3116
1416.71	46.9003
1418.28	48.3375
1419.86	50.6672
1421.43	52.2988
1423.01	53.4926
1424.58	56.1817
1426.16	57.9505
1427.73	59.0043
1429.31	60.4745
1430.88	62.8735
1432.45	64.3633
1434.02	67.5673
1435.6	69.8874
1437.17	71.2959
1438.74	73.0652
1440.31	73.6935
1441.88	75.235
1443.45	76.0692
1445.03	76.553
1446.6	77.188
1448.17	76.954
1449.74	77.6658
1451.3	76.6897
1452.87	77.1356
1454.44	75.5249
1456.01	74.9455
1457.58	74.2462
1459.15	73.4239
1460.72	72.855
1462.28	71.5128
1463.85	69.7534
1465.42	67.7395
1466.98	66.1632
1468.55	65.1013
1470.12	63.0445
1471.68	61.3027
1473.25	59.5386
1474.81	56.9634
1476.38	55.2437
1477.94	53.2271
1479.51	50.7328
1481.07	48.5841
1482.63	45.7156
1484.2	43.9011
1485.76	40.5533
1487.32	38.2521
1488.88	36.2303
1490.45	34.0252
1492.01	32.023
1493.57	30.0864
1495.13	28.7066
1496.69	27.2446
1498.25	25.4466
1499.81	23.2566
1501.37	22.2046
1502.93	21.1094
1504.49	20.4871
1506.05	19.3494
1507.61	19.2975
1509.17	19.3469
1510.73	18.7691
1512.28	17.8582
1513.84	16.3904
1515.4	15.1648
1516.96	14.8691
1518.51	14.9902
1520.07	15.2834
1521.63	15.6255
1523.18	15.5772
1524.74	16.0732
1526.29	16.6154
1527.85	17.1715
1529.4	17.7526
1530.96	19.5368
1532.51	19.7374
1534.06	20.4267
1535.62	22.0996
1537.17	22.9324
1538.72	24.0133
1540.28	24.143
1541.83	24.1361
1543.38	25.3964
1544.93	26.4885
1546.48	27.3564
1548.03	28.4565
1549.59	29.5798
1551.14	30.0921
1552.69	31.319
1554.24	32.3649
1555.79	33.8143
1557.34	34.4218
1558.88	34.9923
1560.43	34.6161
1561.98	35.9406
1563.53	36.1864
1565.08	36.8357
1566.62	37.673
1568.17	37.9413
1569.72	38.208
1571.27	38.5659
1572.81	38.9501
1574.36	38.9054
1575.9	39.8733
1577.45	40.5042
1579	40.3958
1580.54	40.6483
1582.09	42.0358
1583.63	41.9354
1585.17	43.0124
1586.72	43.0969
1588.26	43.0048
1589.8	43.3984
1591.35	44.0313
1592.89	44.8054
1594.43	45.1466
1595.97	45.0574
1597.52	45.0133
1599.06	45.2771
1600.6	45.1506
1602.14	46.1082
1603.68	45.8589
1605.22	46.6292
1606.76	46.4281
1608.3	46.1714
1609.84	45.9878
1611.38	46.0708
1612.92	45.7066
1614.46	44.9389
1615.99	44.577
1617.53	44.2734
1619.07	44.7248
1620.61	44.3521
1622.14	45.2514
1623.68	45.7525
1625.22	45.7852
1626.75	46.6226
1628.29	47.3401
1629.82	48.6374
1631.36	48.6221
1632.9	49.2042
1634.43	50.2597
1635.96	51.0431
1637.5	52.4109
1639.03	53.1989
1640.57	53.645
1642.1	55.1367
1643.63	56.4867
1645.16	57.3019
1646.7	58.0699
1648.23	58.3688
1649.76	60.5916
1651.29	61.4951
1652.82	61.0993
1654.36	61.3483
1655.89	61.2988
1657.42	61.8852
1658.95	61.1104
1660.48	60.6576
1662.01	60.6129
1663.53	59.3862
1665.06	59.2265
1666.59	58.4727
1668.12	56.9546
1669.65	55.5748
1671.18	53.1727
1672.7	51.8569
1674.23	50.6167
1675.76	48.9215
1677.29	47.854
1678.81	46.4725
1680.34	44.2251
1681.86	42.9903
1683.39	39.592
1684.91	36.8663
1686.44	34.8688
1687.96	31.8544
1689.49	29.5663
1691.01	28.156
1692.54	25.6418
1694.06	22.8954
1695.58	21.0018
1697.11	18.5708
1698.63	17.5282
1700.15	15.1759
1701.67	13.4551
1703.2	12.8215
1704.72	12.0006
1706.24	10.7199
1707.76	8.92785
1709.28	7.94598
1710.8	7.00347
1712.32	6.03088
1713.84	5.18358
1715.36	4.5337
1716.88	5.6376
1718.4	6.27171
1719.91	6.17883
1721.43	6.03884
1722.95	5.45219
1724.47	5.80909
1725.99	6.64337
1727.5	5.83885
1729.02	4.76882
1730.54	5.79469
1732.05	4.8742
1733.57	4.90944
1735.09	4.97142
1736.6	5.37
1738.12	5.09158
1739.63	5.14798
1741.15	4.94666
1742.66	4.19835
1744.18	4.0107
1745.69	3.72454
1747.2	3.55152
1748.72	4.50554
1750.23	4.93806
1751.74	5.23432
1753.25	5.48108
1754.77	5.06098
1756.28	4.64909
1757.79	4.2229
1759.3	3.69361
1760.81	3.55291
1762.32	3.70244
1763.83	2.94399
1765.34	2.96084
1766.85	2.79823
1768.36	1.69838
1769.87	1.48332
1771.38	1.70504
1772.89	1.15085
1774.4	1.79837
1775.91	2.01892
1777.41	2.0073
1778.92	1.93734
1780.43	1.5331
1781.94	0.61839
1783.44	0.969611
1784.95	1.54523
1786.45	1.45327
1787.96	1.7568
1789.47	2.30521
1790.97	3.07532
1792.47	3.01641
1793.98	2.90593
1795.48	3.23523
1796.99	3.07354
1798.49	3.3159
1800	4.01965
1801.5	3.88918
1803	3.73702
1804.51	3.64998
1806.01	4.17684
1807.51	4.32561
1809.01	5.12648
1810.51	5.21961
1812.02	4.5828
1813.52	4.50694
1815.02	4.15929
1816.52	3.80039
1818.02	4.00606
1819.52	3.86063
1821.02	3.85625
1822.52	3.72211
1824.02	3.86485
1825.51	3.59426
1827.01	3.61129
1828.51	3.34514
1830.01	3.15143
1831.51	3.14355
1833	3.17829
1834.5	3.00646
1836	2.65007
1837.49	2.90109
1838.99	3.00512
1840.49	3.37733
1841.98	3.39291
1843.48	2.5244
1844.97	3.34628
1846.47	3.88317
1847.96	4.12234
1849.46	4.3126
1850.95	3.61338
1852.45	2.87555
1853.94	2.94961
1855.43	2.8314
1856.92	2.0425
1858.42	2.3468
1859.91	1.76309
1861.4	1.43623
1862.89	1.78492
1864.39	2.88475
1865.88	3.15378
1867.37	3.27741
1868.86	3.39531
1870.35	2.75589
1871.84	3.11378
1873.33	3.28972
1874.82	3.10945
1876.31	2.92792
1877.8	3.69713
1879.29	3.25933
1880.77	3.1556
1882.26	3.19489
1882.52	3.08421
1884.02	2.80305
1885.51	2.58006
1887.01	3.10555
1888.5	3.2449
1889.99	3.00863
1891.49	2.77116
1892.98	2.6513
1894.47	3.57859
1895.96	3.68646
1897.46	4.0263
1898.95	3.82374
1900.44	4.06059
1901.93	3.98314
1903.42	3.80747
1904.91	3.8731
1906.4	3.85308
1907.89	3.8112
1909.38	4.06448
1910.87	3.99466
1912.36	3.99746
1913.85	4.09493
1915.34	4.57487
1916.83	4.97839
1918.32	5.16435
1919.8	4.48447
1921.29	4.40725
1922.78	3.90894
1924.27	3.8227
1925.75	4.77848
1927.24	4.96746
1928.73	4.78644
1930.21	4.70814
1931.7	5.39367
1933.18	5.07493
1934.67	5.55725
1936.15	5.7422
1937.64	5.77395
1939.12	4.79379
1940.61	4.20994
1942.09	3.5879
1943.57	3.69933
1945.06	3.53282
1946.54	3.37741
1948.02	3.28645
1949.51	3.67686
1950.99	3.53249
1952.47	2.87844
1953.95	3.59962
1955.43	4.34348
1956.91	4.8809
1958.39	4.7779
1959.87	4.83168
1961.36	4.67932
1962.84	4.69996
1964.32	4.95095
1965.79	5.49254
1967.27	5.84934
1968.75	5.89445
1970.23	5.37449
1971.71	5.42754
1973.19	5.82647
1974.66	6.33523
1976.14	6.46951
1977.62	6.65184
1979.1	7.28529
1980.57	7.2131
1982.05	7.72999
1983.53	7.9743
1985	8.78861
1986.48	9.91034
1987.95	10.4148
1989.43	10.9948
1990.9	11.2625
1992.38	11.0898
1993.85	11.8571
1995.33	12.5672
1996.8	12.9387
1998.27	13.0441
1999.75	13.2355
2001.22	12.5881
2002.69	12.398
2004.16	12.0198
2005.64	12.0591
2007.11	11.9113
2008.58	12.0432
2010.05	11.4777
2011.52	11.2698
2012.99	11.5029
2014.46	12.2585
2015.93	11.5413
2017.4	11.8631
2018.87	11.8402
2020.34	12.372
2021.81	12.6466
2023.28	12.3535
2024.75	11.7242
2026.22	11.9677
2027.69	11.8135
2029.15	11.4971
2030.62	11.5828
2032.09	11.1346
2033.56	11.3662
2035.02	11.4731
2036.49	11.65
2037.95	11.1584
2039.42	11.0448
2040.89	10.8386
2042.35	10.5214
2043.82	10.6097
2045.28	10.5038
2046.75	9.87301
2048.21	8.99463
2049.67	8.42709
2051.14	7.92975
2052.6	7.00032
2054.06	6.43849
2055.53	6.71772
2056.99	6.87838
2058.45	7.38004
2059.92	6.98427
2061.38	6.66415
2062.84	7.07798
2064.3	7.67269
2065.76	7.17239
2067.22	7.05975
2068.68	6.6808
2070.14	6.93171
2071.6	6.01462
2073.06	6.2309
2074.52	6.27144
2075.98	6.34315
2077.44	6.91196
2078.9	6.64673
2080.36	7.51779
2081.82	7.58617
2083.27	7.83824
2084.73	8.64132
2086.19	9.08721
2087.65	9.26477
2089.1	9.12939
2090.56	9.81346
2092.01	10.3815
2093.47	10.591
2094.93	10.1537
2096.38	9.71168
2097.84	10.6956
2099.29	11.1383
2100.75	11.2659
2102.2	11.5854
2103.66	12.3527
2105.11	12.3821
2106.56	11.9677
2108.02	12.4348
2109.47	12.0803
2110.92	12.2435
2112.37	12.6787
2113.83	12.1996
2115.28	12.184
2116.73	12.3745
2118.18	12.4857
2119.63	12.6975
2121.09	12.9135
2122.54	13.93
2123.99	14.2035
2125.44	14.48
2126.89	14.9585
2128.34	15.4953
2129.79	16.4009
2131.23	16.6196
2132.68	16.8967
2134.13	17.6163
2135.58	18.3568
2137.03	19.1235
