#Acq. time (s)=	45
#Accumulations=	2
#Range (cm-¹)=	200...3150
#Windows=	2
#Auto scanning=	Off
#Autofocus=	Off
#Macrospot=	Off
#AutoExposure=	Off
#Spike filter=	Multiple accum.
#Delay time (s)=	0
#Binning=	1
#Readout mode=	Signal
#DeNoise=	Off
#ICS correction=	On
#Dark correction=	Off
#Inst. Process=	Off
#Detector Gain=	Best Dynamic Range
#Detector ADC=	20 kHz       
#Detector temperature (°C)=	-69.85
#Instrument=	LabRAM HR Evol
#Detector=	Synapse
#Objective=	x100
#Grating=	600 gr/mm
#ND Filter=	100%
#Laser (nm)=	532 
#Hole=	100.021
#Range=	Auto
#Laser Pol.=	No
#Raman. Pol.=	No
#Laser Pol. (°)=	-0.0007625
#Raman Pol. (°)=	89.9995
#Collection=	Microscope
#StageXY=	Marzhauser
#StageZ=	Marzhauser
#X (µm)=	-2390.4
#Y (µm)=	2141.2
#Z (µm)=	-40.8
#Full time(mm:ss)=	3:18
#Project=	
#Sample=	
#Site=	
#Title=	Mb_10_14_07_2x_45s_532 nm_x100_100%_600 gr_mm
#Remark=	
#Date=	07.07.2022 13:54
#Acquired=	07.07.2022 13:54:52
#Base:Fit=	10.08.2022 10:21:11
#Base:Sub=	10.08.2022 10:21:41
#Filter:Polynom=	16.08.2022 10:17:53
#AxisType[0]=Intens
#AxisUnit[0]=Cnt
#AxisType[1]=Spectr
#AxisUnit[1]=1/cm
200.43	17.0702
202.246	14.2701
204.061	10.8429
205.875	9.06232
207.688	7.08124
209.501	4.82231
211.316	3.0698
213.129	2.00613
214.941	1.11144
216.753	1.98738
218.566	3.02191
220.377	4.23211
222.188	5.96407
223.999	8.01673
225.809	11.2014
227.618	14.9231
229.43	17.0095
231.239	18.9525
233.047	20.7389
234.855	22.2833
236.663	24.2735
238.471	26.0189
240.278	26.1572
242.087	27.0105
243.894	27.7799
245.7	28.2151
247.506	28.6033
249.311	27.5733
251.116	27.7267
252.921	29.971
254.725	30.6797
256.529	31.2244
258.333	31.9116
260.136	32.3688
261.939	33.0269
263.744	32.9094
265.546	32.9798
267.348	31.8027
269.15	30.4517
270.951	29.1183
272.752	28.6863
274.552	28.0188
276.353	27.3
278.152	26.1685
279.952	24.2772
281.751	21.9808
283.55	20.4034
285.348	18.6675
287.146	15.2318
288.942	13.2056
290.739	11.6024
292.536	11.6323
294.333	10.9205
296.129	9.42852
297.925	9.44421
299.721	10.5344
301.516	10.2251
303.311	10.5092
305.106	11.4639
306.9	13.5668
308.694	14.2117
310.486	14.3961
312.279	15.4479
314.072	17.1943
315.864	18.2369
317.656	18.551
319.448	16.8692
321.24	17.5336
323.029	18.0133
324.819	17.5451
326.61	17.122
328.4	16.0841
330.19	14.7603
331.977	14.9149
333.766	14.8161
335.555	14.4235
337.343	13.1625
339.131	12.3624
340.917	13.535
342.704	13.9565
344.491	13.6527
346.277	13.8073
348.062	13.0328
349.848	12.5887
351.633	12.8667
353.416	12.504
355.201	11.006
356.986	10.6198
358.77	10.8002
360.552	11.3123
362.335	11.5772
364.118	11.9306
365.899	12.6826
367.682	11.9457
369.464	12.2041
371.243	12.531
373.025	13.3172
374.806	12.6146
376.585	13.3606
378.365	15.0234
380.143	17.048
381.923	17.9837
383.702	18.446
385.479	19.8385
387.258	21.0401
389.034	23.4664
390.812	24.053
392.59	25.6153
394.365	28.3195
396.142	29.2052
397.916	30.2456
399.693	30.697
401.467	32.3375
403.242	33.012
405.015	32.83
406.79	32.118
408.565	32.5657
410.337	33.6334
412.111	33.3194
413.882	32.5884
415.656	32.5514
417.426	33.4435
419.197	32.7972
420.969	32.6104
422.739	32.6108
424.51	32.1799
426.279	30.6803
428.05	29.4972
429.819	28.4435
431.589	26.9996
433.356	25.6088
435.124	24.9554
436.893	23.4915
438.66	23.4256
440.428	22.8093
442.194	20.2381
443.96	19.4525
445.727	18.871
447.492	18.2209
449.259	18.1
451.023	17.4866
452.787	18.3267
454.553	18.3087
456.316	16.7168
458.079	16.0846
459.844	14.5199
461.606	13.7203
463.368	12.9626
465.132	13.6986
466.893	14.2064
468.654	14.4348
470.415	14.4679
472.177	15.8753
473.937	17.267
475.696	17.2419
477.456	19.3372
479.217	18.0258
480.975	19.1518
482.733	19.8301
484.491	20.0011
486.251	21.1911
488.008	22.0233
489.765	23.3696
491.522	23.1184
493.278	23.9574
495.036	25.3612
496.791	25.9676
498.546	25.4506
500.301	26.2047
502.056	27.1946
503.81	27.0321
505.566	27.6687
507.319	27.2209
509.073	27.6938
510.825	27.3018
512.578	26.7666
514.33	25.5673
516.082	24.3616
517.833	25.1977
519.587	25.3073
521.337	25.1152
523.088	23.8735
524.838	21.8143
526.588	20.9022
528.337	20.8644
530.087	19.6712
531.835	19.0816
533.584	18.0104
535.332	18.2346
537.08	17.5521
538.827	16.5047
540.574	15.7829
542.321	14.0114
544.068	12.9757
545.814	11.9337
547.56	10.3355
549.305	10.6354
551.05	9.59124
552.795	8.69548
554.54	8.07912
556.284	7.27515
558.027	6.222
559.771	6.22565
561.514	5.12969
563.257	3.93537
564.999	3.67836
566.742	2.01776
568.481	1.98643
570.223	1.38614
571.964	2.46457
573.705	2.19837
575.445	1.02313
577.185	0.53136
578.925	0.385434
580.665	1.35468
582.402	1.1279
584.141	0.420941
585.879	1.57957
587.617	2.69753
589.355	3.40183
591.092	2.6184
592.828	3.42317
594.564	3.31846
596.301	2.89163
598.037	3.58585
599.773	3.83761
601.506	3.50051
603.242	4.8484
604.976	5.60763
606.711	5.7251
608.443	5.64338
610.177	5.44284
611.91	5.84104
613.644	7.22794
615.374	7.19298
617.107	7.21568
618.839	7.56687
620.569	7.98299
622.3	8.63587
624.032	8.47564
625.761	9.20239
627.491	9.37792
629.221	9.80138
630.949	11.5963
632.679	11.1534
634.408	10.8946
636.135	11.5856
637.863	11.1033
639.592	11.6424
641.318	13.4084
643.045	13.9807
644.77	14.2057
646.497	15.0307
648.224	14.8495
649.948	15.8954
651.674	16.4596
653.398	17.4757
655.123	17.9048
656.846	18.0644
658.57	19.1495
660.293	18.4242
662.017	18.1794
663.738	20.2366
665.462	19.7633
667.185	19.8688
668.905	20.0398
670.628	20.6731
672.348	20.6264
674.067	20.7278
675.789	20.7896
677.508	20.3923
679.228	20.534
680.947	20.1331
682.667	20.4507
684.385	20.7384
686.104	19.0661
687.821	19.5282
689.538	20.4716
691.256	18.9834
692.972	18.497
694.69	16.8806
696.406	15.1556
698.121	14.6339
699.837	14.1823
701.552	13.7647
703.268	13.7218
704.982	12.2213
706.695	10.644
708.41	11.079
710.123	11.5889
711.836	11.6262
713.55	12.2045
715.262	13.8215
716.973	14.945
718.685	14.5296
720.398	16.201
722.108	17.2625
723.818	18.562
725.53	21.1673
727.24	22.8324
728.949	23.1601
730.658	23.8423
732.369	25.0355
734.077	26.3319
735.785	27.296
737.493	28.2982
739.2	29.8654
740.909	30.6123
742.616	31.5965
744.322	33.3934
746.028	34.8155
747.734	36.0719
749.441	37.5406
751.146	38.5068
752.851	39.8249
754.555	41.2008
756.26	41.8115
757.963	43.0431
759.667	44.8691
761.372	46.1861
763.075	47.2023
764.777	46.7528
766.479	47.4592
768.181	48.3889
769.883	49.3658
771.584	50.026
773.285	51.2179
774.986	50.8391
776.686	49.8474
778.386	49.4109
780.085	48.3049
781.785	48.2441
783.484	49.1496
785.182	48.2013
786.881	49.4446
788.579	49.4314
790.276	50.1352
791.974	51.6154
793.671	53.2932
795.367	53.5208
797.064	55.2248
798.76	56.2454
800.456	57.1478
802.151	56.8066
803.846	56.6523
805.541	56.8759
807.236	56.6142
808.93	56.6351
810.624	56.2372
812.317	55.353
814.01	55.4167
815.703	55.7878
817.394	56.5491
819.086	56.0968
820.778	57.1452
822.47	58.317
824.161	59.1583
825.852	59.3517
827.543	60.3144
829.231	60.9562
830.921	61.3668
832.611	60.967
834.3	61.7126
835.989	63.1943
837.676	62.2097
839.364	62.2402
841.053	61.6942
842.74	61.626
844.426	60.1914
846.113	58.823
847.8	57.2558
849.486	55.2709
851.171	55.2963
852.857	54.1356
854.542	53.632
856.227	51.896
857.911	49.5031
859.595	48.146
861.279	46.7164
862.961	46.0376
864.645	44.9748
866.329	44.8863
868.01	44.9809
869.692	43.7465
871.375	44.3686
873.055	41.5314
874.737	40.0301
876.418	39.328
878.097	38.5434
879.778	38.155
881.457	36.9532
883.137	35.1252
884.817	33.5385
886.495	32.2971
888.174	30.321
889.851	29.1908
891.53	27.8481
893.206	27.219
894.884	27.5491
896.562	28.2158
898.237	28.0659
899.914	28.0398
901.589	28.2227
903.265	27.938
904.94	29.4916
906.615	29.1029
908.289	29.1926
909.964	28.6612
911.637	29.1703
913.31	29.5276
914.984	29.662
916.656	29.1134
918.33	29.011
920.001	27.9845
921.674	25.8167
923.345	25.6825
925.015	24.5913
926.687	23.8848
928.357	23.2523
930.028	22.8333
931.698	22.2009
933.366	21.3874
935.037	20.9768
936.705	20.5691
938.373	20.4478
940.043	19.5925
941.71	18.9408
943.379	18.8563
945.046	18.0985
946.712	18.138
948.378	18.4941
950.046	18.4896
951.711	19.361
953.376	18.0751
955.043	18.3422
956.708	17.3604
958.372	18.3872
960.036	18.7998
961.701	17.8181
963.364	16.3426
965.027	16.1592
966.69	17.1638
968.354	17.2647
970.016	18.9098
971.678	19.0545
973.339	20.3028
975	20.7559
976.661	22.6159
978.324	22.8766
979.984	22.3753
981.644	21.6541
983.303	22.1036
984.962	22.9294
986.621	22.2051
988.282	22.4665
989.94	21.6797
991.598	21.2605
993.256	21.0612
994.913	21.3233
996.57	22.2328
998.227	21.0523
999.884	21.289
1001.54	21.0203
1003.2	20.5217
1004.85	19.3198
1006.51	17.8133
1008.16	15.8734
1009.82	15.0711
1011.47	14.7453
1013.12	13.7885
1014.78	14.7142
1016.43	15.868
1018.08	16.8905
1019.74	18.2971
1021.39	19.0329
1023.04	20.1224
1024.69	20.9839
1026.34	21.0032
1028	21.729
1029.65	23.2291
1031.3	24.2746
1032.95	24.4278
1034.6	25.2483
1036.25	23.9758
1037.9	24.9515
1039.55	24.5497
1041.19	25.1341
1042.84	24.537
1044.49	25.6095
1046.14	26.7856
1047.79	28.2801
1049.43	28.6682
1051.08	29.6299
1052.73	30.3801
1054.37	29.2571
1056.02	28.129
1057.66	27.4095
1059.31	26.6197
1060.95	24.4082
1062.6	23.3548
1064.24	23.4452
1065.88	22.6551
1067.53	22.8491
1069.17	20.574
1070.81	20.2748
1072.46	19.3719
1074.1	18.0438
1075.74	17.3783
1077.38	17.0449
1079.02	15.9289
1080.66	13.8809
1082.3	12.8772
1083.94	10.9656
1085.58	9.39415
1087.22	6.79649
1088.86	5.70364
1090.5	6.70455
1092.14	7.3248
1093.78	8.13538
1095.42	8.08627
1097.05	8.59809
1098.69	8.56431
1100.33	7.88474
1101.97	7.54732
1103.6	7.2646
1105.24	7.06843
1106.87	6.34592
1108.51	6.40468
1110.15	6.68323
1111.78	7.34638
1113.41	6.96641
1115.05	7.27668
1116.68	6.71396
1118.31	6.48468
1119.95	6.88633
1121.58	6.75421
1123.21	7.54536
1124.85	7.40894
1126.48	8.13477
1128.11	7.852
1129.74	8.36864
1131.37	8.36908
1133	8.20537
1134.63	7.06891
1136.26	5.61863
1137.89	5.74854
1139.52	5.85551
1141.15	5.47171
1142.78	6.05653
1144.41	8.26994
1146.04	8.51176
1147.66	8.19809
1149.29	9.01419
1150.92	8.56317
1152.55	8.76722
1154.17	8.12424
1155.8	7.24323
1157.43	7.84339
1159.05	7.50659
1160.68	7.53894
1162.3	7.61868
1163.93	6.49275
1165.55	5.88141
1167.17	4.68778
1168.8	4.20013
1170.42	5.23801
1172.05	5.79864
1173.67	4.39985
1175.29	4.35628
1176.91	3.44984
1178.54	3.17448
1180.16	3.8957
1181.78	3.71387
1183.4	3.60412
1185.02	4.02056
1186.64	3.17904
1188.26	1.9686
1189.88	1.32261
1191.5	0.927046
1193.12	0.51617
1194.74	-0.329798
1196.36	0.179632
1197.97	0.0548767
1199.59	0.414509
1201.21	0.525608
1202.83	0.916313
1204.44	1.46728
1206.06	1.39902
1207.68	1.88551
1209.29	2.08055
1210.91	2.38423
1212.52	2.5174
1214.14	2.67912
1215.75	4.35191
1217.37	5.5895
1218.98	7.5213
1220.6	8.92165
1222.21	10.2355
1223.82	12.0853
1225.44	13.3638
1227.05	13.4165
1228.66	15.339
1230.27	16.1164
1231.88	17.7552
1233.49	17.8065
1235.1	19.44
1236.72	20.8013
1238.33	22.2567
1239.94	23.1602
1241.55	24.4153
1243.16	24.0179
1244.76	25.5448
1246.37	27.8412
1247.98	29.2796
1249.59	29.5894
1251.2	30.7685
1252.8	30.0836
1254.41	30.0573
1256.02	29.7696
1257.63	28.2859
1259.23	28.6408
1260.84	29.251
1262.44	28.2514
1264.05	27.3
1265.66	27.4106
1267.26	26.2363
1268.87	27.2509
1270.47	28.9128
1272.07	30.3684
1273.68	30.7319
1275.28	31.6998
1276.88	32.4799
1278.48	32.7697
1280.09	32.796
1281.69	33.5017
1283.29	33.0539
1284.89	34.2514
1286.49	34.5626
1288.09	35.8115
1289.69	36.7045
1291.3	37.9451
1292.9	38.219
1294.49	38.7736
1296.09	41.4399
1297.69	41.5602
1299.29	42.3692
1300.89	42.641
1302.49	42.8724
1304.09	43.3253
1305.68	43.6688
1307.28	44.409
1308.88	45.6535
1310.47	46.6572
1312.07	48.4512
1313.66	49.1099
1315.26	50.4965
1316.86	50.5338
1318.45	51.053
1320.05	51.4881
1321.64	51.3481
1323.23	52.7197
1324.83	52.5662
1326.42	52.2551
1328.01	50.8225
1329.61	49.8587
1331.2	49.8603
1332.79	48.4225
1334.38	47.2025
1335.98	46.8205
1337.57	46.8043
1339.16	47.3353
1340.75	47.0311
1342.34	45.2637
1343.93	44.4897
1345.52	44.8723
1347.11	43.7002
1348.7	43.9764
1350.29	42.8276
1351.87	40.6272
1353.46	39.2729
1355.05	38.2456
1356.64	36.689
1358.23	34.8033
1359.81	33.5525
1361.4	32.6259
1362.99	31.508
1364.57	30.987
1366.16	30.1194
1367.74	28.8986
1369.33	26.925
1370.91	25.5533
1372.5	23.8055
1374.08	23.8978
1375.67	23.414
1377.25	20.0581
1378.83	20.2433
1380.42	20.2214
1382	20.6239
1383.58	20.2251
1385.16	20.7806
1386.75	21.7867
1388.33	22.4445
1389.91	21.3211
1391.49	20.2271
1393.07	20.3943
1394.65	19.2261
1396.23	20.1112
1397.81	20.753
1399.39	21.8979
1400.97	22.0863
1402.55	23.1829
1404.13	23.4667
1405.7	24.5465
1407.28	25.7179
1408.86	26.7626
1410.44	27.2382
1412.01	28.5283
1413.59	30.7812
1415.17	34.4411
1416.74	35.9281
1418.32	38.0953
1419.89	40.1674
1421.47	41.8867
1423.05	44.9276
1424.62	48.0287
1426.19	50.0686
1427.77	52.4442
1429.34	54.9582
1430.92	57.5209
1432.49	60.7172
1434.06	63.72
1435.63	65.5697
1437.2	67.483
1438.78	69.878
1440.35	71.8734
1441.92	73.4689
1443.49	74.8524
1445.06	76.6189
1446.63	77.7581
1448.2	79.1456
1449.77	79.6651
1451.34	79.8795
1452.91	79.8443
1454.48	79.9422
1456.05	79.6066
1457.62	81.2786
1459.18	80.032
1460.75	79.0788
1462.32	77.7812
1463.89	77.5349
1465.45	77.5413
1467.02	75.8572
1468.59	74.691
1470.15	75.2529
1471.72	74.9045
1473.28	73.9242
1474.85	73.5529
1476.41	71.5512
1477.98	69.4519
1479.54	66.7319
1481.11	65.861
1482.67	63.6434
1484.23	60.865
1485.8	59.1603
1487.36	57.2789
1488.92	55.7111
1490.48	54.8469
1492.05	53.5132
1493.61	52.3112
1495.17	49.7104
1496.73	48.295
1498.29	46.3773
1499.85	44.6321
1501.41	43.4093
1502.97	41.4236
1504.53	39.4405
1506.09	37.3504
1507.65	35.5768
1509.2	33.3093
1510.76	30.8743
1512.32	28.2315
1513.88	25.5568
1515.44	22.9113
1516.99	20.5471
1518.55	18.5776
1520.1	17.3894
1521.66	16.1849
1523.22	15.2999
1524.77	13.827
1526.33	12.2708
1527.88	10.374
1529.44	8.77849
1530.99	8.49484
1532.55	8.4876
1534.1	7.66701
1535.65	7.86458
1537.21	7.56496
1538.76	8.28402
1540.31	9.43237
1541.86	10.8094
1543.42	12.319
1544.97	12.3516
1546.52	12.1347
1548.07	12.4969
1549.62	12.6458
1551.17	13.3784
1552.72	13.0196
1554.27	13.5832
1555.82	13.889
1557.37	14.6706
1558.92	15.6351
1560.47	16.5954
1562.02	16.6994
1563.57	17.6873
1565.11	18.0531
1566.66	18.4017
1568.21	19.2774
1569.75	20.4607
1571.3	21.2896
1572.85	21.765
1574.39	23.5607
1575.94	24.1116
1577.49	25.7002
1579.03	27.1596
1580.58	27.6477
1582.12	28.3151
1583.67	28.0112
1585.21	27.9898
1586.75	29.2448
1588.3	30.235
1589.84	30.9678
1591.38	32.5184
1592.93	33.7858
1594.47	35.2897
1596.01	36.9786
1597.55	39.1538
1599.09	38.6724
1600.63	38.7364
1602.18	38.407
1603.72	38.4493
1605.26	38.0729
1606.8	38.6912
1608.34	39.8739
1609.87	39.6582
1611.41	39.1651
1612.95	39.5468
1614.49	39.5924
1616.03	40.2925
1617.57	39.4924
1619.11	39.6059
1620.64	39.6238
1622.18	37.721
1623.72	36.8365
1625.25	36.8917
1626.79	37.2302
1628.32	36.7688
1629.86	37.0509
1631.4	36.9192
1632.93	37.1709
1634.47	36.9496
1636	38.1263
1637.53	39.2309
1639.07	38.6651
1640.6	39.6997
1642.14	39.2275
1643.67	40.7451
1645.2	42.5107
1646.73	43.3687
1648.27	43.7863
1649.8	45.5115
1651.33	45.83
1652.86	46.8897
1654.39	47.8193
1655.92	48.9967
1657.45	49.3989
1658.98	50.1079
1660.51	50.5528
1662.04	50.7703
1663.57	52.051
1665.1	52.1306
1666.63	52.1599
1668.16	51.5043
1669.69	51.5362
1671.21	50.8895
1672.74	49.886
1674.27	48.924
1675.79	45.6732
1677.32	44.2078
1678.85	42.7788
1680.37	41.0284
1681.9	39.1026
1683.42	37.9119
1684.95	34.2427
1686.47	32.0584
1688	28.5892
1689.52	27.0455
1691.05	24.127
1692.57	22.6691
1694.1	19.6267
1695.62	18.3319
1697.14	15.7535
1698.66	12.8982
1700.19	12.1911
1701.71	9.79827
1703.23	9.08102
1704.75	7.01762
1706.27	5.88303
1707.79	4.87877
1709.32	4.88336
1710.83	3.50544
1712.35	3.93833
1713.88	2.52879
1715.39	1.53412
1716.91	1.31039
1718.43	0.791468
1719.95	0.957346
1721.47	0.686068
1722.99	0.0540755
1724.5	0.654036
1726.02	1.19427
1727.54	1.7046
1729.06	3.71254
1730.57	3.62304
1732.09	4.67403
1733.61	4.55016
1735.12	4.38868
1736.64	4.31069
1738.15	4.66909
1739.67	5.29834
1741.18	5.30925
1742.7	5.2962
1744.21	4.9338
1745.72	5.97938
1747.24	6.21257
1748.75	6.09076
1750.26	5.79434
1751.78	4.36618
1753.29	4.48192
1754.8	4.26053
1756.31	4.30889
1757.82	4.38833
1759.34	3.73823
1760.85	2.80167
1762.36	2.96075
1763.87	2.03577
1765.38	2.02751
1766.89	1.87254
1768.4	1.7619
1769.91	0.756605
1771.41	0.905249
1772.92	0.832448
1774.43	1.15731
1775.94	1.56731
1777.45	1.14314
1778.96	1.96394
1780.46	1.706
1781.97	2.2352
1783.48	3.12815
1784.98	3.42091
1786.49	3.52189
1788	4.64301
1789.5	4.67423
1791.01	5.18061
1792.51	5.78145
1794.01	5.70004
1795.52	5.90395
1797.02	6.64743
1798.53	6.95699
1800.03	6.75759
1801.54	7.00419
1803.04	7.40763
1804.54	7.54503
1806.04	6.98848
1807.54	7.38663
1809.05	7.5439
1810.55	7.40379
1812.05	7.80307
1813.55	8.43783
1815.05	7.98668
1816.55	8.14429
1818.05	8.40477
1819.55	8.75814
1821.05	9.03559
1822.55	8.58095
1824.05	8.09353
1825.55	7.15637
1827.05	6.21609
1828.55	6.23534
1830.04	6.34455
1831.54	6.48714
1833.04	4.97304
1834.54	3.92821
1836.03	3.09842
1837.53	1.94377
1839.03	1.9834
1840.52	1.44408
1842.02	1.80862
1843.51	1.87351
1845.01	3.15676
1846.5	4.06767
1848	4.63502
1849.49	4.59828
1850.99	4.22837
1852.48	3.35571
1853.97	2.95541
1855.47	2.91365
1856.96	3.61981
1858.45	4.39759
1859.94	4.23251
1861.44	4.57612
1862.93	4.5991
1864.42	3.74348
1865.91	4.10325
1867.4	5.53511
1868.89	4.77641
1870.38	4.73131
1871.87	4.56413
1873.36	5.23723
1874.85	5.3223
1876.34	6.43187
1877.83	6.65293
1879.32	6.72543
1880.81	6.45787
1882.3	6.5601
1882.56	6.19124
1884.06	6.22612
1885.55	6.13063
1887.04	5.84473
1888.54	4.82932
1890.03	5.84543
1891.52	5.97695
1893.02	6.11077
1894.51	6.30775
1896	6.08226
1897.49	5.84805
1898.99	6.38976
1900.48	6.64217
1901.97	7.3682
1903.46	7.6989
1904.95	7.76588
1906.44	7.74191
1907.93	7.81763
1909.42	7.79113
1910.91	8.1192
1912.4	9.15726
1913.89	9.13019
1915.38	9.13673
1916.86	9.39438
1918.35	9.89851
1919.84	9.56706
1921.33	8.91936
1922.82	8.4507
1924.3	8.51475
1925.79	8.33075
1927.28	9.04712
1928.76	9.33842
1930.25	9.63897
1931.74	9.25821
1933.22	9.23814
1934.71	9.0502
1936.19	8.07541
1937.67	7.71758
1939.16	8.65646
1940.64	8.17529
1942.13	7.5383
1943.61	8.4765
1945.09	9.26943
1946.58	8.3296
1948.06	7.37052
1949.54	7.25267
1951.03	6.18062
1952.51	6.2184
1953.99	5.15149
1955.47	4.56296
1956.95	3.55435
1958.43	3.05828
1959.91	2.65916
1961.39	2.71222
1962.87	3.10195
1964.35	4.04418
1965.83	3.24169
1967.31	2.96018
1968.79	2.45509
1970.27	2.61036
1971.75	3.04369
1973.22	4.38357
1974.7	4.15123
1976.18	4.72453
1977.66	4.09884
1979.13	3.79673
1980.61	3.88785
1982.09	3.26502
1983.56	3.93099
1985.04	3.85419
1986.52	3.77786
1987.99	2.68086
1989.47	2.31245
1990.94	3.00936
1992.41	3.09281
1993.89	3.26065
1995.36	3.38541
1996.84	3.15621
1998.31	3.65548
1999.78	3.22446
2001.26	3.7362
2002.73	3.98065
2004.2	3.86505
2005.67	4.31439
2007.15	4.46869
2008.62	4.38807
2010.09	4.27719
2011.56	4.78696
2013.03	5.79304
2014.5	5.36626
2015.97	5.8747
2017.44	6.08742
2018.91	5.7421
2020.38	5.00262
2021.85	6.53976
2023.32	6.18987
2024.79	6.81503
2026.25	7.49941
2027.72	7.20675
2029.19	7.60493
2030.66	8.11034
2032.13	8.75571
2033.59	9.19604
2035.06	9.21376
2036.53	9.60411
2037.99	8.99735
2039.46	9.184
2040.92	9.65578
2042.39	10.6804
2043.85	11.406
2045.32	11.2176
2046.78	12.4206
2048.25	12.1713
2049.71	12.7444
2051.18	12.5113
2052.64	13.9798
2054.1	14.3693
2055.56	14.514
2057.03	15.5247
2058.49	15.7006
2059.95	15.3968
2061.42	15.7459
2062.88	15.7195
2064.34	16.1102
2065.8	16.3198
2067.26	16.6893
2068.72	16.358
2070.18	16.35
2071.64	17.5994
2073.1	17.7015
2074.56	17.8685
2076.02	18.5568
2077.48	18.3198
2078.94	18.5301
2080.39	18.0129
2081.85	17.8837
2083.31	17.033
2084.77	17.9945
2086.22	18.6089
2087.68	17.2812
2089.14	17.4274
2090.6	17.1664
2092.05	18.0463
2093.51	17.9685
2094.96	18.6278
2096.42	18.1041
2097.87	18.2632
2099.33	16.9774
2100.78	17.0753
2102.24	17.0238
2103.69	16.4524
2105.15	15.688
2106.6	15.2213
2108.05	14.9898
2109.51	15.5328
2110.96	15.3403
2112.41	15.2674
2113.86	15.1232
2115.32	15.3188
2116.77	15.3525
2118.22	16.14
2119.67	16.8593
2121.12	16.538
2122.57	16.885
2124.02	17.0123
2125.47	18.122
2126.92	17.6034
2128.37	18.2087
2129.82	18.9225
2131.27	18.2027
2132.72	18.8716
2134.17	19.5058
2135.62	19.6288
2137.06	20.2191
