#Acq. time (s)=	45
#Accumulations=	2
#Range (cm-¹)=	200...3150
#Windows=	2
#Auto scanning=	Off
#Autofocus=	Off
#Macrospot=	Off
#AutoExposure=	Off
#Spike filter=	Multiple accum.
#Delay time (s)=	0
#Binning=	1
#Readout mode=	Signal
#DeNoise=	Off
#ICS correction=	On
#Dark correction=	Off
#Inst. Process=	Off
#Detector Gain=	Best Dynamic Range
#Detector ADC=	20 kHz       
#Detector temperature (°C)=	-69.85
#Instrument=	LabRAM HR Evol
#Detector=	Synapse
#Objective=	x100
#Grating=	600 gr/mm
#ND Filter=	100%
#Laser (nm)=	532 
#Hole=	100.021
#Range=	Auto
#Laser Pol.=	No
#Raman. Pol.=	No
#Laser Pol. (°)=	-0.0007625
#Raman Pol. (°)=	89.9995
#Collection=	Microscope
#StageXY=	Marzhauser
#StageZ=	Marzhauser
#X (µm)=	-625.8
#Y (µm)=	-1676.9
#Z (µm)=	89.25
#Full time(mm:ss)=	3:07
#Project=	
#Sample=	
#Site=	
#Title=	Mb_10_14_39_2x_45s_532 nm_x100_100%_600 gr_mm
#Remark=	
#Date=	11.07.2022 11:31
#Acquired=	11.07.2022 11:31:12
#Base:Fit=	10.08.2022 10:21:11
#Base:Sub=	10.08.2022 10:21:41
#Filter:Polynom=	16.08.2022 10:17:53
#AxisType[0]=Intens
#AxisUnit[0]=Cnt
#AxisType[1]=Spectr
#AxisUnit[1]=1/cm
200.388	12.4184
202.204	11.0673
204.019	8.32061
205.832	6.77852
207.646	5.706
209.459	4.45547
211.274	3.07781
213.087	2.53083
214.899	2.89545
216.711	3.32254
218.524	3.52033
220.335	3.63715
222.146	4.78062
223.956	5.39804
225.766	5.97527
227.576	6.97796
229.388	6.68427
231.197	8.32732
233.005	9.11669
234.813	10.0006
236.621	10.0225
238.429	9.76431
240.236	9.65437
242.045	9.5276
243.852	9.18244
245.658	8.50583
247.464	8.58792
249.269	9.50518
251.074	9.33985
252.879	9.27963
254.683	9.04869
256.487	11.0946
258.291	12.3735
260.094	12.6742
261.897	13.4771
263.702	13.1091
265.504	12.4592
267.306	12.1069
269.108	12.0136
270.909	11.5869
272.71	11.6615
274.511	11.6954
276.311	10.9526
278.111	10.917
279.91	10.2218
281.709	9.94376
283.508	9.06384
285.306	8.56331
287.105	8.04838
288.9	8.15834
290.698	7.24982
292.495	7.28468
294.291	7.88961
296.088	6.87724
297.884	5.80448
299.679	5.60522
301.475	6.18708
303.27	6.9946
305.064	6.46998
306.858	6.67768
308.652	7.12323
310.444	6.95912
312.237	6.87216
314.03	6.60995
315.822	7.01849
317.615	6.96885
319.406	7.35384
321.198	7.52444
322.987	5.66817
324.778	4.58588
326.568	3.78165
328.358	3.49631
330.148	4.34903
331.935	4.32039
333.724	3.69714
335.513	2.91411
337.301	3.52958
339.089	3.76044
340.875	3.49578
342.662	4.26695
344.449	5.07296
346.236	5.77439
348.02	5.57306
349.806	5.65169
351.592	5.83557
353.375	5.53506
355.16	5.99209
356.944	7.48279
358.728	7.70709
360.51	7.68265
362.294	8.95789
364.077	9.44288
365.858	10.0942
367.64	10.0025
369.422	9.49185
371.202	9.62541
372.983	9.81002
374.764	9.8836
376.543	9.70763
378.324	10.4662
380.102	10.9516
381.881	11.8009
383.661	11.456
385.438	10.9664
387.216	11.8352
388.993	12.4403
390.771	13.3101
392.548	13.2291
394.324	13.4438
396.101	13.7396
397.875	13.1001
399.651	12.4717
401.425	12.6028
403.201	12.629
404.974	12.8145
406.749	12.6475
408.524	11.8279
410.296	10.5043
412.07	10.1148
413.841	10.6552
415.614	10.924
417.385	10.456
419.156	10.208
420.928	8.42397
422.698	6.58594
424.469	5.54312
426.238	5.25524
428.009	4.73575
429.777	4.55646
431.548	5.01573
433.315	4.53811
435.083	4.05115
436.852	4.15878
438.618	4.30923
440.387	3.5453
442.153	2.56628
443.919	2.06069
445.686	1.76747
447.451	0.81586
449.218	1.23804
450.982	1.37682
452.746	1.21471
454.512	1.70184
456.275	1.88247
458.038	2.51402
459.803	3.33547
461.565	4.57192
463.327	4.71258
465.091	4.55179
466.852	5.88439
468.613	5.94187
470.374	6.31824
472.136	6.47171
473.896	7.33494
475.655	7.56879
477.415	8.03018
479.176	9.49408
480.934	9.86308
482.692	10.3378
484.45	10.8315
486.21	11.6374
487.967	13.169
489.724	14.0052
491.481	14.1527
493.237	15.1528
494.995	14.6578
496.75	15.124
498.506	15.9173
500.26	16.7573
502.015	17.8101
503.769	17.851
505.525	17.4191
507.279	16.922
509.032	16.4046
510.785	16.5225
512.537	16.6259
514.289	17.3822
516.041	17.6629
517.793	17.4566
519.546	16.8758
521.297	15.4504
523.047	15.712
524.797	15.5395
526.547	14.8903
528.297	14.1293
530.046	14.1216
531.795	14.1019
533.543	13.6535
535.291	13.7742
537.039	14.1925
538.787	13.0736
540.534	12.8202
542.281	11.9083
544.027	10.8647
545.773	10.4184
547.519	9.45735
549.264	9.38233
551.01	7.54776
552.754	7.21547
554.499	7.70485
556.243	6.87076
557.987	7.37554
559.73	6.56517
561.474	6.58723
563.216	6.60488
564.959	8.1427
566.701	8.04794
568.441	6.9593
570.182	6.52211
571.923	6.86868
573.664	7.0214
575.405	7.65169
577.145	7.08475
578.885	5.72575
580.624	5.8419
582.361	5.63387
584.1	6.39658
585.839	6.35828
587.577	6.52517
589.315	6.16939
591.052	4.68876
592.787	3.91734
594.524	4.19231
596.26	5.03884
597.997	5.50564
599.732	5.29579
601.466	5.07571
603.201	5.47602
604.936	5.73688
606.67	6.72024
608.403	6.79946
610.136	7.20662
611.87	7.37016
613.603	7.63672
615.334	7.77064
617.067	7.31231
618.799	7.08914
620.529	7.07824
622.26	8.31889
623.991	7.96807
625.72	8.18879
627.451	9.47656
629.181	11.4008
630.909	13.4305
632.638	14.431
634.368	14.5988
636.095	15.5615
637.823	15.7108
639.551	16.6724
641.277	18.1131
643.005	19.412
644.73	20.6193
646.457	21.6003
648.184	23.2239
649.908	23.6847
651.634	23.8855
653.357	23.8581
655.083	24.7294
656.806	24.659
658.53	25.8668
660.253	25.6905
661.977	25.3339
663.7	25.6626
665.422	25.8526
667.145	26.6653
668.865	26.9304
670.588	27.1298
672.308	27.4151
674.027	27.2023
675.749	27.4173
677.468	27.2106
679.188	28.4325
680.907	28.9961
682.627	29.6453
684.345	29.7593
686.064	29.9631
687.781	30.849
689.498	32.1627
691.216	31.8832
692.932	31.5376
694.65	30.3418
696.366	30.5988
698.081	31.2601
699.797	31.6998
701.512	31.766
703.228	32.1958
704.942	32.4719
706.655	33.4462
708.371	34.4006
710.083	34.8778
711.796	35.486
713.51	36.6408
715.222	37.0134
716.934	36.8448
718.645	36.7074
720.358	36.9364
722.068	37.4492
723.779	38.567
725.49	39.7445
727.2	41.2737
728.909	42.3269
730.618	42.4312
732.329	43.1003
734.037	43.0723
735.745	42.9842
737.453	44.4194
739.16	46.596
740.869	47.5641
742.576	47.8541
744.282	48.7265
745.988	49.0655
747.694	50.1342
749.401	50.7318
751.107	51.25
752.811	51.4792
754.516	52.4378
756.22	53.7017
757.924	54.9099
759.627	55.4697
761.332	56.7936
763.035	58.1457
764.738	59.6194
766.44	59.568
768.142	60.289
769.843	60.6704
771.544	61.4421
773.245	61.8084
774.946	62.2584
776.646	63.0783
778.346	63.9084
780.046	65.1012
781.745	66.6199
783.444	67.7277
785.143	68.9713
786.841	69.6744
788.539	70.5339
790.237	72.1124
791.934	73.7491
793.631	74.751
795.328	76.0171
797.024	75.5813
798.72	76.9232
800.416	77.2142
802.112	78.5419
803.807	79.3632
805.502	80.5348
807.196	81.6484
808.89	83.445
810.584	83.7957
812.278	83.3797
813.971	83.7703
815.664	84.0637
817.354	84.4758
819.047	84.5406
820.739	84.77
822.43	85.0092
824.122	84.5488
825.813	83.8818
827.503	83.2426
829.192	82.3918
830.882	82.4071
832.571	81.0604
834.261	80.1509
835.95	79.693
837.637	79.2117
839.325	79.059
841.013	77.1852
842.701	76.7265
844.389	76.3848
846.074	75.9442
847.761	74.3573
849.447	72.378
851.131	69.9471
852.817	69.0326
854.503	68.2197
856.188	67.0017
857.871	66.0391
859.556	65.5425
861.24	65.0666
862.922	63.8661
864.606	62.8456
866.289	62.033
867.97	60.989
869.653	60.9164
871.336	59.9894
873.016	60.0905
874.698	60.4555
876.379	60.1544
878.058	58.9266
879.739	58.6525
881.418	57.0328
883.098	57.7248
884.778	57.5533
886.456	57.7191
888.135	57.5308
889.812	58.0891
891.49	57.4637
893.167	56.4659
894.845	55.845
896.523	55.5767
898.198	56.7263
899.875	56.7731
901.55	56.0736
903.226	56.4166
904.901	56.7957
906.576	56.9439
908.25	56.7965
909.925	57.2936
911.598	57.138
913.271	57.2357
914.945	56.1437
916.617	55.2992
918.291	55.3841
919.962	54.5787
921.635	55.6411
923.306	55.7443
924.978	55.5038
926.648	56.9514
928.318	57.1172
929.989	56.1413
931.659	55.3879
933.328	53.9098
934.998	53.2922
936.666	53.3668
938.336	53.1431
940.004	53.2325
941.671	52.4942
943.34	51.4942
945.007	50.6507
946.673	49.6863
948.339	49.1679
950.007	48.564
951.672	48.4222
953.337	47.6529
955.004	46.6108
956.669	46.7329
958.333	46.0228
959.997	44.0643
961.662	41.8915
963.326	41.6584
964.989	40.4762
966.651	41.5497
968.315	40.5539
969.977	40.0622
971.639	39.0462
973.301	38.5315
974.962	37.6118
976.624	36.9921
978.285	37.0582
979.945	36.6972
981.605	36.3602
983.264	36.0042
984.924	35.6866
986.583	35.5341
988.243	35.1655
989.901	34.3791
991.56	34.0487
993.217	34.3652
994.875	34.1915
996.532	33.9302
998.188	32.5346
999.845	33.234
1001.5	33.025
1003.16	33.4835
1004.81	34.547
1006.47	34.0704
1008.12	34.9843
1009.78	34.6094
1011.43	35.126
1013.09	34.9369
1014.74	34.8537
1016.39	35.0009
1018.05	36.4661
1019.7	37.8719
1021.35	38.2899
1023	38.6449
1024.65	37.9471
1026.31	38.8789
1027.96	39.8075
1029.61	40.5788
1031.26	40.6144
1032.91	40.7658
1034.56	40.9212
1036.21	40.4801
1037.86	39.7042
1039.51	39.1477
1041.16	37.8906
1042.8	36.7428
1044.45	37.5965
1046.1	38.1031
1047.75	38.2555
1049.39	38.3102
1051.04	36.7052
1052.69	35.2926
1054.33	34.6689
1055.98	34.9096
1057.62	33.6594
1059.27	33.4844
1060.91	32.1121
1062.56	31.2757
1064.2	31.0432
1065.85	30.0604
1067.49	28.6971
1069.13	27.4303
1070.77	27.1616
1072.42	25.9389
1074.06	24.4366
1075.7	23.2001
1077.34	21.4715
1078.98	19.5487
1080.62	17.6335
1082.27	16.8798
1083.91	15.7294
1085.55	15.5083
1087.18	15.1456
1088.82	14.9238
1090.46	15.3657
1092.1	14.829
1093.74	15.3044
1095.38	15.417
1097.02	15.0781
1098.65	15.2463
1100.29	15.0454
1101.93	15.8002
1103.56	15.7007
1105.2	16.0897
1106.84	15.6952
1108.47	15.6499
1110.11	15.2173
1111.74	15.262
1113.38	14.9824
1115.01	14.4253
1116.64	14.9402
1118.28	13.8803
1119.91	13.2979
1121.54	13.1859
1123.18	13.282
1124.81	12.8938
1126.44	12.7392
1128.07	12.5748
1129.7	12.5845
1131.33	11.6318
1132.97	11.6558
1134.6	11.8845
1136.23	12.1461
1137.86	12.1739
1139.49	10.772
1141.11	11.5635
1142.74	10.2076
1144.37	9.85983
1146	9.90779
1147.63	9.27334
1149.26	8.8219
1150.88	8.48104
1152.51	7.69623
1154.14	6.36616
1155.76	5.408
1157.39	5.05318
1159.01	4.31899
1160.64	2.92703
1162.27	2.34061
1163.89	3.08339
1165.51	3.78952
1167.14	4.32257
1168.76	3.97686
1170.39	3.59014
1172.01	3.86852
1173.63	3.5919
1175.25	3.96918
1176.88	4.054
1178.5	4.10053
1180.12	4.05384
1181.74	4.1434
1183.36	4.40673
1184.98	3.85896
1186.6	3.60253
1188.22	4.08237
1189.84	4.27799
1191.46	4.16198
1193.08	4.64233
1194.7	4.16577
1196.32	4.78083
1197.94	6.11189
1199.55	5.87161
1201.17	5.99381
1202.79	5.85533
1204.41	6.86336
1206.02	7.02243
1207.64	7.59165
1209.25	8.73368
1210.87	9.21757
1212.48	10.0528
1214.1	11.8625
1215.71	13.1748
1217.33	13.4187
1218.94	14.1386
1220.56	14.4177
1222.17	15.9598
1223.79	16.2212
1225.4	18.0173
1227.01	19.0712
1228.62	19.5571
1230.23	19.5924
1231.85	20.0666
1233.46	19.9245
1235.07	20.4423
1236.68	20.6417
1238.29	20.8314
1239.9	20.7909
1241.51	21.4399
1243.12	23.0168
1244.73	24.4939
1246.34	24.1189
1247.94	23.5555
1249.55	22.227
1251.16	22.4048
1252.77	21.3163
1254.37	21.8273
1255.98	22.1135
1257.59	20.7891
1259.2	20.2977
1260.8	19.6668
1262.41	18.8983
1264.01	18.0858
1265.62	17.8106
1267.22	17.3834
1268.83	17.0998
1270.43	16.3157
1272.03	15.2027
1273.64	15.6159
1275.24	15.4719
1276.85	15.7501
1278.45	15.928
1280.05	15.5593
1281.65	14.9689
1283.25	15.6686
1284.85	15.3879
1286.46	15.1165
1288.06	15.5572
1289.66	15.7292
1291.26	16.4206
1292.86	16.4559
1294.46	17.6003
1296.06	17.5802
1297.66	17.057
1299.25	17.992
1300.85	19.0443
1302.45	19.9788
1304.05	21.253
1305.65	22.3209
1307.24	22.7872
1308.84	23.8613
1310.43	24.5594
1312.03	25.3546
1313.63	26.0452
1315.22	27.2034
1316.82	28.1067
1318.41	28.3363
1320.01	28.9851
1321.6	30.016
1323.2	29.986
1324.79	29.0303
1326.38	29.3286
1327.98	29.1804
1329.57	29.274
1331.16	30.1703
1332.76	29.1931
1334.35	30.3725
1335.94	29.4938
1337.53	28.5973
1339.12	27.833
1340.71	27.1183
1342.3	26.0602
1343.89	25.4371
1345.48	25.1248
1347.07	25.1658
1348.66	24.6333
1350.25	23.683
1351.84	22.3511
1353.43	22.0964
1355.01	21.1762
1356.6	20.5555
1358.19	19.9439
1359.77	18.9033
1361.36	17.4612
1362.95	16.5464
1364.53	15.1243
1366.12	15.149
1367.71	14.8751
1369.29	13.9501
1370.88	13.5379
1372.46	12.9811
1374.04	12.9258
1375.63	13.2009
1377.21	13.4261
1378.8	14.3771
1380.38	13.9254
1381.96	13.743
1383.54	14.1146
1385.13	14.0617
1386.71	15.0284
1388.29	15.6272
1389.87	15.3715
1391.45	15.2938
1393.03	15.2775
1394.61	15.6487
1396.19	14.919
1397.77	15.4964
1399.35	16.0877
1400.93	16.7087
1402.51	15.3978
1404.09	15.1142
1405.67	16.7124
1407.24	16.1432
1408.82	16.0527
1410.4	15.6372
1411.98	15.1265
1413.55	15.9375
1415.13	16.6139
1416.71	17.4262
1418.28	17.6474
1419.86	19.2296
1421.43	20.5187
1423.01	21.5815
1424.58	22.5651
1426.16	23.2752
1427.73	23.7131
1429.31	24.6459
1430.88	25.376
1432.45	26.9257
1434.02	28.2294
1435.6	30.0771
1437.17	31.1555
1438.74	32.8703
1440.31	33.8683
1441.88	35.7702
1443.45	37.3216
1445.03	38.2092
1446.6	38.451
1448.17	38.2424
1449.74	38.8683
1451.3	39.1224
1452.87	39.4606
1454.44	40.0596
1456.01	39.9387
1457.58	39.5005
1459.15	38.8543
1460.72	38.6735
1462.28	40.2215
1463.85	40.5463
1465.42	40.7844
1466.98	40.0017
1468.55	38.1317
1470.12	38.0122
1471.68	37.2032
1473.25	36.1694
1474.81	34.3779
1476.38	34.0544
1477.94	32.3744
1479.51	30.7359
1481.07	28.5381
1482.63	27.9942
1484.2	26.714
1485.76	24.9579
1487.32	24.2034
1488.88	23.6736
1490.45	22.8381
1492.01	21.8285
1493.57	21.5234
1495.13	19.8058
1496.69	18.9543
1498.25	18.6356
1499.81	17.1164
1501.37	15.7424
1502.93	14.6731
1504.49	13.936
1506.05	13.7494
1507.61	13.0872
1509.17	12.3331
1510.73	12.3452
1512.28	11.1549
1513.84	10.7266
1515.4	9.2447
1516.96	8.82126
1518.51	7.67206
1520.07	7.39549
1521.63	6.29475
1523.18	4.97057
1524.74	3.79736
1526.29	3.64385
1527.85	3.58708
1529.4	2.93222
1530.96	2.17731
1532.51	1.94173
1534.06	2.18188
1535.62	1.34311
1537.17	1.41097
1538.72	1.86489
1540.28	2.66218
1541.83	2.01415
1543.38	2.49207
1544.93	2.06667
1546.48	1.95978
1548.03	1.78587
1549.59	1.80083
1551.14	0.946987
1552.69	1.35163
1554.24	2.74272
1555.79	2.30896
1557.34	2.59673
1558.88	3.71532
1560.43	4.70962
1561.98	5.37548
1563.53	6.39766
1565.08	6.9098
1566.62	7.27236
1568.17	7.52819
1569.72	8.46064
1571.27	9.2412
1572.81	9.97891
1574.36	12.2099
1575.9	12.5878
1577.45	13.3378
1579	14.5531
1580.54	15.8492
1582.09	17.115
1583.63	18.445
1585.17	18.9814
1586.72	19.1205
1588.26	20.5839
1589.8	20.769
1591.35	21.6669
1592.89	22.7042
1594.43	24.2988
1595.97	25.0631
1597.52	26.1782
1599.06	26.7749
1600.6	26.4008
1602.14	25.3659
1603.68	25.7821
1605.22	24.7481
1606.76	23.6183
1608.3	23.2401
1609.84	23.0374
1611.38	23.1264
1612.92	24.1536
1614.46	23.8572
1615.99	23.6352
1617.53	23.407
1619.07	23.5024
1620.61	23.0191
1622.14	21.9307
1623.68	22.0836
1625.22	21.363
1626.75	21.4731
1628.29	20.9111
1629.82	21.9182
1631.36	22.1249
1632.9	21.2008
1634.43	21.5551
1635.96	22.1458
1637.5	21.426
1639.03	21.2364
1640.57	21.7517
1642.1	21.6433
1643.63	21.9407
1645.16	22.0685
1646.7	22.9594
1648.23	22.7855
1649.76	24.1419
1651.29	24.3665
1652.82	24.3994
1654.36	24.9941
1655.89	25.4135
1657.42	25.7816
1658.95	25.969
1660.48	26.0504
1662.01	26.1531
1663.53	26.2449
1665.06	27.0407
1666.59	25.7457
1668.12	26.2074
1669.65	26.2911
1671.18	25.5483
1672.7	25.2323
1674.23	23.8785
1675.76	22.6818
1677.29	20.6138
1678.81	19.7898
1680.34	19.7046
1681.86	18.945
1683.39	19.0494
1684.91	19.5514
1686.44	18.1185
1687.96	17.4084
1689.49	16.5408
1691.01	14.0776
1692.54	13.0988
1694.06	11.9524
1695.58	10.7424
1697.11	9.81413
1698.63	9.12682
1700.15	9.00315
1701.67	8.54181
1703.2	7.65774
1704.72	7.00575
1706.24	6.60338
1707.76	5.46996
1709.28	4.49184
1710.8	4.44875
1712.32	4.03347
1713.84	3.37368
1715.36	3.2319
1716.88	2.75692
1718.4	2.17557
1719.91	2.20528
1721.43	2.07278
1722.95	2.00689
1724.47	1.69863
1725.99	2.03741
1727.5	1.79212
1729.02	2.57222
1730.54	2.69016
1732.05	2.34117
1733.57	2.15931
1735.09	2.19872
1736.6	1.66227
1738.12	1.6299
1739.63	1.52375
1741.15	1.50167
1742.66	1.08391
1744.18	1.99238
1745.69	1.81176
1747.2	1.71075
1748.72	1.85904
1750.23	1.30903
1751.74	2.12664
1753.25	2.57695
1754.77	2.78968
1756.28	2.83323
1757.79	2.92936
1759.3	2.7384
1760.81	2.30558
1762.32	1.12261
1763.83	1.58127
1765.34	1.44413
1766.85	0.84533
1768.36	1.04041
1769.87	0.841767
1771.38	1.32885
1772.89	1.77013
1774.4	1.75495
1775.91	2.08553
1777.41	1.83974
1778.92	1.2247
1780.43	0.940634
1781.94	1.23076
1783.44	0.636104
1784.95	1.06211
1786.45	1.47158
1787.96	1.37503
1789.47	1.7185
1790.97	1.70947
1792.47	2.10877
1793.98	2.75575
1795.48	2.90135
1796.99	2.69058
1798.49	2.87534
1800	3.02856
1801.5	2.83104
1803	3.71685
1804.51	3.87724
1806.01	3.63318
1807.51	3.30223
1809.01	3.70023
1810.51	3.91077
1812.02	4.08935
1813.52	4.86075
1815.02	5.48019
1816.52	5.81905
1818.02	5.68665
1819.52	6.26116
1821.02	6.38547
1822.52	6.84456
1824.02	7.50655
1825.51	7.73295
1827.01	8.09701
1828.51	7.96485
1830.01	7.61607
1831.51	7.90701
1833	7.89956
1834.5	7.61649
1836	7.54377
1837.49	6.95238
1838.99	6.70504
1840.49	6.02527
1841.98	5.62372
1843.48	6.08153
1844.97	5.95408
1846.47	5.92353
1847.96	5.35535
1849.46	4.95858
1850.95	4.40447
1852.45	3.82222
1853.94	3.30743
1855.43	2.61081
1856.92	2.64354
1858.42	1.82693
1859.91	1.66158
1861.4	1.05313
1862.89	0.584786
1864.39	0.161125
1865.88	0.646476
1867.37	1.2439
1868.86	1.20619
1870.35	1.37836
1871.84	1.59105
1873.33	1.89387
1874.82	1.90564
1876.31	1.76591
1877.8	2.92295
1879.29	3.2647
1880.77	3.64231
1882.26	4.1083
1882.52	4.72796
1884.02	5.01381
1885.51	5.56628
1887.01	5.66405
1888.5	6.24327
1889.99	6.10808
1891.49	6.55233
1892.98	7.23796
1894.47	8.32419
1895.96	9.21198
1897.46	9.59361
1898.95	9.52485
1900.44	9.88054
1901.93	10.6189
1903.42	11.4597
1904.91	12.4682
1906.4	12.5131
1907.89	12.6581
1909.38	12.2801
1910.87	12.4174
1912.36	13.0495
1913.85	13.4479
1915.34	14.2236
1916.83	14.4149
1918.32	13.828
1919.8	13.1775
1921.29	12.6129
1922.78	12.1021
1924.27	11.8337
1925.75	11.7549
1927.24	11.8317
1928.73	11.2508
1930.21	11.3444
1931.7	11.3919
1933.18	12.1328
1934.67	11.5513
1936.15	11.892
1937.64	12.3683
1939.12	13.3977
1940.61	13.0567
1942.09	13.0143
1943.57	13.663
1945.06	14.1489
1946.54	13.4882
1948.02	13.6093
1949.51	13.944
1950.99	14.3733
1952.47	15.2427
1953.95	15.1592
1955.43	15.4721
1956.91	14.9256
1958.39	14.7113
1959.87	14.7939
1961.36	15.4206
1962.84	15.2365
1964.32	14.9887
1965.79	14.9615
1967.27	15.204
1968.75	15.2832
1970.23	14.8848
1971.71	14.2341
1973.19	13.7303
1974.66	13.4519
1976.14	13.2882
1977.62	12.619
1979.1	11.829
1980.57	10.5618
1982.05	9.83418
1983.53	9.88157
1985	9.90525
1986.48	9.01566
1987.95	8.40194
1989.43	8.2121
1990.9	7.07025
1992.38	7.12807
1993.85	7.2159
1995.33	7.21928
1996.8	7.37308
1998.27	7.56745
1999.75	7.0644
2001.22	7.2393
2002.69	7.09136
2004.16	7.63583
2005.64	7.98999
2007.11	8.18064
2008.58	8.15184
2010.05	9.14629
2011.52	10.0069
2012.99	10.347
2014.46	10.3689
2015.93	11.2526
2017.4	12.5225
2018.87	12.639
2020.34	12.3027
2021.81	12.8009
2023.28	12.7364
2024.75	12.9042
2026.22	14.1715
2027.69	13.1576
2029.15	13.9321
2030.62	14.2029
2032.09	14.9454
2033.56	14.7805
2035.02	14.5944
2036.49	13.8801
2037.95	14.3281
2039.42	13.8828
2040.89	14.4615
2042.35	14.3667
2043.82	14.5065
2045.28	13.8148
2046.75	13.7985
2048.21	13.527
2049.67	14.2343
2051.14	14.6427
2052.6	14.6085
2054.06	15.3192
2055.53	16.1273
2056.99	16.8774
2058.45	16.3163
2059.92	16.9115
2061.38	18.0962
2062.84	18.2301
2064.3	18.9321
2065.76	20.1047
2067.22	19.9231
2068.68	19.884
2070.14	20.2735
2071.6	20.8199
2073.06	21.1803
2074.52	21.8205
2075.98	22.5946
2077.44	23.2419
2078.9	23.9264
2080.36	24.0568
2081.82	23.9498
2083.27	23.9247
2084.73	23.9621
2086.19	23.5667
2087.65	22.9379
2089.1	23.3361
2090.56	23.0821
2092.01	22.5025
2093.47	22.6924
2094.93	22.1654
2096.38	22.3105
2097.84	22.3966
2099.29	22.7614
2100.75	21.7929
2102.2	22.0584
2103.66	21.9135
2105.11	21.5991
2106.56	21.0041
2108.02	20.9534
2109.47	21.0353
2110.92	20.4775
2112.37	20.0931
2113.83	20.344
2115.28	20.0073
2116.73	20.0012
2118.18	20.307
2119.63	20.7362
2121.09	20.871
2122.54	21.2251
2123.99	21.3934
2125.44	21.1531
2126.89	22.0143
2128.34	22.1424
2129.79	21.883
2131.23	21.728
2132.68	22.438
2134.13	22.2025
