#Acq. time (s)=	45
#Accumulations=	2
#Range (cm-¹)=	200...3150
#Windows=	2
#Auto scanning=	Off
#Autofocus=	Off
#Macrospot=	Off
#AutoExposure=	Off
#Spike filter=	Multiple accum.
#Delay time (s)=	0
#Binning=	1
#Readout mode=	Signal
#DeNoise=	Off
#ICS correction=	On
#Dark correction=	Off
#Inst. Process=	Off
#Detector Gain=	Best Dynamic Range
#Detector ADC=	20 kHz       
#Detector temperature (°C)=	-69.85
#Instrument=	LabRAM HR Evol
#Detector=	Synapse
#Objective=	x100
#Grating=	600 gr/mm
#ND Filter=	100%
#Laser (nm)=	532 
#Hole=	100.021
#Range=	Auto
#Laser Pol.=	No
#Raman. Pol.=	No
#Laser Pol. (°)=	-0.0007625
#Raman Pol. (°)=	89.9995
#Collection=	Microscope
#StageXY=	Marzhauser
#StageZ=	Marzhauser
#X (µm)=	-620.1
#Y (µm)=	-1588.4
#Z (µm)=	89.85
#Full time(mm:ss)=	3:19
#Project=	
#Sample=	
#Site=	
#Title=	Mb_10_14_23_2x_45s_532 nm_x100_100%_600 gr_mm
#Remark=	
#Date=	11.07.2022 10:16
#Acquired=	11.07.2022 10:16:39
#Base:Fit=	10.08.2022 10:21:11
#Base:Sub=	10.08.2022 10:21:41
#Filter:Polynom=	16.08.2022 10:17:53
#AxisType[0]=Intens
#AxisUnit[0]=Cnt
#AxisType[1]=Spectr
#AxisUnit[1]=1/cm
200.388	4.15749
202.204	5.62417
204.019	6.97345
205.832	8.02226
207.646	8.61867
209.459	9.13235
211.274	9.3881
213.087	9.84712
214.899	10.8128
216.711	11.6038
218.524	13.8114
220.335	14.8703
222.146	15.6152
223.956	16.5577
225.766	16.6197
227.576	17.3192
229.388	18.5372
231.197	20.0556
233.005	20.9636
234.813	22.3964
236.621	22.9842
238.429	23.3656
240.236	24.2711
242.045	25.1627
243.852	24.7854
245.658	25.4667
247.464	25.36
249.269	25.7414
251.074	24.5978
252.879	25.3392
254.683	24.0934
256.487	25.7003
258.291	26.0621
260.094	25.8999
261.897	26.3533
263.702	26.5467
265.504	26.6574
267.306	27.1515
269.108	27.0874
270.909	27.1363
272.71	26.8692
274.511	27.2464
276.311	27.6597
278.111	26.3921
279.91	25.1935
281.709	24.754
283.508	23.7833
285.306	22.5591
287.105	21.8607
288.9	20.8058
290.698	20.2506
292.495	20.038
294.291	18.8862
296.088	17.1485
297.884	16.0573
299.679	15.1559
301.475	15.1039
303.27	15.8439
305.064	15.8657
306.858	14.7547
308.652	14.5276
310.444	12.5738
312.237	11.7967
314.03	11.817
315.822	11.5555
317.615	11.3763
319.406	11.2881
321.198	10.6238
322.987	9.60773
324.778	9.35321
326.568	7.79904
328.358	6.95271
330.148	6.39083
331.935	5.69056
333.724	4.63512
335.513	4.83812
337.301	3.49807
339.089	4.5224
340.875	3.80359
342.662	4.94437
344.449	5.37176
346.236	7.00491
348.02	7.5943
349.806	7.55284
351.592	8.20414
353.375	9.16322
355.16	10.6685
356.944	11.5052
358.728	12.8717
360.51	14.1152
362.294	13.6173
364.077	14.5661
365.858	15.1705
367.64	16.3014
369.422	18.0897
371.202	18.534
372.983	19.3182
374.764	19.8718
376.543	20.5227
378.324	20.3727
380.102	20.8243
381.881	21.4058
383.661	21.1994
385.438	21.5137
387.216	22.1027
388.993	22.8866
390.771	23.8371
392.548	23.2568
394.324	21.8346
396.101	20.4335
397.875	20.2413
399.651	19.6017
401.425	19.2747
403.201	19.1008
404.974	17.8089
406.749	15.7455
408.524	14.5193
410.296	13.1044
412.07	11.7568
413.841	11.0221
415.614	9.25176
417.385	8.71663
419.156	8.77419
420.928	6.83249
422.698	5.23694
424.469	4.82657
426.238	3.55933
428.009	4.02332
429.777	2.46562
431.548	2.41002
433.315	1.69377
435.083	0.964751
436.852	1.38952
438.618	1.15281
440.387	1.5443
442.153	2.46666
443.919	2.06367
445.686	2.19059
447.451	2.49946
449.218	2.62234
450.982	2.65961
452.746	3.30734
454.512	4.18232
456.275	4.58015
458.038	4.66783
459.803	4.48249
461.565	6.05383
463.327	6.70883
465.091	7.21363
466.852	8.2992
468.613	9.41791
470.374	9.73327
472.136	9.76082
473.896	10.4549
475.655	10.904
477.415	11.7027
479.176	12.0167
480.934	11.8846
482.692	11.784
484.45	12.1747
486.21	13.768
487.967	13.9977
489.724	14.2872
491.481	15.2799
493.237	16.0517
494.995	17.0069
496.75	18.2917
498.506	18.2029
500.26	18.2314
502.015	19.4412
503.769	19.5016
505.525	19.6808
507.279	19.6045
509.032	18.0436
510.785	19.2675
512.537	19.9085
514.289	19.3422
516.041	20.2491
517.793	19.8163
519.546	19.7817
521.297	19.2139
523.047	20.5501
524.797	21.1799
526.547	21.1573
528.297	21.2646
530.046	21.646
531.795	20.9658
533.543	21.441
535.291	21.2131
537.039	20.5553
538.787	20.1307
540.534	19.7318
542.281	19.4121
544.027	18.5167
545.773	18.5132
547.519	18.4344
549.264	18.1276
551.01	17.2262
552.754	16.6614
554.499	16.628
556.243	15.5868
557.987	14.5438
559.73	14.3459
561.474	13.9113
563.216	12.997
564.959	12.1996
566.701	11.6865
568.441	11.4861
570.182	11.0225
571.923	11.0245
573.664	11.6358
575.405	11.5316
577.145	11.2926
578.885	11.201
580.624	10.9347
582.361	9.90378
584.1	8.7783
585.839	7.17786
587.577	7.19776
589.315	6.87459
591.052	6.23376
592.787	5.55302
594.524	5.5422
596.26	5.15256
597.997	4.949
599.732	4.60666
601.466	5.03507
603.201	5.85221
604.936	5.6973
606.67	6.45141
608.403	6.35688
610.136	7.23669
611.87	6.94458
613.603	6.29892
615.334	6.09792
617.067	6.63484
618.799	7.08577
620.529	7.51456
622.26	7.31096
623.991	7.75006
625.72	8.29854
627.451	7.97162
629.181	8.46313
630.909	10.1202
632.638	10.9969
634.368	12.1851
636.095	12.0545
637.823	12.9202
639.551	13.4537
641.277	13.4595
643.005	12.6889
644.73	12.6833
646.457	13.8742
648.184	13.0166
649.908	13.8158
651.634	15.4286
653.357	16.165
655.083	16.0638
656.806	16.9505
658.53	16.369
660.253	17.0613
661.977	16.8711
663.7	16.6249
665.422	16.6887
667.145	16.5872
668.865	17.1078
670.588	17.6308
672.308	16.9475
674.027	17.8926
675.749	18.3361
677.468	20.0993
679.188	20.3113
680.907	21.2964
682.627	21.5434
684.345	22.3697
686.064	23.5349
687.781	24.623
689.498	24.6879
691.216	24.9381
692.932	25.2095
694.65	26.0024
696.366	27.1662
698.081	27.8618
699.797	28.8169
701.512	30.1965
703.228	31.2268
704.942	32.4649
706.655	34.0892
708.371	34.9975
710.083	35.7935
711.796	36.4354
713.51	37.8953
715.222	39.5367
716.934	41.2251
718.645	40.8814
720.358	41.0688
722.068	40.7522
723.779	41.6802
725.49	41.9563
727.2	42.6958
728.909	43.1931
730.618	43.9707
732.329	44.8177
734.037	44.9001
735.745	47.0104
737.453	47.3227
739.16	47.3459
740.869	47.2781
742.576	48.9441
744.282	48.9449
745.988	49.716
747.694	50.3731
749.401	50.4568
751.107	51.265
752.811	51.889
754.516	53.1039
756.22	53.1155
757.924	53.9945
759.627	56.542
761.332	58.2136
763.035	58.6582
764.738	58.4751
766.44	59.2148
768.142	59.687
769.843	60.8409
771.544	62.4609
773.245	63.4447
774.946	64.9105
776.646	66.0806
778.346	67.5299
780.046	68.5669
781.745	69.0703
783.444	70.1857
785.143	70.9715
786.841	72.4647
788.539	73.7656
790.237	74.6591
791.934	75.4653
793.631	76.2173
795.328	76.6557
797.024	77.9473
798.72	78.5787
800.416	80.1692
802.112	81.1198
803.807	80.5263
805.502	81.5187
807.196	81.4496
808.89	81.5955
810.584	81.9108
812.278	81.939
813.971	80.7276
815.664	80.5847
817.354	80.7542
819.047	81.3254
820.739	81.5242
822.43	80.4948
824.122	80.8645
825.813	80.5135
827.503	80.4232
829.192	79.7162
830.882	78.8502
832.571	78.943
834.261	77.6027
835.95	77.153
837.637	75.6566
839.325	75.4314
841.013	74.5352
842.701	74.3149
844.389	73.0372
846.074	71.4426
847.761	69.6541
849.447	68.4206
851.131	67.8241
852.817	66.971
854.503	66.5515
856.188	66.7335
857.871	65.4302
859.556	64.6101
861.24	62.8142
862.922	62.0703
864.606	60.9698
866.289	60.5096
867.97	59.4982
869.653	58.6359
871.336	58.3666
873.016	57.4283
874.698	57.0364
876.379	57.0507
878.058	56.7475
879.739	56.1075
881.418	55.5274
883.098	54.771
884.778	54.6569
886.456	53.2452
888.135	52.2677
889.812	51.4336
891.49	51.4334
893.167	51.6458
894.845	51.3392
896.523	51.1332
898.198	51.7217
899.875	52.9303
901.55	54.0132
903.226	54.7624
904.901	54.5489
906.576	55.2546
908.25	56.5794
909.925	55.8259
911.598	55.8505
913.271	55.8683
914.945	55.1922
916.617	55.035
918.291	55.0629
919.962	54.5385
921.635	53.5784
923.306	53.3775
924.978	52.9522
926.648	52.8863
928.318	52.4011
929.989	52.1724
931.659	51.4837
933.328	51.2086
934.998	51.559
936.666	51.074
938.336	50.5658
940.004	49.4493
941.671	47.1831
943.34	45.4341
945.007	43.3781
946.673	42.9375
948.339	42.343
950.007	41.1317
951.672	40.0697
953.337	39.189
955.004	38.3195
956.669	37.102
958.333	35.4842
959.997	34.3527
961.662	33.8051
963.326	32.5551
964.989	31.1896
966.651	30.7147
968.315	30.4436
969.977	30.3874
971.639	30.4632
973.301	30.5576
974.962	31.0735
976.624	31.3706
978.285	31.424
979.945	32.5661
981.605	33.8959
983.264	33.803
984.924	33.8892
986.583	33.1877
988.243	33.0629
989.901	33.6447
991.56	32.8087
993.217	31.7701
994.875	31.9903
996.532	31.6973
998.188	30.9266
999.845	30.959
1001.5	30.7558
1003.16	29.9323
1004.81	29.0432
1006.47	29.0116
1008.12	29.2904
1009.78	29.2994
1011.43	28.8388
1013.09	29.4825
1014.74	30.036
1016.39	30.216
1018.05	30.6358
1019.7	30.319
1021.35	30.024
1023	30.6615
1024.65	30.2054
1026.31	29.8422
1027.96	30.346
1029.61	31.1009
1031.26	31.0011
1032.91	30.6019
1034.56	30.3428
1036.21	30.0993
1037.86	30.0369
1039.51	29.8913
1041.16	29.4178
1042.8	30.1034
1044.45	30.1561
1046.1	28.7864
1047.75	28.4739
1049.39	27.8463
1051.04	27.1547
1052.69	26.2443
1054.33	25.587
1055.98	25.0198
1057.62	24.2175
1059.27	23.7184
1060.91	21.9017
1062.56	21.0944
1064.2	19.6454
1065.85	17.4564
1067.49	15.5081
1069.13	14.0368
1070.77	12.9931
1072.42	12.07
1074.06	10.8299
1075.7	9.60118
1077.34	9.47119
1078.98	7.88342
1080.62	6.59154
1082.27	6.49004
1083.91	5.33172
1085.55	4.30346
1087.18	3.30219
1088.82	3.94743
1090.46	4.77088
1092.1	5.07626
1093.74	5.781
1095.38	7.24096
1097.02	7.41965
1098.65	8.28253
1100.29	8.89997
1101.93	8.82572
1103.56	9.11565
1105.2	9.45316
1106.84	8.86372
1108.47	9.33489
1110.11	10.6257
1111.74	10.6651
1113.38	11.5938
1115.01	11.95
1116.64	11.9033
1118.28	11.0801
1119.91	10.6143
1121.54	9.76556
1123.18	9.20722
1124.81	9.96859
1126.44	9.41081
1128.07	8.63484
1129.7	9.43501
1131.33	8.98829
1132.97	8.6939
1134.6	8.4019
1136.23	8.47653
1137.86	7.95624
1139.49	7.56846
1141.11	6.66211
1142.74	6.18866
1144.37	5.47464
1146	4.50677
1147.63	4.14749
1149.26	3.88343
1150.88	3.81409
1152.51	3.97076
1154.14	4.53048
1155.76	4.23839
1157.39	3.38156
1159.01	3.11892
1160.64	2.08299
1162.27	2.595
1163.89	2.62273
1165.51	2.27477
1167.14	2.49331
1168.76	2.59837
1170.39	3.57617
1172.01	4.22399
1173.63	4.21663
1175.25	5.11229
1176.88	5.28991
1178.5	5.3104
1180.12	6.02784
1181.74	5.97706
1183.36	5.67169
1184.98	5.78276
1186.6	5.60517
1188.22	6.29916
1189.84	6.68845
1191.46	7.1071
1193.08	6.90774
1194.7	7.53705
1196.32	7.44872
1197.94	7.75837
1199.55	7.74881
1201.17	8.96258
1202.79	9.74305
1204.41	10.8558
1206.02	11.5741
1207.64	12.1998
1209.25	13.2338
1210.87	14.4466
1212.48	14.314
1214.1	15.7343
1215.71	16.4463
1217.33	16.7346
1218.94	17.2662
1220.56	18.5377
1222.17	17.8691
1223.79	18.426
1225.4	18.7041
1227.01	19.9622
1228.62	21.383
1230.23	21.7343
1231.85	22.0298
1233.46	22.6149
1235.07	23.6367
1236.68	24.0292
1238.29	23.8955
1239.9	23.9282
1241.51	25.0767
1243.12	25.8642
1244.73	26.086
1246.34	26.2835
1247.94	26.5686
1249.55	27.648
1251.16	28.1338
1252.77	28.0815
1254.37	27.95
1255.98	28.7255
1257.59	27.8818
1259.2	27.3166
1260.8	27.6125
1262.41	27.6283
1264.01	26.924
1265.62	27.3608
1267.22	26.5556
1268.83	27.5313
1270.43	27.6879
1272.03	28.2544
1273.64	27.8849
1275.24	28.5461
1276.85	27.7001
1278.45	27.3447
1280.05	26.1068
1281.65	26.2232
1283.25	25.9718
1284.85	26.3677
1286.46	27.1467
1288.06	28.148
1289.66	27.9534
1291.26	28.3721
1292.86	29.1116
1294.46	29.5779
1296.06	28.2478
1297.66	28.06
1299.25	28.0845
1300.85	28.9131
1302.45	28.4036
1304.05	29.1821
1305.65	30.1255
1307.24	30.8566
1308.84	30.9518
1310.43	31.0869
1312.03	31.2107
1313.63	32.5557
1315.22	33.9504
1316.82	34.3526
1318.41	34.3738
1320.01	35.2129
1321.6	36.4227
1323.2	36.5221
1324.79	35.9809
1326.38	36.2186
1327.98	36.0877
1329.57	36.0759
1331.16	35.8537
1332.76	35.8435
1334.35	35.3806
1335.94	35.2235
1337.53	34.6108
1339.12	35.5535
1340.71	35.8789
1342.3	35.0584
1343.89	34.4355
1345.48	34.4603
1347.07	33.9178
1348.66	34.1337
1350.25	33.5316
1351.84	32.5726
1353.43	31.4867
1355.01	30.8444
1356.6	29.4593
1358.19	28.6589
1359.77	27.8531
1361.36	27.3976
1362.95	28.1439
1364.53	27.4977
1366.12	26.8272
1367.71	26.158
1369.29	25.1948
1370.88	25.3752
1372.46	24.7813
1374.04	22.822
1375.63	22.4792
1377.21	23.0805
1378.8	23.0009
1380.38	23.0085
1381.96	21.8737
1383.54	20.9418
1385.13	20.8537
1386.71	20.4195
1388.29	20.2262
1389.87	19.9715
1391.45	20.4417
1393.03	20.6917
1394.61	20.3514
1396.19	19.8677
1397.77	18.827
1399.35	18.3535
1400.93	18.2131
1402.51	18.0864
1404.09	17.2938
1405.67	18.8039
1407.24	19.207
1408.82	20.4658
1410.4	21.3654
1411.98	21.1973
1413.55	21.5977
1415.13	22.9952
1416.71	24.375
1418.28	25.5981
1419.86	25.8708
1421.43	27.709
1423.01	29.405
1424.58	30.6575
1426.16	31.8843
1427.73	33.1982
1429.31	34.8754
1430.88	35.7152
1432.45	37.1806
1434.02	38.5551
1435.6	39.952
1437.17	40.8977
1438.74	43.2504
1440.31	44.9494
1441.88	46.5667
1443.45	46.8332
1445.03	48.5529
1446.6	48.9979
1448.17	49.4678
1449.74	49.6044
1451.3	50.5922
1452.87	50.6252
1454.44	51.0209
1456.01	50.6112
1457.58	50.1391
1459.15	49.2196
1460.72	48.9993
1462.28	47.9771
1463.85	47.7607
1465.42	47.2514
1466.98	47.1213
1468.55	46.1419
1470.12	45.6468
1471.68	43.7721
1473.25	43.1451
1474.81	42.3856
1476.38	41.3529
1477.94	40.6079
1479.51	40.0168
1481.07	39.304
1482.63	38.3768
1484.2	38.1242
1485.76	35.8251
1487.32	34.6285
1488.88	32.8494
1490.45	32.0247
1492.01	31.351
1493.57	30.7764
1495.13	30.242
1496.69	28.8947
1498.25	28.5769
1499.81	27.9379
1501.37	26.6628
1502.93	25.1147
1504.49	23.6081
1506.05	21.7618
1507.61	20.8339
1509.17	18.8078
1510.73	18.0372
1512.28	16.6855
1513.84	15.5225
1515.4	15.1134
1516.96	14.8839
1518.51	13.3171
1520.07	12.4484
1521.63	12.2671
1523.18	11.0357
1524.74	10.2754
1526.29	10.6544
1527.85	10.4883
1529.4	10.9555
1530.96	10.2522
1532.51	10.2576
1534.06	10.3503
1535.62	10.4483
1537.17	10.2044
1538.72	11.3344
1540.28	11.4122
1541.83	11.6714
1543.38	12.4165
1544.93	12.32
1546.48	11.932
1548.03	12.4539
1549.59	13.0316
1551.14	13.9873
1552.69	14.85
1554.24	15.5088
1555.79	15.7882
1557.34	16.7336
1558.88	17.7941
1560.43	18.0857
1561.98	18.6639
1563.53	19.587
1565.08	21.0878
1566.62	21.956
1568.17	22.3941
1569.72	22.8038
1571.27	23.9614
1572.81	24.9784
1574.36	25.1983
1575.9	25.4857
1577.45	26.4314
1579	26.2186
1580.54	26.2316
1582.09	26.383
1583.63	26.053
1585.17	26.4872
1586.72	27.0094
1588.26	28.0381
1589.8	28.9527
1591.35	30.0081
1592.89	30.7518
1594.43	30.5942
1595.97	30.7286
1597.52	31.6488
1599.06	31.7776
1600.6	31.7713
1602.14	32.4595
1603.68	31.8332
1605.22	30.917
1606.76	30.5857
1608.3	30.4972
1609.84	29.7719
1611.38	29.1758
1612.92	28.6225
1614.46	28.0603
1615.99	27.7438
1617.53	26.6634
1619.07	25.7587
1620.61	25.0283
1622.14	24.5649
1623.68	24.5666
1625.22	23.4493
1626.75	22.7633
1628.29	21.9385
1629.82	21.7218
1631.36	21.5449
1632.9	21.7669
1634.43	22.0286
1635.96	22.6802
1637.5	22.726
1639.03	23.3044
1640.57	24.8464
1642.1	25.4493
1643.63	26.3449
1645.16	27.2805
1646.7	29.2662
1648.23	30.336
1649.76	30.8965
1651.29	31.8332
1652.82	32.1938
1654.36	33.1407
1655.89	32.5935
1657.42	32.907
1658.95	32.0383
1660.48	32.3089
1662.01	33.0863
1663.53	34.2383
1665.06	33.7569
1666.59	34.2382
1668.12	33.6487
1669.65	33.9493
1671.18	33.6712
1672.7	33.4533
1674.23	32.5469
1675.76	31.0156
1677.29	30.2726
1678.81	29.0308
1680.34	27.2062
1681.86	25.9766
1683.39	25.1225
1684.91	24.3
1686.44	22.4458
1687.96	20.6731
1689.49	19.7225
1691.01	18.3364
1692.54	16.9261
1694.06	14.7101
1695.58	12.8549
1697.11	11.4988
1698.63	10.3444
1700.15	8.34564
1701.67	6.49344
1703.2	5.84642
1704.72	4.98093
1706.24	4.56803
1707.76	4.72878
1709.28	4.82285
1710.8	4.31392
1712.32	4.16482
1713.84	3.81027
1715.36	3.8779
1716.88	4.20353
1718.4	3.60339
1719.91	3.91177
1721.43	4.05261
1722.95	3.60129
1724.47	3.41217
1725.99	3.29711
1727.5	2.51466
1729.02	1.52495
1730.54	1.14727
1732.05	1.44757
1733.57	0.734538
1735.09	0.967463
1736.6	1.76718
1738.12	1.86696
1739.63	2.62815
1741.15	2.13082
1742.66	2.99035
1744.18	3.00663
1745.69	3.37501
1747.2	2.81324
1748.72	2.66334
1750.23	2.08397
1751.74	2.30755
1753.25	1.96547
1754.77	1.60409
1756.28	1.62939
1757.79	1.78696
1759.3	1.98741
1760.81	1.85798
1762.32	0.910251
1763.83	1.12189
1765.34	1.47999
1766.85	0.731122
1768.36	0.419245
1769.87	-0.0956523
1771.38	0.394196
1772.89	0.696932
1774.4	-0.0610577
1775.91	0.203903
1777.41	0.451535
1778.92	0.276946
1780.43	1.10193
1781.94	1.80084
1783.44	2.33806
1784.95	2.37618
1786.45	1.92276
1787.96	2.06847
1789.47	2.045
1790.97	1.94128
1792.47	1.70202
1793.98	1.67458
1795.48	2.40573
1796.99	2.21535
1798.49	2.15368
1800	2.11445
1801.5	2.13127
1803	1.97488
1804.51	2.22966
1806.01	2.68883
1807.51	3.20767
1809.01	2.98542
1810.51	3.28312
1812.02	3.37635
1813.52	3.54112
1815.02	4.01018
1816.52	4.15582
1818.02	4.87271
1819.52	4.83129
1821.02	4.74556
1822.52	5.16851
1824.02	5.39391
1825.51	5.33415
1827.01	5.52695
1828.51	5.04973
1830.01	5.56894
1831.51	5.99021
1833	5.79226
1834.5	5.77569
1836	4.98087
1837.49	4.86779
1838.99	5.2005
1840.49	5.01652
1841.98	4.84567
1843.48	4.61076
1844.97	4.81126
1846.47	5.27403
1847.96	5.05108
1849.46	5.43198
1850.95	5.71081
1852.45	5.72441
1853.94	5.46405
1855.43	5.26935
1856.92	4.88455
1858.42	4.61195
1859.91	4.13945
1861.4	4.18937
1862.89	3.71705
1864.39	2.94553
1865.88	3.18436
1867.37	3.0192
1868.86	3.829
1870.35	3.86494
1871.84	3.20909
1873.33	3.0845
1874.82	2.87687
1876.31	2.85506
1877.8	2.50795
1879.29	2.38902
1880.77	2.40079
1882.26	2.41295
1882.52	2.81909
1884.02	2.36586
1885.51	2.50526
1887.01	2.39973
1888.5	2.49845
1889.99	2.59012
1891.49	2.47959
1892.98	1.42869
1894.47	1.4794
1895.96	1.26435
1897.46	0.717767
1898.95	0.940686
1900.44	1.49686
1901.93	1.14009
1903.42	1.48801
1904.91	1.50331
1906.4	1.059
1907.89	0.824533
1909.38	0.252073
1910.87	0.653552
1912.36	0.678106
1913.85	0.748694
1915.34	0.597686
1916.83	0.700185
1918.32	1.07429
1919.8	0.654984
1921.29	0.787108
1922.78	1.22739
1924.27	0.819393
1925.75	0.763115
1927.24	0.64183
1928.73	0.513088
1930.21	1.16355
1931.7	0.998073
1933.18	1.38283
1934.67	1.20324
1936.15	1.12285
1937.64	1.38794
1939.12	1.62379
1940.61	1.67803
1942.09	2.38947
1943.57	1.7872
1945.06	1.51648
1946.54	2.12061
1948.02	1.98567
1949.51	1.58193
1950.99	2.02726
1952.47	2.05713
1953.95	1.69147
1955.43	1.66764
1956.91	1.75836
1958.39	1.01165
1959.87	1.13365
1961.36	1.48724
1962.84	1.51071
1964.32	1.63015
1965.79	1.70093
1967.27	1.64054
1968.75	2.21938
1970.23	2.55541
1971.71	2.59131
1973.19	3.7774
1974.66	3.75841
1976.14	2.64728
1977.62	2.65304
1979.1	2.61577
1980.57	2.7189
1982.05	2.51682
1983.53	2.54935
1985	3.11409
1986.48	3.52855
1987.95	3.70756
1989.43	3.7976
1990.9	4.42205
1992.38	4.19717
1993.85	4.60682
1995.33	5.77525
1996.8	5.87148
1998.27	5.50088
1999.75	5.73742
2001.22	6.00256
2002.69	5.90086
2004.16	6.08123
2005.64	5.69537
2007.11	5.94035
2008.58	4.77504
2010.05	4.7573
2011.52	4.16469
2012.99	4.0969
2014.46	4.36663
2015.93	4.33716
2017.4	3.67698
2018.87	3.42722
2020.34	3.59228
2021.81	3.14803
2023.28	3.07761
2024.75	3.4419
2026.22	3.33341
2027.69	3.80991
2029.15	3.81745
2030.62	3.9403
2032.09	4.03386
2033.56	4.7792
2035.02	5.38416
2036.49	5.14613
2037.95	4.60012
2039.42	4.54968
2040.89	4.32845
2042.35	4.33976
2043.82	4.66424
2045.28	4.36291
2046.75	5.00838
2048.21	4.51617
2049.67	4.03757
2051.14	4.00002
2052.6	4.36983
2054.06	4.7104
2055.53	4.5827
2056.99	4.91721
2058.45	5.91514
2059.92	5.51366
2061.38	5.12831
2062.84	5.53253
2064.3	5.98545
2065.76	5.92408
2067.22	6.67356
2068.68	7.0596
2070.14	6.4272
2071.6	6.29419
2073.06	6.76636
2074.52	6.35471
2075.98	5.79348
2077.44	6.11961
2078.9	5.51874
2080.36	5.21345
2081.82	4.1759
2083.27	4.4809
2084.73	5.01298
2086.19	5.56233
2087.65	5.4794
2089.1	5.41649
2090.56	5.56264
2092.01	5.28902
2093.47	5.98993
2094.93	6.40178
2096.38	6.6102
2097.84	6.62422
2099.29	6.66772
2100.75	6.79193
2102.2	6.34093
2103.66	6.48807
2105.11	6.71868
2106.56	6.98464
2108.02	6.06873
2109.47	5.54804
2110.92	5.30192
2112.37	6.09922
2113.83	6.30419
2115.28	6.61406
2116.73	6.79534
2118.18	6.2295
2119.63	6.37349
2121.09	6.35836
2122.54	6.05288
2123.99	6.36138
2125.44	6.35026
2126.89	6.13736
2128.34	5.97601
2129.79	6.41858
2131.23	6.87905
2132.68	6.5893
2134.13	7.03128
