#Acq. time (s)=	45
#Accumulations=	2
#Range (cm-¹)=	200...3150
#Windows=	2
#Auto scanning=	Off
#Autofocus=	Off
#Macrospot=	Off
#AutoExposure=	Off
#Spike filter=	Multiple accum.
#Delay time (s)=	0
#Binning=	1
#Readout mode=	Signal
#DeNoise=	Off
#ICS correction=	On
#Dark correction=	Off
#Inst. Process=	Off
#Detector Gain=	Best Dynamic Range
#Detector ADC=	20 kHz       
#Detector temperature (°C)=	-70.08
#Instrument=	LabRAM HR Evol
#Detector=	Synapse
#Objective=	x100
#Grating=	600 gr/mm
#ND Filter=	100%
#Laser (nm)=	532 
#Hole=	100.021
#Range=	Auto
#Laser Pol.=	No
#Raman. Pol.=	No
#Laser Pol. (°)=	-0.0007625
#Raman Pol. (°)=	89.9995
#Collection=	Microscope
#StageXY=	Marzhauser
#StageZ=	Marzhauser
#X (µm)=	-2408.4
#Y (µm)=	2135.1
#Z (µm)=	-40.85
#Full time(mm:ss)=	3:19
#Project=	
#Sample=	
#Site=	
#Title=	Mb_10_14_02_2x_45s_532 nm_x100_100%_600 gr_mm
#Remark=	
#Date=	07.07.2022 13:34
#Acquired=	07.07.2022 13:34:40
#Base:Fit=	10.08.2022 10:21:11
#Base:Sub=	10.08.2022 10:21:41
#Filter:Polynom=	16.08.2022 10:17:53
#AxisType[0]=Intens
#AxisUnit[0]=Cnt
#AxisType[1]=Spectr
#AxisUnit[1]=1/cm
200.43	50.3729
202.246	45.455
204.061	39.6347
205.875	34.838
207.688	29.9165
209.501	25.9762
211.316	22.6983
213.129	20.7258
214.941	20.1514
216.753	19.3595
218.566	19.7589
220.377	20.1833
222.188	21.1435
223.999	21.4309
225.809	23.0868
227.618	25.0838
229.43	25.5901
231.239	26.2
233.047	26.606
234.855	27.8691
236.663	29.3626
238.471	31.1451
240.278	31.4955
242.087	32.1517
243.894	32.8013
245.7	33.4824
247.506	34.4421
249.311	35.5219
251.116	36.6377
252.921	37.3566
254.725	37.6346
256.529	37.3464
258.333	37.6576
260.136	37.4475
261.939	37.7754
263.744	36.7021
265.546	36.9079
267.348	36.3873
269.15	35.0536
270.951	32.4284
272.752	30.5069
274.552	29.0167
276.353	26.3479
278.152	24.2858
279.952	22.0217
281.751	20.2275
283.55	17.6243
285.348	15.3537
287.146	14.0949
288.942	13.108
290.739	10.3063
292.536	9.10216
294.333	8.5463
296.129	7.73744
297.925	7.82439
299.721	8.12893
301.516	7.78441
303.311	7.13817
305.106	7.32869
306.9	6.44271
308.694	6.48182
310.486	6.46378
312.279	6.97619
314.072	7.86929
315.864	8.56223
317.656	8.34232
319.448	8.20784
321.24	9.05247
323.029	9.37353
324.819	10.9764
326.61	11.9194
328.4	12.1768
330.19	11.532
331.977	11.9845
333.766	11.5116
335.555	11.0153
337.343	10.0218
339.131	9.09302
340.917	8.17877
342.704	7.42795
344.491	7.62417
346.277	7.78037
348.062	7.87392
349.848	6.78887
351.633	6.95478
353.416	7.328
355.201	8.09528
356.986	7.72226
358.77	7.12512
360.552	6.80081
362.335	7.53097
364.118	8.69136
365.899	8.87135
367.682	9.51363
369.464	10.2715
371.243	11.1139
373.025	11.8
374.806	12.4941
376.585	13.2847
378.365	13.4038
380.143	13.923
381.923	15.6861
383.702	15.7539
385.479	16.1553
387.258	16.89
389.034	17.7738
390.812	17.6943
392.59	18.0103
394.365	19.7973
396.142	19.7881
397.916	20.315
399.693	21.4335
401.467	21.1603
403.242	21.2345
405.015	20.3627
406.79	20.4355
408.565	20.1268
410.337	18.7578
412.111	18.4209
413.882	17.8902
415.656	16.7425
417.426	15.6306
419.197	14.193
420.969	13.4457
422.739	10.7425
424.51	9.93055
426.279	8.63072
428.05	7.78022
429.819	6.77997
431.589	5.69997
433.356	4.62416
435.124	3.22353
436.893	2.62841
438.66	2.61754
440.428	3.85885
442.194	3.36836
443.96	1.80682
445.727	1.61406
447.492	2.23768
449.259	2.48552
451.023	2.30806
452.787	2.68664
454.553	3.13798
456.316	2.60642
458.079	2.50779
459.844	2.00617
461.606	3.18021
463.368	3.39173
465.132	4.39003
466.893	5.02768
468.654	6.677
470.415	7.51087
472.177	8.5619
473.937	10.0248
475.696	11.6988
477.456	12.7441
479.217	13.2637
480.975	14.1833
482.733	14.7097
484.491	15.0974
486.251	16.2451
488.008	17.2483
489.765	18.0915
491.522	19.5409
493.278	19.4181
495.036	20.3892
496.791	20.9964
498.546	21.877
500.301	22.7505
502.056	22.6929
503.81	24.4259
505.566	25.2343
507.319	25.3025
509.073	25.3558
510.825	25.1108
512.578	25.635
514.33	25.6284
516.082	25.8381
517.833	25.4724
519.587	25.7222
521.337	26.3539
523.088	26.3866
524.838	27.0842
526.588	26.872
528.337	25.9624
530.087	24.2724
531.835	23.6736
533.584	23.9675
535.332	23.6563
537.08	21.7076
538.827	20.9803
540.574	20.0464
542.321	18.9451
544.068	17.8126
545.814	17.8185
547.56	17.1032
549.305	16.5606
551.05	15.474
552.795	14.2457
554.54	13.2471
556.284	13.2192
558.027	11.4024
559.771	10.5756
561.514	10.1332
563.257	8.62351
564.999	7.49606
566.742	5.22465
568.481	4.79062
570.223	4.13338
571.964	4.00642
573.705	3.21988
575.445	2.67827
577.185	1.99697
578.925	1.5959
580.665	1.16181
582.402	1.43594
584.141	1.14844
585.879	0.516735
587.617	0.560635
589.355	0.90697
591.092	1.64353
592.828	1.29278
594.564	1.44712
596.301	2.4892
598.037	3.32682
599.773	3.44091
601.506	3.9241
603.242	4.4793
604.976	5.5503
606.711	7.04912
608.443	7.80844
610.177	9.03246
611.91	9.94053
613.644	9.49789
615.374	10.0397
617.107	10.6911
618.839	11.8033
620.569	11.9981
622.3	11.8607
624.032	11.9859
625.761	13.7443
627.491	14.2941
629.221	14.1759
630.949	15.4762
632.679	16.7642
634.408	17.9211
636.135	18.7807
637.863	19.8097
639.592	19.651
641.318	21.2413
643.045	21.0518
644.77	20.5907
646.497	21.8542
648.224	22.2915
649.948	22.556
651.674	23.8866
653.398	23.9993
655.123	24.5645
656.846	24.1788
658.57	24.5299
660.293	24.2075
662.017	23.8628
663.738	22.8111
665.462	22.7972
667.185	21.9661
668.905	21.2572
670.628	21.6082
672.348	21.3337
674.067	22.1026
675.789	21.6053
677.508	22.311
679.228	22.8663
680.947	22.4847
682.667	22.0716
684.385	22.1128
686.104	21.9445
687.821	21.7247
689.538	23.3223
691.256	23.9515
692.972	24.1258
694.69	23.7544
696.406	24.1119
698.121	23.6274
699.837	24.2211
701.552	25.2071
703.268	25.7529
704.982	26.9891
706.695	26.8267
708.41	28.1935
710.123	29.9584
711.836	30.7077
713.55	31.7108
715.262	32.3641
716.973	34.614
718.685	35.6418
720.398	36.0168
722.108	36.0629
723.818	36.2641
725.53	35.7183
727.24	37.186
728.949	37.3469
730.658	38.0643
732.369	38.1893
734.077	38.6183
735.785	40.012
737.493	39.2071
739.2	39.1657
740.909	38.6266
742.616	39.9113
744.322	39.568
746.028	39.7061
747.734	39.8268
749.441	41.1884
751.146	42.5694
752.851	43.7424
754.555	44.321
756.26	44.8894
757.963	45.7671
759.667	46.9129
761.372	46.4818
763.075	48.1153
764.777	48.3377
766.479	49.483
768.181	51.6661
769.883	53.0947
771.584	54.0894
773.285	55.1104
774.986	57.3649
776.686	58.4748
778.386	60.264
780.085	61.6052
781.785	63.6534
783.484	65.9858
785.182	67.7398
786.881	69.3264
788.579	70.2798
790.276	71.1922
791.974	71.3087
793.671	72.6826
795.367	73.7089
797.064	73.982
798.76	74.7026
800.456	74.5639
802.151	74.2455
803.846	74.5242
805.541	74.2354
807.236	73.0735
808.93	72.5405
810.624	73.2823
812.317	73.1291
814.01	72.6927
815.703	72.2964
817.394	73.2758
819.086	74.5031
820.778	73.9567
822.47	72.5217
824.161	72.988
825.852	73.216
827.543	73.7179
829.231	73.356
830.921	73.8393
832.611	73.1435
834.3	72.9404
835.989	71.9301
837.676	71.2526
839.364	70.7616
841.053	69.32
842.74	68.2366
844.426	67.2914
846.113	66.4172
847.8	66.0282
849.486	64.9701
851.171	64.4488
852.857	62.6356
854.542	61.533
856.227	61.0373
857.911	60.4604
859.595	59.3397
861.279	57.7359
862.961	57.1997
864.645	55.7717
866.329	56.489
868.01	55.6516
869.692	55.0096
871.375	54.3856
873.055	53.5457
874.737	52.8819
876.418	51.9943
878.097	50.8319
879.778	50.2857
881.457	49.5221
883.137	49.2565
884.817	47.7952
886.495	47.1313
888.174	47.4302
889.851	45.1767
891.53	44.72
893.206	45.6843
894.884	46.0681
896.562	45.786
898.237	45.6255
899.914	46.3653
901.589	46.3287
903.265	45.0725
904.94	44.0333
906.615	44.6913
908.289	45.5355
909.964	45.7148
911.637	46.036
913.31	45.616
914.984	44.4219
916.656	44.6727
918.33	44.1938
920.001	44.4396
921.674	44.8847
923.345	44.6754
925.015	44.1767
926.687	44.8488
928.357	45.625
930.028	44.9644
931.698	43.9992
933.366	43.7362
935.037	43.997
936.705	44.5912
938.373	44.9743
940.043	44.1347
941.71	43.4134
943.379	42.0277
945.046	42.1733
946.712	42.5677
948.378	43.3754
950.046	43.7639
951.711	42.6863
953.376	42.2884
955.043	41.5435
956.708	40.3001
958.372	38.8674
960.036	37.6669
961.701	37.5983
963.364	37.8024
965.027	37.9998
966.69	37.64
968.354	37.12
970.016	37.7336
971.678	37.4359
973.339	37.091
975	38.1271
976.661	37.4053
978.324	36.6631
979.984	36.5252
981.644	35.5136
983.303	35.0568
984.962	33.3545
986.621	32.6759
988.282	32.4644
989.94	32.1586
991.598	30.632
993.256	30.2046
994.913	30.1625
996.57	29.2096
998.227	28.4308
999.884	29.6925
1001.54	29.5552
1003.2	30.7812
1004.85	30.1671
1006.51	29.951
1008.16	30.2493
1009.82	29.8714
1011.47	30.0536
1013.12	30.2841
1014.78	30.8689
1016.43	31.6945
1018.08	33.3525
1019.74	32.8935
1021.39	31.8153
1023.04	31.323
1024.69	32.3852
1026.34	33.1724
1028	34.2639
1029.65	35.073
1031.3	34.9206
1032.95	34.4457
1034.6	34.6196
1036.25	34.8167
1037.9	35.1654
1039.55	34.8538
1041.19	36.0829
1042.84	37.8228
1044.49	38.9148
1046.14	39.8264
1047.79	40.2068
1049.43	40.12
1051.08	40.4155
1052.73	39.6188
1054.37	39.2297
1056.02	39.2641
1057.66	38.2719
1059.31	37.0114
1060.95	36.5467
1062.6	35.1414
1064.24	33.3188
1065.88	31.7016
1067.53	30.222
1069.17	29.3668
1070.81	27.8647
1072.46	26.7072
1074.1	24.8447
1075.74	23.9305
1077.38	22.5383
1079.02	21.3917
1080.66	21.1076
1082.3	21.112
1083.94	19.5104
1085.58	17.752
1087.22	16.0636
1088.86	15.9447
1090.5	15.8275
1092.14	15.5243
1093.78	15.9619
1095.42	16.3723
1097.05	15.8275
1098.69	16.1035
1100.33	16.6212
1101.97	16.5259
1103.6	17.2217
1105.24	18.4868
1106.87	19.4898
1108.51	18.5903
1110.15	17.6578
1111.78	16.4706
1113.41	16.5242
1115.05	17.4562
1116.68	17.5037
1118.31	18.9573
1119.95	18.9323
1121.58	18.5118
1123.21	18.6407
1124.85	18.9435
1126.48	17.8754
1128.11	17.7001
1129.74	17.4534
1131.37	16.8933
1133	17.1106
1134.63	16.2954
1136.26	15.6406
1137.89	14.4123
1139.52	13.807
1141.15	13.7385
1142.78	13.0148
1144.41	11.4084
1146.04	11.077
1147.66	9.44227
1149.29	8.58089
1150.92	8.70607
1152.55	8.13275
1154.17	6.65347
1155.8	5.65844
1157.43	4.97135
1159.05	5.02894
1160.68	3.66205
1162.3	3.17001
1163.93	1.37718
1165.55	0.133771
1167.17	-0.688666
1168.8	-0.809098
1170.42	-0.681884
1172.05	0.596475
1173.67	-0.10427
1175.29	1.39032
1176.91	1.81594
1178.54	1.42041
1180.16	2.78474
1181.78	2.55846
1183.4	2.68457
1185.02	2.96594
1186.64	3.32041
1188.26	2.75865
1189.88	3.11051
1191.5	3.47252
1193.12	5.43921
1194.74	6.37456
1196.36	6.74251
1197.97	7.63339
1199.59	7.61711
1201.21	6.51411
1202.83	7.08687
1204.44	9.30055
1206.06	10.9127
1207.68	12.5331
1209.29	13.6081
1210.91	14.4815
1212.52	15.5464
1214.14	17.199
1215.75	17.6968
1217.37	18.6509
1218.98	18.8686
1220.6	21.5204
1222.21	23.0659
1223.82	24.09
1225.44	25.1609
1227.05	27.8606
1228.66	28.5005
1230.27	30.4208
1231.88	30.7354
1233.49	31.6615
1235.1	32.1428
1236.72	33.9345
1238.33	33.9507
1239.94	34.4843
1241.55	34.0448
1243.16	35.163
1244.76	36.0521
1246.37	37.2895
1247.98	37.3333
1249.59	39.0125
1251.2	39.7437
1252.8	41.0311
1254.41	41.2612
1256.02	42.4471
1257.63	42.4865
1259.23	41.9863
1260.84	42.6778
1262.44	42.1235
1264.05	42.8026
1265.66	42.9542
1267.26	43.1831
1268.87	42.7534
1270.47	43.5449
1272.07	44.6116
1273.68	45.2942
1275.28	45.4667
1276.88	45.6622
1278.48	45.692
1280.09	45.4666
1281.69	47.0837
1283.29	48.9819
1284.89	50.6604
1286.49	50.6402
1288.09	50.9875
1289.69	50.0856
1291.3	51.0021
1292.9	52.1345
1294.49	51.5203
1296.09	51.9658
1297.69	52.9126
1299.29	53.4406
1300.89	55.5952
1302.49	56.1418
1304.09	56.173
1305.68	56.7435
1307.28	58.2666
1308.88	58.0827
1310.47	58.4908
1312.07	58.6847
1313.66	60.1705
1315.26	60.4114
1316.86	61.2472
1318.45	60.7923
1320.05	61.064
1321.64	61.5482
1323.23	62.7453
1324.83	63.3693
1326.42	63.4746
1328.01	62.9326
1329.61	63.6821
1331.2	62.6573
1332.79	62.3776
1334.38	62.3064
1335.98	61.6436
1337.57	61.4241
1339.16	60.3094
1340.75	60.1509
1342.34	60.0803
1343.93	59.6156
1345.52	59.3483
1347.11	58.79
1348.7	58.7391
1350.29	59.0397
1351.87	58.7492
1353.46	55.6434
1355.05	54.1013
1356.64	51.9761
1358.23	51.1286
1359.81	50.8719
1361.4	49.9742
1362.99	48.1875
1364.57	46.1287
1366.16	43.853
1367.74	43.8301
1369.33	42.3947
1370.91	41.1228
1372.5	38.9814
1374.08	37.3791
1375.67	36.8298
1377.25	35.513
1378.83	34.421
1380.42	33.0839
1382	33.0646
1383.58	32.386
1385.16	31.9765
1386.75	31.7243
1388.33	30.9699
1389.91	29.8792
1391.49	29.9068
1393.07	29.8253
1394.65	29.511
1396.23	29.277
1397.81	29.1598
1399.39	29.2554
1400.97	30.0275
1402.55	30.1604
1404.13	30.044
1405.7	31.2135
1407.28	32.2176
1408.86	32.315
1410.44	33.4626
1412.01	34.8506
1413.59	37.4292
1415.17	38.146
1416.74	39.7904
1418.32	42.6724
1419.89	46.0747
1421.47	49.3384
1423.05	52.5106
1424.62	55.7165
1426.19	59.2079
1427.77	62.5618
1429.34	65.4939
1430.92	67.9719
1432.49	70.8531
1434.06	74.5285
1435.63	77.7707
1437.2	80.1759
1438.78	82.1886
1440.35	82.595
1441.92	83.7881
1443.49	85.1015
1445.06	86.8708
1446.63	88.4036
1448.2	87.6197
1449.77	88.6549
1451.34	89.2144
1452.91	90.9526
1454.48	90.3287
1456.05	90.1008
1457.62	89.9197
1459.18	89.0064
1460.75	88.8363
1462.32	86.4318
1463.89	83.9994
1465.45	81.7809
1467.02	78.9145
1468.59	75.8001
1470.15	73.8868
1471.72	71.3268
1473.28	68.6618
1474.85	65.0129
1476.41	62.0669
1477.98	58.9868
1479.54	56.3093
1481.11	53.1496
1482.67	50.4519
1484.23	47.4753
1485.8	43.6718
1487.36	40.259
1488.92	37.6756
1490.48	35.1637
1492.05	32.896
1493.61	29.4977
1495.17	29.155
1496.73	27.4796
1498.29	25.8153
1499.85	24.8442
1501.41	23.6424
1502.97	21.2212
1504.53	19.9692
1506.09	18.5477
1507.65	18.3393
1509.2	16.471
1510.76	15.059
1512.32	12.1933
1513.88	11.2547
1515.44	9.37471
1516.99	7.94726
1518.55	7.46434
1520.1	7.63862
1521.66	8.52628
1523.22	9.14576
1524.77	9.75304
1526.33	9.56959
1527.88	9.79249
1529.44	9.52638
1530.99	10.094
1532.55	9.55487
1534.1	10.9155
1535.65	11.0086
1537.21	11.5661
1538.76	11.4111
1540.31	11.5635
1541.86	12.6314
1543.42	14.707
1544.97	16.4016
1546.52	17.9294
1548.07	20.0974
1549.62	21.2181
1551.17	21.7171
1552.72	22.269
1554.27	24.4783
1555.82	25.5882
1557.37	26.6812
1558.92	27.6889
1560.47	28.485
1562.02	29.3691
1563.57	29.8972
1565.11	29.9084
1566.66	29.7337
1568.21	30.9151
1569.75	31.3074
1571.3	31.8204
1572.85	33.0638
1574.39	34.3874
1575.94	35.6565
1577.49	36.4412
1579.03	36.7398
1580.58	37.5372
1582.12	38.8583
1583.67	39.8465
1585.21	39.3933
1586.75	38.8271
1588.3	38.7373
1589.84	38.7897
1591.38	39.9026
1592.93	40.1177
1594.47	40.6456
1596.01	41.4011
1597.55	42.0073
1599.09	43.0107
1600.63	43.255
1602.18	42.6304
1603.72	41.3127
1605.26	41.3891
1606.8	41.5328
1608.34	42.1193
1609.87	41.9548
1611.41	42.5774
1612.95	41.7296
1614.49	41.8721
1616.03	42.1179
1617.57	43.0821
1619.11	42.9263
1620.64	43.3499
1622.18	42.91
1623.72	43.299
1625.25	44.409
1626.79	43.9553
1628.32	44.0015
1629.86	44.5027
1631.4	45.3395
1632.93	45.9036
1634.47	47.0011
1636	47.4278
1637.53	47.5842
1639.07	48.2487
1640.6	48.3498
1642.14	49.1667
1643.67	51.0713
1645.2	52.8443
1646.73	53.8819
1648.27	55.2997
1649.8	56.2664
1651.33	57.4322
1652.86	57.6084
1654.39	58.8451
1655.92	60.1768
1657.45	60.215
1658.98	60.0667
1660.51	59.7739
1662.04	58.9786
1663.57	59.0384
1665.1	58.5667
1666.63	58.1209
1668.16	58.2044
1669.69	57.7647
1671.21	57.2843
1672.74	57.06
1674.27	56.5629
1675.79	54.8977
1677.32	53.376
1678.85	50.0643
1680.37	49.1635
1681.9	47.9619
1683.42	46.1509
1684.95	44.5744
1686.47	41.9757
1688	39.4441
1689.52	36.9112
1691.05	34.1323
1692.57	32.1571
1694.1	29.5387
1695.62	27.6785
1697.14	26.0398
1698.66	24.0119
1700.19	22.1725
1701.71	19.7195
1703.23	16.7141
1704.75	15.4869
1706.27	14.2704
1707.79	13.634
1709.32	12.8519
1710.83	11.1754
1712.35	9.5378
1713.88	8.99657
1715.39	8.96864
1716.91	8.28259
1718.43	7.50973
1719.95	7.09482
1721.47	6.37956
1722.99	5.18048
1724.5	5.13573
1726.02	4.25121
1727.54	3.73301
1729.06	3.91603
1730.57	3.45899
1732.09	3.47094
1733.61	2.7881
1735.12	2.77324
1736.64	2.5545
1738.15	2.74134
1739.67	3.51373
1741.18	3.75799
1742.7	4.41697
1744.21	5.55342
1745.72	5.60736
1747.24	6.21885
1748.75	6.73812
1750.26	7.14207
1751.78	7.12503
1753.29	7.70908
1754.8	6.87449
1756.31	8.26181
1757.82	7.88125
1759.34	7.67463
1760.85	7.42109
1762.36	7.3312
1763.87	7.30103
1765.38	7.46588
1766.89	7.18749
1768.4	8.13513
1769.91	7.91185
1771.41	8.10856
1772.92	7.5729
1774.43	6.8349
1775.94	6.6293
1777.45	6.98854
1778.96	7.41002
1780.46	7.53218
1781.97	7.79593
1783.48	7.8234
1784.98	7.58269
1786.49	7.30144
1788	7.51946
1789.5	8.25131
1791.01	7.77432
1792.51	7.07501
1794.01	6.52477
1795.52	6.55422
1797.02	6.26115
1798.53	5.94829
1800.03	5.94518
1801.54	5.09748
1803.04	5.25616
1804.54	5.62343
1806.04	5.69227
1807.54	5.79797
1809.05	5.66664
1810.55	5.54315
1812.05	5.20356
1813.55	5.47073
1815.05	5.52004
1816.55	5.11553
1818.05	5.11054
1819.55	4.7966
1821.05	4.70933
1822.55	4.14544
1824.05	4.18263
1825.55	4.37365
1827.05	4.26127
1828.55	4.29295
1830.04	3.59924
1831.54	4.36309
1833.04	3.93605
1834.54	3.15534
1836.03	2.92207
1837.53	2.90477
1839.03	2.81055
1840.52	2.86702
1842.02	3.02931
1843.51	2.96399
1845.01	3.03515
1846.5	3.33958
1848	3.22638
1849.49	2.53655
1850.99	2.91062
1852.48	2.89737
1853.97	2.27353
1855.47	2.0732
1856.96	2.25427
1858.45	2.7139
1859.94	3.05299
1861.44	2.92668
1862.93	3.00751
1864.42	3.29067
1865.91	2.81696
1867.4	2.7367
1868.89	2.09511
1870.38	2.09295
1871.87	1.38758
1873.36	2.21328
1874.85	1.37169
1876.34	2.16778
1877.83	2.79984
1879.32	2.712
1880.81	3.03175
1882.3	2.14221
1882.56	2.81697
1884.06	2.48541
1885.55	2.53373
1887.04	3.75901
1888.54	3.66174
1890.03	3.81218
1891.52	4.36946
1893.02	4.7776
1894.51	5.16786
1896	4.764
1897.49	5.2407
1898.99	5.74609
1900.48	5.82996
1901.97	6.13996
1903.46	5.74144
1904.95	6.13089
1906.44	6.16003
1907.93	6.06447
1909.42	7.25956
1910.91	8.15839
1912.4	8.15909
1913.89	8.75346
1915.38	8.46475
1916.86	8.90278
1918.35	8.63343
1919.84	7.59108
1921.33	7.18073
1922.82	7.01823
1924.3	7.25017
1925.79	6.80327
1927.28	7.40218
1928.76	8.15038
1930.25	8.39669
1931.74	9.07019
1933.22	8.8816
1934.71	8.64235
1936.19	8.12737
1937.67	8.03765
1939.16	7.40135
1940.64	6.95538
1942.13	6.89926
1943.61	7.2963
1945.09	7.72026
1946.58	8.80839
1948.06	8.08352
1949.54	8.38557
1951.03	7.55438
1952.51	6.59232
1953.99	6.6889
1955.47	6.49706
1956.95	7.02544
1958.43	5.7241
1959.91	5.2859
1961.39	5.30988
1962.87	4.48808
1964.35	5.53513
1965.83	5.48085
1967.31	4.44958
1968.79	4.30746
1970.27	3.30495
1971.75	3.73773
1973.22	3.44233
1974.7	3.15053
1976.18	2.48635
1977.66	2.02361
1979.13	2.82835
1980.61	3.37041
1982.09	3.21437
1983.56	2.97172
1985.04	2.44886
1986.52	1.81291
1987.99	2.21326
1989.47	1.26769
1990.94	2.16035
1992.41	1.76823
1993.89	1.48049
1995.36	1.81748
1996.84	1.77584
1998.31	1.11243
1999.78	1.50681
2001.26	1.78873
2002.73	1.66051
2004.2	1.26117
2005.67	1.65224
2007.15	1.91958
2008.62	2.14249
2010.09	2.2525
2011.56	2.63765
2013.03	2.48358
2014.5	2.57891
2015.97	2.77272
2017.44	3.18974
2018.91	3.11982
2020.38	3.49042
2021.85	3.53572
2023.32	3.70906
2024.79	3.66797
2026.25	3.81258
2027.72	4.68917
2029.19	4.28633
2030.66	4.37627
2032.13	4.27448
2033.59	5.51865
2035.06	6.63986
2036.53	7.05953
2037.99	7.06015
2039.46	6.74433
2040.92	6.93168
2042.39	6.91262
2043.85	6.40327
2045.32	6.78302
2046.78	6.83947
2048.25	7.42005
2049.71	7.27158
2051.18	7.6676
2052.64	7.37901
2054.1	6.94807
2055.56	6.0437
2057.03	5.9133
2058.49	6.32058
2059.95	6.41114
2061.42	6.27173
2062.88	5.83806
2064.34	6.15481
2065.8	4.74838
2067.26	4.18777
2068.72	4.20151
2070.18	4.05346
2071.64	3.20391
2073.1	4.03974
2074.56	4.12474
2076.02	4.21445
2077.48	3.62316
2078.94	4.2927
2080.39	4.27574
2081.85	4.12949
2083.31	4.14399
2084.77	4.16346
2086.22	4.0966
2087.68	4.90001
2089.14	4.95717
2090.6	6.21639
2092.05	6.6949
2093.51	7.43377
2094.96	7.9106
2096.42	7.2018
2097.87	5.94598
2099.33	5.79597
2100.78	5.86145
2102.24	5.44675
2103.69	6.38833
2105.15	6.54589
2106.6	6.67887
2108.05	6.26223
2109.51	5.75848
2110.96	6.34433
2112.41	6.9331
2113.86	7.36681
2115.32	7.73767
2116.77	8.42373
2118.22	8.24117
2119.67	8.59604
2121.12	7.85898
2122.57	9.01791
2124.02	10.1659
2125.47	10.8388
2126.92	11.9678
2128.37	12.5393
2129.82	13.3363
2131.27	14.0297
2132.72	14.2424
2134.17	14.484
2135.62	15.1128
2137.06	16.2697
