#Acq. time (s)=	45
#Accumulations=	2
#Range (cm-¹)=	200...3150
#Windows=	2
#Auto scanning=	Off
#Autofocus=	Off
#Macrospot=	Off
#AutoExposure=	Off
#Spike filter=	Multiple accum.
#Delay time (s)=	0
#Binning=	1
#Readout mode=	Signal
#DeNoise=	Off
#ICS correction=	On
#Dark correction=	Off
#Inst. Process=	Off
#Detector Gain=	Best Dynamic Range
#Detector ADC=	20 kHz       
#Detector temperature (°C)=	-69.85
#Instrument=	LabRAM HR Evol
#Detector=	Synapse
#Objective=	x100
#Grating=	600 gr/mm
#ND Filter=	100%
#Laser (nm)=	532 
#Hole=	100.021
#Range=	Auto
#Laser Pol.=	No
#Raman. Pol.=	No
#Laser Pol. (°)=	-0.0007625
#Raman Pol. (°)=	89.9995
#Collection=	Microscope
#StageXY=	Marzhauser
#StageZ=	Marzhauser
#X (µm)=	-622.3
#Y (µm)=	-1608.6
#Z (µm)=	89.6
#Full time(mm:ss)=	3:18
#Project=	
#Sample=	
#Site=	
#Title=	Mb_10_14_34_2x_45s_532 nm_x100_100%_600 gr_mm
#Remark=	
#Date=	11.07.2022 11:02
#Acquired=	11.07.2022 11:02:48
#Base:Fit=	10.08.2022 10:21:11
#Base:Sub=	10.08.2022 10:21:41
#Filter:Polynom=	16.08.2022 10:17:53
#AxisType[0]=Intens
#AxisUnit[0]=Cnt
#AxisType[1]=Spectr
#AxisUnit[1]=1/cm
200.388	15.6338
202.204	12.8974
204.019	12.9492
205.832	11.7479
207.646	10.643
209.459	9.64931
211.274	8.84763
213.087	7.81529
214.899	7.30263
216.711	6.56241
218.524	5.86068
220.335	5.41693
222.146	4.82993
223.956	3.91218
225.766	3.79236
227.576	3.99535
229.388	5.29568
231.197	5.4611
233.005	5.94447
234.813	6.37462
236.621	5.47891
238.429	5.74856
240.236	6.07055
242.045	5.57298
243.852	5.2789
245.658	5.34225
247.464	5.16604
249.269	4.8838
251.074	4.72094
252.879	5.82411
254.683	6.2275
256.487	5.97493
258.291	6.8816
260.094	7.06448
261.897	6.2194
263.702	6.15179
265.504	6.15414
267.306	6.93309
269.108	6.77141
270.909	6.81957
272.71	7.82988
274.511	6.63416
276.311	6.73634
278.111	6.33751
279.91	5.85571
281.709	6.24409
283.508	4.63526
285.306	3.45624
287.105	2.61597
288.9	3.23016
290.698	2.42774
292.495	2.15514
294.291	1.37361
296.088	1.98315
297.884	2.61883
299.679	2.47849
301.475	2.39756
303.27	2.86053
305.064	2.97069
306.858	2.25642
308.652	1.66928
310.444	1.64098
312.237	1.39427
314.03	1.63886
315.822	2.75025
317.615	3.39026
319.406	3.18718
321.198	2.65253
322.987	3.35945
324.778	2.92968
326.568	2.95654
328.358	3.72762
330.148	3.7967
331.935	4.3214
333.724	4.71063
335.513	5.31241
337.301	5.71181
339.089	6.3799
340.875	7.40175
342.662	7.98686
344.449	7.82593
346.236	8.45738
348.02	9.12439
349.806	8.90342
351.592	9.22167
353.375	10.2331
355.16	10.8742
356.944	11.3168
358.728	11.7049
360.51	11.2085
362.294	11.4313
364.077	11.7681
365.858	12.7321
367.64	12.991
369.422	12.3336
371.202	12.1302
372.983	10.8479
374.764	10.6561
376.543	10.7617
378.324	11.5535
380.102	11.316
381.881	11.3656
383.661	12.236
385.438	12.5096
387.216	12.796
388.993	11.2586
390.771	11.2705
392.548	11.1031
394.324	9.57119
396.101	9.26819
397.875	9.20058
399.651	10.3749
401.425	9.85994
403.201	9.72453
404.974	9.48635
406.749	9.35906
408.524	7.76475
410.296	8.10348
412.07	7.59056
413.841	7.53666
415.614	7.92975
417.385	7.64334
419.156	7.98717
420.928	7.93704
422.698	6.72205
424.469	6.79788
426.238	6.39376
428.009	6.71621
429.777	6.68795
431.548	6.22974
433.315	6.11034
435.083	6.77441
436.852	7.49822
438.618	7.57977
440.387	7.74922
442.153	8.92403
443.919	8.90726
445.686	8.04974
447.451	7.96055
449.218	7.31872
450.982	7.99253
452.746	8.21496
454.512	7.96846
456.275	6.77188
458.038	5.46407
459.803	4.75927
461.565	4.69823
463.327	4.4193
465.091	5.50024
466.852	6.57892
468.613	7.19223
470.374	6.86118
472.136	8.42763
473.896	9.30875
475.655	10.2663
477.415	10.4639
479.176	11.7923
480.934	11.2872
482.692	11.2091
484.45	11.982
486.21	12.2991
487.967	12.3577
489.724	11.8192
491.481	12.2399
493.237	12.203
494.995	12.3667
496.75	12.5164
498.506	14.2784
500.26	15.2891
502.015	16.128
503.769	16.4498
505.525	16.2363
507.279	16.3493
509.032	16.5166
510.785	16.2274
512.537	17.4647
514.289	18.269
516.041	18.591
517.793	18.4134
519.546	18.2736
521.297	18.7889
523.047	18.8178
524.797	19.5977
526.547	18.8775
528.297	17.8645
530.046	17.8932
531.795	16.57
533.543	14.7539
535.291	14.0766
537.039	12.9781
538.787	13.5583
540.534	13.0447
542.281	11.933
544.027	10.7318
545.773	10.9281
547.519	11.3536
549.264	12.8074
551.01	12.4724
552.754	13.1191
554.499	12.5534
556.243	13.0421
557.987	11.5625
559.73	13.0858
561.474	12.1536
563.216	11.9637
564.959	10.8258
566.701	10.2282
568.441	10.0066
570.182	11.0696
571.923	10.8571
573.664	10.5607
575.405	9.5037
577.145	9.85913
578.885	9.19468
580.624	9.36971
582.361	8.91426
584.1	9.48093
585.839	9.34373
587.577	9.25552
589.315	8.50278
591.052	8.07717
592.787	7.16777
594.524	7.48885
596.26	7.5973
597.997	6.81848
599.732	7.0437
601.466	5.96777
603.201	5.83488
604.936	6.13132
606.67	6.15902
608.403	5.64178
610.136	5.46597
611.87	6.05823
613.603	4.95394
615.334	4.78919
617.067	5.04983
618.799	4.95508
620.529	5.2126
622.26	6.05513
623.991	7.0006
625.72	8.78985
627.451	8.69303
629.181	9.22278
630.909	11.0286
632.638	12.3078
634.368	12.4502
636.095	12.8362
637.823	13.2177
639.551	13.6268
641.277	13.5001
643.005	14.6301
644.73	15.1935
646.457	17.0277
648.184	17.2633
649.908	17.1516
651.634	17.98
653.357	19.0885
655.083	20.3302
656.806	20.2461
658.53	19.576
660.253	20.1154
661.977	20.6074
663.7	21.2382
665.422	21.3281
667.145	22.1455
668.865	21.4557
670.588	22.3126
672.308	21.8005
674.027	21.0547
675.749	21.4357
677.468	21.1177
679.188	21.1339
680.907	21.6343
682.627	21.3782
684.345	22.1584
686.064	22.4929
687.781	22.9467
689.498	23.6408
691.216	23.3875
692.932	23.4946
694.65	23.2942
696.366	24.3
698.081	24.3889
699.797	24.9463
701.512	25.6389
703.228	26.4418
704.942	27.4556
706.655	28.4488
708.371	29.5138
710.083	30.2911
711.796	31.6315
713.51	32.5252
715.222	34.2787
716.934	35.2222
718.645	35.431
720.358	35.6149
722.068	36.2608
723.779	36.4174
725.49	36.1712
727.2	37.608
728.909	38.9991
730.618	39.1882
732.329	39.9507
734.037	40.6025
735.745	41.0276
737.453	43.2178
739.16	43.3679
740.869	44.3026
742.576	44.4761
744.282	45.3514
745.988	46.3836
747.694	47.4036
749.401	48.3152
751.107	49.848
752.811	51.2901
754.516	52.3698
756.22	53.241
757.924	54.615
759.627	56.1861
761.332	57.9422
763.035	57.952
764.738	59.1954
766.44	60.7456
768.142	61.194
769.843	63.1341
771.544	62.9852
773.245	64.3481
774.946	65.2302
776.646	65.8819
778.346	66.7553
780.046	67.3229
781.745	69.2089
783.444	69.9026
785.143	70.896
786.841	71.6412
788.539	72.7433
790.237	72.8416
791.934	72.8911
793.631	73.368
795.328	73.8722
797.024	75.5204
798.72	75.2229
800.416	76.0574
802.112	75.3896
803.807	74.9916
805.502	75.003
807.196	74.6227
808.89	74.8544
810.584	74.78
812.278	74.9615
813.971	74.9378
815.664	75.1865
817.354	75.6947
819.047	75.3177
820.739	75.0577
822.43	75.0193
824.122	74.6414
825.813	74.3862
827.503	73.8067
829.192	73.9519
830.882	73.9507
832.571	74.7581
834.261	74.6128
835.95	74.0668
837.637	74.035
839.325	73.8916
841.013	72.8316
842.701	73.7256
844.389	72.4489
846.074	71.3788
847.761	69.2106
849.447	69.3165
851.131	68.5321
852.817	68.0417
854.503	68.4325
856.188	66.5739
857.871	65.7888
859.556	64.5155
861.24	63.2372
862.922	62.2337
864.606	60.9401
866.289	60.0268
867.97	58.2178
869.653	57.0861
871.336	56.4885
873.016	55.2683
874.698	54.0842
876.379	53.8908
878.058	53.5872
879.739	53.8154
881.418	52.4284
883.098	51.0197
884.778	49.9346
886.456	48.5741
888.135	47.8235
889.812	47.1198
891.49	45.5414
893.167	45.702
894.845	44.7631
896.523	44.6407
898.198	44.6123
899.875	44.4639
901.55	42.8316
903.226	41.7613
904.901	41.0514
906.576	40.7465
908.25	39.8007
909.925	39.4658
911.598	39.1517
913.271	40.4803
914.945	40.5088
916.617	40.6627
918.291	40.2424
919.962	40.4866
921.635	41.1052
923.306	41.4213
924.978	40.7794
926.648	40.6559
928.318	39.8743
929.989	39.9908
931.659	40.7996
933.328	42.5687
934.998	42.913
936.666	42.7977
938.336	42.4919
940.004	41.9993
941.671	41.917
943.34	41.7404
945.007	40.63
946.673	40.2616
948.339	40.9874
950.007	41.174
951.672	40.0794
953.337	40.24
955.004	40.852
956.669	40.1128
958.333	39.2862
959.997	38.4786
961.662	37.4738
963.326	37.2514
964.989	35.2897
966.651	35.274
968.315	34.5539
969.977	35.3265
971.639	34.6293
973.301	34.9217
974.962	34.6133
976.624	35.3929
978.285	35.059
979.945	35.0256
981.605	34.5937
983.264	34.2918
984.924	33.7615
986.583	33.9466
988.243	33.3017
989.901	32.5168
991.56	31.9195
993.217	31.7476
994.875	32.0222
996.532	33.2474
998.188	32.7782
999.845	31.6207
1001.5	31.3396
1003.16	32.064
1004.81	32.1274
1006.47	31.8038
1008.12	30.8121
1009.78	30.9081
1011.43	30.1931
1013.09	30.1795
1014.74	30.7417
1016.39	29.4875
1018.05	29.739
1019.7	28.5213
1021.35	28.5144
1023	28.3712
1024.65	26.0352
1026.31	25.4972
1027.96	25.1902
1029.61	25.6064
1031.26	25.9586
1032.91	25.1464
1034.56	24.2772
1036.21	25.4411
1037.86	25.4249
1039.51	24.79
1041.16	25.024
1042.8	25.1885
1044.45	24.7334
1046.1	24.4849
1047.75	24.2957
1049.39	25.0506
1051.04	25.5459
1052.69	26.2825
1054.33	26.631
1055.98	26.7374
1057.62	26.4593
1059.27	26.9567
1060.91	26.4069
1062.56	25.3729
1064.2	24.8479
1065.85	23.6598
1067.49	22.6854
1069.13	22.1906
1070.77	21.3412
1072.42	20.8056
1074.06	20.6694
1075.7	19.747
1077.34	19.9151
1078.98	19.3594
1080.62	18.02
1082.27	16.6483
1083.91	17.169
1085.55	16.8017
1087.18	15.2347
1088.82	13.0928
1090.46	12.0884
1092.1	11.8411
1093.74	11.7603
1095.38	12.7723
1097.02	12.5396
1098.65	10.8928
1100.29	10.2315
1101.93	9.17081
1103.56	9.27796
1105.2	8.80905
1106.84	8.49033
1108.47	9.49904
1110.11	10.0134
1111.74	10.5148
1113.38	11.443
1115.01	11.5597
1116.64	11.4386
1118.28	11.7389
1119.91	11.8036
1121.54	11.4769
1123.18	11.9826
1124.81	11.6636
1126.44	11.5431
1128.07	12.3317
1129.7	13.1018
1131.33	13.8869
1132.97	14.3011
1134.6	13.8789
1136.23	14.1315
1137.86	13.4645
1139.49	12.7406
1141.11	11.7461
1142.74	11.2928
1144.37	10.6668
1146	9.78953
1147.63	8.70807
1149.26	8.55546
1150.88	7.68414
1152.51	6.25631
1154.14	5.91096
1155.76	5.7973
1157.39	5.52511
1159.01	5.93964
1160.64	5.71614
1162.27	5.55912
1163.89	4.94685
1165.51	4.75306
1167.14	4.2454
1168.76	3.7229
1170.39	3.59799
1172.01	5.17101
1173.63	5.76384
1175.25	6.04703
1176.88	6.16122
1178.5	5.738
1180.12	6.29496
1181.74	6.8058
1183.36	7.4621
1184.98	8.29926
1186.6	8.3285
1188.22	8.26298
1189.84	9.13053
1191.46	9.58784
1193.08	9.89887
1194.7	10.152
1196.32	10.2444
1197.94	10.9278
1199.55	12.2558
1201.17	14.0595
1202.79	15.2184
1204.41	16.9997
1206.02	16.7829
1207.64	17.4674
1209.25	18.7256
1210.87	19.7474
1212.48	20.9658
1214.1	20.9639
1215.71	21.5213
1217.33	23.159
1218.94	23.0538
1220.56	24.1333
1222.17	25.0094
1223.79	25.7963
1225.4	26.2114
1227.01	25.1431
1228.62	26.1914
1230.23	27.2241
1231.85	27.5591
1233.46	28.1114
1235.07	28.7586
1236.68	28.7906
1238.29	28.8844
1239.9	29.5987
1241.51	30.5977
1243.12	30.7049
1244.73	31.388
1246.34	32.8999
1247.94	33.3235
1249.55	34.4181
1251.16	34.6556
1252.77	34.7487
1254.37	34.5933
1255.98	34.54
1257.59	34.9712
1259.2	33.9829
1260.8	33.449
1262.41	32.3193
1264.01	32.3506
1265.62	32.6888
1267.22	32.8304
1268.83	33.7572
1270.43	35.1808
1272.03	35.107
1273.64	35.9584
1275.24	36.6164
1276.85	37.6809
1278.45	39.0231
1280.05	39.8543
1281.65	40.3612
1283.25	40.9696
1284.85	42.1789
1286.46	41.3984
1288.06	42.7764
1289.66	43.7564
1291.26	44.5807
1292.86	46.1471
1294.46	45.9308
1296.06	47.4916
1297.66	47.455
1299.25	47.0603
1300.85	47.4497
1302.45	47.0689
1304.05	48.0427
1305.65	47.9828
1307.24	47.965
1308.84	49.6124
1310.43	49.5196
1312.03	50.1796
1313.63	51.3212
1315.22	52.3014
1316.82	53.2672
1318.41	54.7495
1320.01	56.5307
1321.6	57.412
1323.2	58.095
1324.79	58.6321
1326.38	58.1357
1327.98	56.8408
1329.57	56.6473
1331.16	55.2407
1332.76	55.0618
1334.35	54.9152
1335.94	52.9939
1337.53	52.3551
1339.12	50.8684
1340.71	51.1206
1342.3	50.5881
1343.89	51.0399
1345.48	50.8897
1347.07	50.4716
1348.66	50.2231
1350.25	49.0857
1351.84	48.2496
1353.43	46.8897
1355.01	46.0762
1356.6	44.9688
1358.19	44.2717
1359.77	42.6856
1361.36	41.4375
1362.95	41.4687
1364.53	39.9911
1366.12	38.173
1367.71	37.8914
1369.29	36.5525
1370.88	35.6456
1372.46	33.954
1374.04	31.7243
1375.63	31.3583
1377.21	30.5043
1378.8	30.0138
1380.38	29.7686
1381.96	29.6691
1383.54	30.3328
1385.13	29.7442
1386.71	30.7435
1388.29	30.1382
1389.87	30.9341
1391.45	31.9849
1393.03	31.4962
1394.61	31.7437
1396.19	32.1316
1397.77	32.6068
1399.35	32.0687
1400.93	31.6519
1402.51	31.7558
1404.09	31.5451
1405.67	31.9133
1407.24	32.0741
1408.82	33.0086
1410.4	33.864
1411.98	34.7791
1413.55	35.1892
1415.13	36.4064
1416.71	39.2285
1418.28	40.758
1419.86	42.8519
1421.43	43.8902
1423.01	45.8836
1424.58	47.4161
1426.16	48.2441
1427.73	50.294
1429.31	50.8843
1430.88	52.4645
1432.45	53.2328
1434.02	54.577
1435.6	55.3623
1437.17	56.4186
1438.74	56.9817
1440.31	58.3179
1441.88	59.2664
1443.45	58.6405
1445.03	58.5643
1446.6	59.4474
1448.17	60.1162
1449.74	60.0378
1451.3	59.1075
1452.87	58.5811
1454.44	58.9213
1456.01	58.2713
1457.58	57.5498
1459.15	56.868
1460.72	55.8704
1462.28	55.3865
1463.85	53.1782
1465.42	52.0794
1466.98	50.8164
1468.55	50.5632
1470.12	48.7469
1471.68	47.4044
1473.25	47.1723
1474.81	45.7146
1476.38	44.5894
1477.94	43.2931
1479.51	42.4137
1481.07	42.1584
1482.63	41.0891
1484.2	39.4527
1485.76	39.4019
1487.32	38.2628
1488.88	37.1542
1490.45	36.3697
1492.01	35.5179
1493.57	35.9858
1495.13	35.8969
1496.69	35.1602
1498.25	34.5192
1499.81	34.3466
1501.37	33.6947
1502.93	33.8145
1504.49	32.3424
1506.05	32.4931
1507.61	31.52
1509.17	31.3733
1510.73	30.5381
1512.28	29.4067
1513.84	28.8772
1515.4	28.4439
1516.96	28.2217
1518.51	28.6356
1520.07	27.5278
1521.63	26.9002
1523.18	26.941
1524.74	27.1655
1526.29	26.468
1527.85	25.1953
1529.4	24.4789
1530.96	24.6509
1532.51	24.7808
1534.06	24.4808
1535.62	24.4694
1537.17	23.6145
1538.72	23.2972
1540.28	23.9127
1541.83	23.8989
1543.38	24.8902
1544.93	25.2719
1546.48	25.4376
1548.03	25.0231
1549.59	25.3931
1551.14	26.1583
1552.69	26.4539
1554.24	26.8371
1555.79	26.5864
1557.34	26.908
1558.88	27.755
1560.43	28.1512
1561.98	27.8604
1563.53	28.9072
1565.08	28.3473
1566.62	29.1656
1568.17	30.0623
1569.72	31.1911
1571.27	33.0929
1572.81	33.5213
1574.36	33.7437
1575.9	33.9652
1577.45	34.8604
1579	34.7646
1580.54	35.8603
1582.09	36.1873
1583.63	37.2276
1585.17	37.7315
1586.72	38.1248
1588.26	38.737
1589.8	38.6661
1591.35	40.8719
1592.89	41.9693
1594.43	41.9958
1595.97	42.496
1597.52	42.7562
1599.06	43.9292
1600.6	44.2555
1602.14	44.1689
1603.68	44.3307
1605.22	43.5132
1606.76	43.3273
1608.3	42.969
1609.84	42.6075
1611.38	43.3316
1612.92	43.3024
1614.46	42.4291
1615.99	42.0351
1617.53	41.2495
1619.07	40.8169
1620.61	40.7168
1622.14	40.441
1623.68	40.208
1625.22	40.0416
1626.75	40.2501
1628.29	40.281
1629.82	39.6686
1631.36	39.4166
1632.9	39.5902
1634.43	39.1595
1635.96	38.2983
1637.5	38.2741
1639.03	37.5205
1640.57	38.5572
1642.1	37.6288
1643.63	37.4484
1645.16	37.8394
1646.7	38.5135
1648.23	38.5284
1649.76	38.7314
1651.29	39.141
1652.82	40.0362
1654.36	40.3719
1655.89	40.3238
1657.42	41.2078
1658.95	41.0153
1660.48	40.6548
1662.01	39.3538
1663.53	39.8422
1665.06	39.5825
1666.59	39.2097
1668.12	39.5842
1669.65	38.0207
1671.18	37.0427
1672.7	36.9209
1674.23	36.4692
1675.76	34.9773
1677.29	32.9095
1678.81	32.3028
1680.34	31.5629
1681.86	30.3639
1683.39	30.0975
1684.91	28.6557
1686.44	28.297
1687.96	27.1575
1689.49	25.7331
1691.01	23.6516
1692.54	22.7944
1694.06	21.1399
1695.58	21.2557
1697.11	20.2397
1698.63	18.8026
1700.15	17.4922
1701.67	15.9903
1703.2	14.1224
1704.72	13.462
1706.24	12.951
1707.76	12.4527
1709.28	11.4404
1710.8	10.2222
1712.32	9.76241
1713.84	10.3349
1715.36	9.66804
1716.88	9.95713
1718.4	9.25599
1719.91	10.1078
1721.43	10.4417
1722.95	10.6552
1724.47	10.8402
1725.99	10.5879
1727.5	10.1486
1729.02	9.40329
1730.54	8.29364
1732.05	7.98009
1733.57	7.47706
1735.09	6.64642
1736.6	6.42044
1738.12	6.04997
1739.63	7.28334
1741.15	6.64089
1742.66	6.54485
1744.18	6.28648
1745.69	6.31686
1747.2	6.54014
1748.72	6.34324
1750.23	6.26354
1751.74	6.10056
1753.25	6.46327
1754.77	7.2839
1756.28	7.12662
1757.79	6.77031
1759.3	6.39942
1760.81	5.8856
1762.32	5.58711
1763.83	4.85974
1765.34	4.41465
1766.85	3.67293
1768.36	3.89712
1769.87	3.35405
1771.38	3.63369
1772.89	2.92916
1774.4	1.92793
1775.91	2.18706
1777.41	2.04943
1778.92	1.597
1780.43	2.38035
1781.94	2.10864
1783.44	2.1527
1784.95	1.91981
1786.45	1.78877
1787.96	1.59188
1789.47	2.23101
1790.97	2.39927
1792.47	2.77737
1793.98	2.25239
1795.48	2.57603
1796.99	2.90703
1798.49	3.58798
1800	3.68989
1801.5	3.69324
1803	4.06617
1804.51	4.09083
1806.01	4.9386
1807.51	5.58905
1809.01	6.06408
1810.51	6.68594
1812.02	7.29321
1813.52	7.54023
1815.02	8.60874
1816.52	8.66203
1818.02	8.64929
1819.52	9.26082
1821.02	9.70885
1822.52	9.3373
1824.02	9.23177
1825.51	9.13253
1827.01	9.21295
1828.51	9.51043
1830.01	9.38639
1831.51	9.98894
1833	10.0891
1834.5	9.72481
1836	9.51515
1837.49	9.18156
1838.99	9.10433
1840.49	8.5554
1841.98	8.29295
1843.48	8.09537
1844.97	7.25147
1846.47	6.79726
1847.96	6.16523
1849.46	5.59007
1850.95	5.83313
1852.45	4.21138
1853.94	2.73859
1855.43	3.15861
1856.92	2.03176
1858.42	2.06694
1859.91	1.38645
1861.4	0.547571
1862.89	0.455304
1864.39	0.4139
1865.88	0.307623
1867.37	0.317133
1868.86	0.685659
1870.35	1.42391
1871.84	1.36836
1873.33	1.73455
1874.82	0.911479
1876.31	0.910955
1877.8	0.878632
1879.29	1.02276
1880.77	1.49191
1882.26	1.4723
1882.52	1.90887
1884.02	1.69486
1885.51	2.29809
1887.01	2.24929
1888.5	2.87415
1889.99	2.74917
1891.49	3.29194
1892.98	3.35586
1894.47	3.79728
1895.96	4.08809
1897.46	5.04359
1898.95	5.69158
1900.44	6.709
1901.93	7.12202
1903.42	6.95793
1904.91	7.70961
1906.4	6.98048
1907.89	7.0392
1909.38	7.94683
1910.87	8.14715
1912.36	7.83796
1913.85	7.72861
1915.34	8.1521
1916.83	7.65825
1918.32	7.47957
1919.8	7.42473
1921.29	6.72187
1922.78	6.71138
1924.27	6.20258
1925.75	5.00176
1927.24	4.72698
1928.73	4.85956
1930.21	3.82415
1931.7	4.10737
1933.18	3.44699
1934.67	3.11093
1936.15	2.88124
1937.64	3.07608
1939.12	3.08856
1940.61	3.19188
1942.09	2.93957
1943.57	2.23775
1945.06	1.80706
1946.54	1.68034
1948.02	0.81923
1949.51	0.930736
1950.99	0.39662
1952.47	0.644359
1953.95	1.04079
1955.43	1.39291
1956.91	2.1563
1958.39	1.92326
1959.87	2.89982
1961.36	3.01669
1962.84	4.26127
1964.32	4.50722
1965.79	4.94391
1967.27	5.2837
1968.75	5.56976
1970.23	5.91824
1971.71	5.93227
1973.19	5.62802
1974.66	5.73646
1976.14	5.49816
1977.62	6.15397
1979.1	7.01665
1980.57	7.30477
1982.05	8.04138
1983.53	7.9484
1985	7.08113
1986.48	7.31931
1987.95	7.28414
1989.43	7.48242
1990.9	7.20147
1992.38	7.14391
1993.85	7.01821
1995.33	6.5191
1996.8	6.40352
1998.27	6.11008
1999.75	5.55159
2001.22	5.68434
2002.69	6.05093
2004.16	5.62042
2005.64	5.28035
2007.11	3.98189
2008.58	3.52724
2010.05	3.08339
2011.52	3.84948
2012.99	3.47288
2014.46	3.46015
2015.93	2.91676
2017.4	2.51904
2018.87	2.0991
2020.34	2.08367
2021.81	1.47585
2023.28	1.82924
2024.75	2.19636
2026.22	2.66109
2027.69	2.38013
2029.15	2.42605
2030.62	3.0167
2032.09	3.21651
2033.56	3.65706
2035.02	3.39808
2036.49	3.71853
2037.95	3.85856
2039.42	4.13032
2040.89	4.45888
2042.35	3.8986
2043.82	4.2825
2045.28	3.68259
2046.75	3.88393
2048.21	4.45344
2049.67	4.48639
2051.14	4.55389
2052.6	3.89049
2054.06	4.42062
2055.53	3.96203
2056.99	3.61134
2058.45	3.78578
2059.92	4.30329
2061.38	4.63495
2062.84	4.92889
2064.3	4.85175
2065.76	4.16097
2067.22	4.06836
2068.68	4.20453
2070.14	4.4278
2071.6	4.95489
2073.06	4.31902
2074.52	4.66468
2075.98	4.87915
2077.44	3.74781
2078.9	3.6922
2080.36	3.59324
2081.82	4.58578
2083.27	4.96687
2084.73	5.09687
2086.19	5.04758
2087.65	5.21286
2089.1	5.31224
2090.56	5.11872
2092.01	4.72541
2093.47	4.90803
2094.93	4.66564
2096.38	4.73668
2097.84	5.34113
2099.29	5.45768
2100.75	5.73469
2102.2	6.4306
2103.66	7.09854
2105.11	7.42266
2106.56	7.97528
2108.02	7.88466
2109.47	8.37199
2110.92	8.35983
2112.37	7.94368
2113.83	8.72572
2115.28	8.07253
2116.73	8.66935
2118.18	8.25722
2119.63	8.67225
2121.09	8.84414
2122.54	8.31425
2123.99	8.24932
2125.44	8.1891
2126.89	8.68098
2128.34	8.88743
2129.79	9.42844
2131.23	9.7902
2132.68	10.5211
2134.13	10.7868
2135.58	10.6556
2137.03	10.0566
