#Acq. time (s)=	45
#Accumulations=	2
#Range (cm-¹)=	200...3150
#Windows=	2
#Auto scanning=	Off
#Autofocus=	Off
#Macrospot=	Off
#AutoExposure=	Off
#Spike filter=	Multiple accum.
#Delay time (s)=	0
#Binning=	1
#Readout mode=	Signal
#DeNoise=	Off
#ICS correction=	On
#Dark correction=	Off
#Inst. Process=	Off
#Detector Gain=	Best Dynamic Range
#Detector ADC=	20 kHz       
#Detector temperature (°C)=	-70.08
#Instrument=	LabRAM HR Evol
#Detector=	Synapse
#Objective=	x100
#Grating=	600 gr/mm
#ND Filter=	100%
#Laser (nm)=	532 
#Hole=	100.021
#Range=	Auto
#Laser Pol.=	No
#Raman. Pol.=	No
#Laser Pol. (°)=	-0.0007625
#Raman Pol. (°)=	89.9995
#Collection=	Microscope
#StageXY=	Marzhauser
#StageZ=	Marzhauser
#X (µm)=	-2399.5
#Y (µm)=	2138.1
#Z (µm)=	-40.55
#Full time(mm:ss)=	3:18
#Project=	
#Sample=	
#Site=	
#Title=	Mb_10_14_03_2x_45s_532 nm_x100_100%_600 gr_mm
#Remark=	
#Date=	07.07.2022 13:38
#Acquired=	07.07.2022 13:38:33
#Edit:Spike=	07.07.2022 13:41:27
#Base:Fit=	10.08.2022 10:21:11
#Base:Sub=	10.08.2022 10:21:41
#Filter:Polynom=	16.08.2022 10:17:53
#AxisType[0]=Intens
#AxisUnit[0]=Cnt
#AxisType[1]=Spectr
#AxisUnit[1]=1/cm
200.43	39.81
202.246	35.5227
204.061	31.3893
205.875	27.0123
207.688	23.1663
209.501	19.5775
211.316	16.6234
213.129	13.9553
214.941	13.2071
216.753	12.4324
218.566	11.9354
220.377	11.7973
222.188	10.8335
223.999	10.7291
225.809	12.7665
227.618	14.9496
229.43	16.2373
231.239	17.8548
233.047	18.1917
234.855	19.1496
236.663	20.2865
238.471	21.1254
240.278	21.9889
242.087	23.3774
243.894	23.3269
245.7	22.8694
247.506	23.7972
249.311	24.0849
251.116	25.6962
252.921	26.7099
254.725	27.0281
256.529	28.7177
258.333	29.1751
260.136	28.5536
261.939	28.7068
263.744	29.6587
265.546	29.5487
267.348	28.8976
269.15	27.6603
270.951	26.1082
272.752	24.9366
274.552	23.2564
276.353	22.2694
278.152	22.0582
279.952	20.0542
281.751	20.0937
283.55	19.4868
285.348	19.0817
287.146	18.9438
288.942	17.2055
290.739	15.9365
292.536	15.0425
294.333	14.0874
296.129	12.8975
297.925	11.7424
299.721	11.734
301.516	11.5433
303.311	11.2947
305.106	11.8972
306.9	11.4634
308.694	10.5513
310.486	11.0461
312.279	11.9305
314.072	12.8053
315.864	13.8437
317.656	13.3332
319.448	13.0742
321.24	13.419
323.029	12.8606
324.819	12.6272
326.61	13.0034
328.4	12.4906
330.19	12.4013
331.977	11.9395
333.766	11.3676
335.555	12.0502
337.343	12.6925
339.131	12.5624
340.917	13.4617
342.704	12.368
344.491	11.4023
346.277	11.1923
348.062	9.92325
349.848	10.0707
351.633	10.9411
353.416	12.3863
355.201	12.2886
356.986	12.4712
358.77	12.5961
360.552	13.4588
362.335	14.6003
364.118	15.6464
365.899	17.0576
367.682	18.5179
369.464	19.2781
371.243	20.4204
373.025	20.965
374.806	21.59
376.585	22.1316
378.365	21.6422
380.143	21.8654
381.923	23.0921
383.702	23.2584
385.479	23.4801
387.258	24.7698
389.034	26.0139
390.812	26.1978
392.59	26.6389
394.365	27.3198
396.142	27.4145
397.916	28.214
399.693	28.515
401.467	28.161
403.242	27.2055
405.015	26.7553
406.79	25.8484
408.565	25.793
410.337	25.35
412.111	23.8773
413.882	22.8976
415.656	22.2202
417.426	20.9733
419.197	20.5019
420.969	19.3972
422.739	19.0152
424.51	17.2311
426.279	14.5266
428.05	13.5632
429.819	11.7168
431.589	10.2668
433.356	8.73945
435.124	8.00847
436.893	7.38053
438.66	7.09997
440.428	6.84095
442.194	6.98472
443.96	5.08943
445.727	4.12344
447.492	2.80302
449.259	2.60727
451.023	2.34068
452.787	2.0582
454.553	2.6026
456.316	2.36446
458.079	1.67743
459.844	2.17404
461.606	1.68996
463.368	2.56339
465.132	2.85458
466.893	3.68833
468.654	4.3508
470.415	5.32031
472.177	4.74329
473.937	5.29871
475.696	6.07071
477.456	7.10279
479.217	7.3676
480.975	8.39933
482.733	9.50209
484.491	10.2897
486.251	10.4558
488.008	10.4542
489.765	11.8643
491.522	12.6503
493.278	13.7281
495.036	14.3143
496.791	14.6364
498.546	15.2171
500.301	14.515
502.056	14.7042
503.81	15.0248
505.566	15.0809
507.319	15.097
509.073	14.7201
510.825	14.9581
512.578	14.9477
514.33	14.406
516.082	15.5546
517.833	14.5607
519.587	15.5687
521.337	15.2219
523.088	16.1462
524.838	16.1112
526.588	16.5107
528.337	16.4899
530.087	16.2466
531.835	15.3089
533.584	14.4115
535.332	13.854
537.08	14.0522
538.827	14.1351
540.574	13.8436
542.321	13.5847
544.068	13.0412
545.814	12.1711
547.56	12.0957
549.305	11.8633
551.05	11.9946
552.795	11.3498
554.54	10.6665
556.284	9.42069
558.027	9.08947
559.771	8.22433
561.514	7.95468
563.257	7.79832
564.999	7.86355
566.742	7.40048
568.481	7.33445
570.223	6.44985
571.964	5.91838
573.705	4.98444
575.445	5.82554
577.185	6.21789
578.925	5.27886
580.665	4.76129
582.402	3.63803
584.141	3.20908
585.879	3.87052
587.617	3.24408
589.355	3.77336
591.092	4.01548
592.828	4.36633
594.564	5.22996
596.301	5.9561
598.037	7.32485
599.773	7.5375
601.506	7.24428
603.242	9.11293
604.976	9.44167
606.711	10.4346
608.443	10.6695
610.177	11.4666
611.91	11.6938
613.644	12.3393
615.374	11.261
617.107	11.4042
618.839	11.1543
620.569	11.2081
622.3	11.8269
624.032	12.7357
625.761	13.9566
627.491	15.1404
629.221	15.9206
630.949	17.2744
632.679	17.3605
634.408	18.963
636.135	19.7775
637.863	19.0277
639.592	19.1014
641.318	18.5302
643.045	18.755
644.77	18.893
646.497	19.2135
648.224	19.5688
649.948	19.7207
651.674	19.8857
653.398	20.4599
655.123	19.9467
656.846	19.2081
658.57	18.8684
660.293	19.1142
662.017	19.7547
663.738	18.972
665.462	18.6473
667.185	18.7732
668.905	19.7973
670.628	20.4368
672.348	20.7477
674.067	20.8163
675.789	21.8334
677.508	22.7162
679.228	23.9692
680.947	25.4606
682.667	26.0626
684.385	26.4157
686.104	26.7861
687.821	27.8464
689.538	28.3983
691.256	27.6867
692.972	28.5684
694.69	29.3671
696.406	29.1176
698.121	30.0663
699.837	30.3681
701.552	30.4171
703.268	31.7235
704.982	32.6717
706.695	33.2096
708.41	33.7914
710.123	34.9932
711.836	35.2584
713.55	35.2987
715.262	35.3027
716.973	35.2949
718.685	34.316
720.398	33.7485
722.108	33.8597
723.818	32.929
725.53	33.3629
727.24	34.4764
728.949	34.8385
730.658	35.3205
732.369	35.7068
734.077	35.6802
735.785	35.7546
737.493	36.1004
739.2	36.6901
740.909	36.4651
742.616	37.2506
744.322	38.1362
746.028	39.5916
747.734	41.1545
749.441	42.4586
751.146	44.2623
752.851	44.6016
754.555	46.5348
756.26	47.2881
757.963	48.8681
759.667	51.0932
761.372	53.0863
763.075	55.1513
764.777	56.9341
766.479	57.9899
768.181	58.2233
769.883	59.3268
771.584	60.9641
773.285	61.982
774.986	63.0904
776.686	64.4559
778.386	65.9987
780.085	66.3013
781.785	66.6768
783.484	68.0872
785.182	67.8267
786.881	68.5229
788.579	69.7491
790.276	69.6662
791.974	68.374
793.671	68.5976
795.367	68.2297
797.064	67.6027
798.76	67.9648
800.456	67.9966
802.151	67.9273
803.846	68.955
805.541	69.7563
807.236	71.5653
808.93	72.5796
810.624	73.5774
812.317	74.1803
814.01	73.5838
815.703	73.5784
817.394	73.7861
819.086	74.5448
820.778	74.8621
822.47	75.0518
824.161	75.5783
825.852	75.3674
827.543	75.5273
829.231	74.708
830.921	74.9653
832.611	73.9172
834.3	73.0607
835.989	71.3499
837.676	70.7642
839.364	70.8002
841.053	70.0662
842.74	69.1785
844.426	68.055
846.113	66.2688
847.8	65.5516
849.486	64.555
851.171	64.3498
852.857	62.8673
854.542	61.4083
856.227	61.0674
857.911	60.4376
859.595	59.2207
861.279	58.1545
862.961	58.0413
864.645	57.4256
866.329	56.5672
868.01	55.6358
869.692	55.1615
871.375	55.1891
873.055	54.2044
874.737	52.7282
876.418	51.7402
878.097	52.6441
879.778	52.6118
881.457	52.7464
883.137	52.669
884.817	52.4055
886.495	53.3161
888.174	52.6205
889.851	52.3822
891.53	52.8383
893.206	52.1921
894.884	51.1148
896.562	50.4779
898.237	50.2072
899.914	50.0368
901.589	50.0151
903.265	49.7565
904.94	49.0439
906.615	48.6444
908.289	47.6951
909.964	47.234
911.637	46.3788
913.31	45.1336
914.984	44.5261
916.656	43.3737
918.33	42.7805
920.001	41.8593
921.674	41.9023
923.345	41.6961
925.015	41.8033
926.687	42.0208
928.357	41.6419
930.028	41.6348
931.698	42.0425
933.366	41.894
935.037	42.3362
936.705	40.8015
938.373	41.1942
940.043	42.1523
941.71	41.5801
943.379	40.4263
945.046	40.3092
946.712	40.6755
948.378	38.7318
950.046	38.6219
951.711	38.2887
953.376	38.5604
955.043	37.9417
956.708	37.2285
958.372	37.3971
960.036	36.3733
961.701	36.368
963.364	36.3365
965.027	36.0377
966.69	35.2078
968.354	34.3896
970.016	34.8378
971.678	33.6285
973.339	34.3477
975	34.5862
976.661	33.691
978.324	33.9036
979.984	33.6237
981.644	32.5018
983.303	32.2062
984.962	31.357
986.621	30.7721
988.282	30.1723
989.94	28.0963
991.598	26.862
993.256	26.2541
994.913	24.9665
996.57	24.7923
998.227	23.8694
999.884	23.6852
1001.54	23.8891
1003.2	23.7674
1004.85	22.784
1006.51	21.7207
1008.16	21.4025
1009.82	20.5367
1011.47	19.3682
1013.12	19.0233
1014.78	19.2327
1016.43	19.9806
1018.08	20.8247
1019.74	20.836
1021.39	22.2443
1023.04	23.7644
1024.69	24.5558
1026.34	25.818
1028	27.4574
1029.65	29.0461
1031.3	30.7365
1032.95	33.0139
1034.6	34.6788
1036.25	36.0591
1037.9	36.5063
1039.55	37.235
1041.19	38.9575
1042.84	39.1199
1044.49	40.8704
1046.14	41.8024
1047.79	41.3972
1049.43	40.7682
1051.08	40.7554
1052.73	41.8567
1054.37	40.7658
1056.02	40.2508
1057.66	39.6804
1059.31	38.4358
1060.95	37.5222
1062.6	35.9325
1064.24	33.7777
1065.88	32.7377
1067.53	30.713
1069.17	28.5118
1070.81	26.2701
1072.46	24.1273
1074.1	23.2986
1075.74	21.2089
1077.38	19.4585
1079.02	17.4523
1080.66	15.8586
1082.3	14.8139
1083.94	12.2639
1085.58	9.216
1087.22	6.80531
1088.86	6.15863
1090.5	7.13098
1092.14	7.27379
1093.78	6.64384
1095.42	7.64871
1097.05	8.49388
1098.69	9.21774
1100.33	10.5529
1101.97	10.7236
1103.6	11.9814
1105.24	11.6336
1106.87	10.976
1108.51	11.785
1110.15	12.5184
1111.78	12.7759
1113.41	13.2169
1115.05	12.92
1116.68	12.9191
1118.31	12.5504
1119.95	13.1044
1121.58	14.221
1123.21	14.0136
1124.85	13.1738
1126.48	13.6349
1128.11	13.6406
1129.74	12.8114
1131.37	13.1864
1133	13.367
1134.63	13.0349
1136.26	11.7639
1137.89	11.1123
1139.52	11.1289
1141.15	10.7614
1142.78	10.5343
1144.41	9.73792
1146.04	8.85028
1147.66	8.4558
1149.29	7.99436
1150.92	7.28132
1152.55	7.44499
1154.17	7.32059
1155.8	5.90806
1157.43	5.52212
1159.05	4.81461
1160.68	4.36258
1162.3	4.05331
1163.93	2.6338
1165.55	2.49498
1167.17	2.60607
1168.8	2.70877
1170.42	2.92735
1172.05	3.68615
1173.67	2.93636
1175.29	2.18047
1176.91	2.36971
1178.54	1.66148
1180.16	1.80029
1181.78	2.66964
1183.4	2.52553
1185.02	3.35441
1186.64	3.2551
1188.26	4.10312
1189.88	5.87537
1191.5	5.88736
1193.12	6.08922
1194.74	6.92273
1196.36	8.04542
1197.97	8.94435
1199.59	9.82194
1201.21	10.7273
1202.83	11.1821
1204.44	11.2347
1206.06	12.2951
1207.68	13.7188
1209.29	14.8695
1210.91	16.1309
1212.52	17.2823
1214.14	17.4104
1215.75	17.043
1217.37	17.3065
1218.98	17.9401
1220.6	19.5157
1222.21	20.8611
1223.82	20.875
1225.44	22.2561
1227.05	23.2266
1228.66	23.7517
1230.27	24.0865
1231.88	23.6685
1233.49	23.7191
1235.1	23.0951
1236.72	22.7736
1238.33	24.1584
1239.94	24.5086
1241.55	25.5607
1243.16	26.0767
1244.76	27.025
1246.37	27.9148
1247.98	27.6912
1249.59	28.0612
1251.2	28.3962
1252.8	29.2656
1254.41	29.2017
1256.02	29.7578
1257.63	30.7308
1259.23	31.2527
1260.84	32.2076
1262.44	32.5952
1264.05	32.5302
1265.66	32.7422
1267.26	33.0218
1268.87	33.4146
1270.47	34.7517
1272.07	34.3856
1273.68	34.8058
1275.28	35.0648
1276.88	35.6773
1278.48	35.9538
1280.09	36.625
1281.69	37.5382
1283.29	38.665
1284.89	38.7611
1286.49	39.7475
1288.09	40.57
1289.69	41.4171
1291.3	41.4803
1292.9	41.1308
1294.49	40.9288
1296.09	40.3673
1297.69	41.133
1299.29	41.4698
1300.89	41.7247
1302.49	41.448
1304.09	41.0543
1305.68	41.8223
1307.28	41.4172
1308.88	40.9774
1310.47	41.0978
1312.07	41.6794
1313.66	42.2276
1315.26	42.7743
1316.86	43.9124
1318.45	45.0314
1320.05	45.9245
1321.64	46.2547
1323.23	47.8946
1324.83	48.9366
1326.42	49.1739
1328.01	49.5169
1329.61	49.5957
1331.2	49.5746
1332.79	49.8195
1334.38	49.895
1335.98	49.2284
1337.57	48.613
1339.16	47.266
1340.75	46.439
1342.34	45.4135
1343.93	44.9974
1345.52	44.7305
1347.11	44.417
1348.7	45.0501
1350.29	44.6061
1351.87	43.1323
1353.46	42.5033
1355.05	41.7425
1356.64	41.6161
1358.23	40.7673
1359.81	40.779
1361.4	39.9785
1362.99	39.0759
1364.57	37.7948
1366.16	35.5048
1367.74	33.5941
1369.33	32.0953
1370.91	30.0633
1372.5	27.5461
1374.08	26.1981
1375.67	24.4036
1377.25	22.7517
1378.83	21.7583
1380.42	20.807
1382	20.3733
1383.58	20.3375
1385.16	19.8039
1386.75	19.6039
1388.33	19.1333
1389.91	18.9531
1391.49	18.8605
1393.07	18.0575
1394.65	18.6792
1396.23	18.6586
1397.81	19.4123
1399.39	20.5881
1400.97	21.3221
1402.55	22.6094
1404.13	23.0865
1405.7	24.0169
1407.28	25.8864
1408.86	26.8066
1410.44	27.7403
1412.01	28.7494
1413.59	30.6178
1415.17	32.366
1416.74	34.3927
1418.32	35.5472
1419.89	37.5326
1421.47	40.4047
1423.05	43.2147
1424.62	46.4124
1426.19	48.882
1427.77	50.9343
1429.34	52.8759
1430.92	55.2793
1432.49	58.0252
1434.06	60.407
1435.63	63.4915
1437.2	64.8625
1438.78	66.4876
1440.35	66.9065
1441.92	66.8521
1443.49	67.0383
1445.06	66.5437
1446.63	67.4786
1448.2	66.4976
1449.77	66.4884
1451.34	65.7366
1452.91	65.1252
1454.48	63.8974
1456.05	63.9053
1457.62	63.2702
1459.18	61.9882
1460.75	61.2519
1462.32	59.8119
1463.89	57.5785
1465.45	55.2617
1467.02	52.1878
1468.59	49.3879
1470.15	47.8533
1471.72	46.309
1473.28	45.3085
1474.85	43.5672
1476.41	42.9158
1477.98	41.3545
1479.54	39.6534
1481.11	38.364
1482.67	37.4267
1484.23	35.7055
1485.8	34.1579
1487.36	31.7142
1488.92	30.8208
1490.48	30.1776
1492.05	29.2233
1493.61	27.2209
1495.17	25.0633
1496.73	23.9053
1498.29	23.2987
1499.85	23.5172
1501.41	21.6924
1502.97	20.5685
1504.53	19.6108
1506.09	19.4098
1507.65	19.4647
1509.2	19.1279
1510.76	18.3476
1512.32	17.2071
1513.88	16.0509
1515.44	14.169
1516.99	13.6319
1518.55	12.6264
1520.1	11.7844
1521.66	11.185
1523.22	10.446
1524.77	9.67665
1526.33	9.52922
1527.88	10.788
1529.44	11.167
1530.99	11.5275
1532.55	12.1145
1534.1	13.0791
1535.65	12.005
1537.21	13.3207
1538.76	13.9343
1540.31	13.4312
1541.86	13.8498
1543.42	13.7269
1544.97	14.7215
1546.52	16.7046
1548.07	17.815
1549.62	18.3187
1551.17	18.9684
1552.72	18.7787
1554.27	19.2786
1555.82	20.0451
1557.37	20.0056
1558.92	20.0415
1560.47	20.2409
1562.02	20.2185
1563.57	20.9665
1565.11	21.5289
1566.66	22.4663
1568.21	21.5383
1569.75	21.8318
1571.3	22.187
1572.85	22.5734
1574.39	22.9806
1575.94	23.445
1577.49	24.3845
1579.03	22.8017
1580.58	23.9859
1582.12	24.7703
1583.67	25.5565
1585.21	25.4346
1586.75	25.8616
1588.3	26.2556
1589.84	26.4865
1591.38	26.0128
1592.93	27.1672
1594.47	27.91
1596.01	27.9358
1597.55	28.0433
1599.09	29.1353
1600.63	30.2879
1602.18	31.6737
1603.72	32.9192
1605.26	33.0179
1606.8	33.3587
1608.34	33.0402
1609.87	32.374
1611.41	32.9015
1612.95	32.5626
1614.49	33.797
1616.03	33.6455
1617.57	33.4517
1619.11	33.5445
1620.64	32.8134
1622.18	32.4807
1623.72	32.3935
1625.25	31.9689
1626.79	32.2058
1628.32	33.1562
1629.86	33.6805
1631.4	34.9202
1632.93	35.5968
1634.47	34.5138
1636	35.5259
1637.53	36.0634
1639.07	36.74
1640.6	37.5798
1642.14	37.6017
1643.67	37.7988
1645.2	37.2146
1646.73	39.0509
1648.27	40.1482
1649.8	40.0366
1651.33	40.4358
1652.86	41.3176
1654.39	42.0683
1655.92	42.3815
1657.45	44.2189
1658.98	44.2412
1660.51	44.8992
1662.04	44.5864
1663.57	44.4872
1665.1	44.4381
1666.63	43.1069
1668.16	42.351
1669.69	42.4151
1671.21	41.133
1672.74	40.2794
1674.27	39.3122
1675.79	38.7468
1677.32	37.3498
1678.85	35.7082
1680.37	34.1009
1681.9	32.2578
1683.42	31.1334
1684.95	29.3846
1686.47	27.1263
1688	25.7792
1689.52	24.0991
1691.05	22.1451
1692.57	20.2924
1694.1	18.0886
1695.62	15.2994
1697.14	13.1752
1698.66	11.4203
1700.19	10.3414
1701.71	9.52997
1703.23	8.40046
1704.75	7.27487
1706.27	5.79092
1707.79	4.25713
1709.32	3.02629
1710.83	1.60953
1712.35	1.21618
1713.88	0.243211
1715.39	-0.0186391
1716.91	-0.445124
1718.43	-1.20344
1719.95	-1.13864
1721.47	-1.67284
1722.99	-0.179683
1724.5	0.384936
1726.02	-0.657238
1727.54	0.110323
1729.06	0.613542
1730.57	1.24023
1732.09	1.6024
1733.61	1.82574
1735.12	1.42891
1736.64	1.72222
1738.15	1.09887
1739.67	1.5069
1741.18	1.79745
1742.7	1.73128
1744.21	1.86748
1745.72	2.03998
1747.24	1.83089
1748.75	2.43068
1750.26	2.86998
1751.78	3.2125
1753.29	3.76962
1754.8	4.3642
1756.31	5.32526
1757.82	5.05614
1759.34	4.93446
1760.85	4.75552
1762.36	4.0656
1763.87	4.78554
1765.38	5.09488
1766.89	5.31526
1768.4	4.73186
1769.91	4.05396
1771.41	3.67707
1772.92	3.67351
1774.43	3.90479
1775.94	3.57355
1777.45	3.71788
1778.96	3.32128
1780.46	3.54182
1781.97	3.84089
1783.48	3.46342
1784.98	2.93598
1786.49	2.66187
1788	2.65034
1789.5	3.00382
1791.01	3.50134
1792.51	3.25097
1794.01	3.1361
1795.52	3.92633
1797.02	4.20841
1798.53	4.44472
1800.03	3.87509
1801.54	2.88755
1803.04	3.11778
1804.54	3.06811
1806.04	3.18638
1807.54	3.12167
1809.05	2.9624
1810.55	2.98453
1812.05	2.8697
1813.55	2.78146
1815.05	3.18648
1816.55	2.76139
1818.05	3.61774
1819.55	3.54288
1821.05	3.9361
1822.55	3.96593
1824.05	4.46503
1825.55	4.54408
1827.05	4.08307
1828.55	4.29182
1830.04	4.69623
1831.54	4.526
1833.04	3.78614
1834.54	4.43855
1836.03	4.92695
1837.53	5.70424
1839.03	6.1657
1840.52	6.06354
1842.02	6.34307
1843.51	6.03561
1845.01	7.00933
1846.5	7.52466
1848	7.61221
1849.49	8.08206
1850.99	8.25112
1852.48	9.19439
1853.97	9.19876
1855.47	9.77281
1856.96	9.36761
1858.45	9.60312
1859.94	9.3179
1861.44	10.1349
1862.93	10.6935
1864.42	11.4545
1865.91	12.1718
1867.4	12.0162
1868.89	12.3659
1870.38	12.2812
1871.87	11.7708
1873.36	10.9686
1874.85	10.8633
1876.34	10.9461
1877.83	11.216
1879.32	10.6514
1880.81	10.4738
1882.3	10.469
1882.56	10.6181
1884.06	9.96658
1885.55	9.54363
1887.04	9.76663
1888.54	10.1504
1890.03	10.1142
1891.52	10.0014
1893.02	9.59007
1894.51	9.01366
1896	8.22617
1897.49	7.33143
1898.99	6.62028
1900.48	6.24283
1901.97	6.37947
1903.46	6.12584
1904.95	6.0931
1906.44	5.84136
1907.93	6.22408
1909.42	6.27462
1910.91	6.88798
1912.4	7.3266
1913.89	8.29974
1915.38	9.10564
1916.86	8.92207
1918.35	8.97051
1919.84	9.31867
1921.33	9.5084
1922.82	10.0294
1924.3	10.4553
1925.79	10.5753
1927.28	10.8473
1928.76	11.6144
1930.25	11.0512
1931.74	11.1641
1933.22	11.2836
1934.71	11.7213
1936.19	12.3054
1937.67	12.5643
1939.16	12.1882
1940.64	11.4118
1942.13	10.5488
1943.61	10.3216
1945.09	10.3282
1946.58	9.45779
1948.06	9.10242
1949.54	9.25257
1951.03	8.78485
1952.51	8.52986
1953.99	8.59069
1955.47	8.68169
1956.95	7.41839
1958.43	6.85118
1959.91	7.08108
1961.39	6.74667
1962.87	6.00714
1964.35	5.32057
1965.83	4.05569
1967.31	4.2836
1968.79	2.58536
1970.27	2.45595
1971.75	2.11153
1973.22	2.21664
1974.7	3.07132
1976.18	3.55943
1977.66	3.09174
1979.13	3.37294
1980.61	3.48521
1982.09	4.02712
1983.56	4.21078
1985.04	5.08658
1986.52	5.6432
1987.99	5.76064
1989.47	5.43914
1990.94	5.90877
1992.41	7.49514
1993.89	8.56002
1995.36	9.16988
1996.84	9.65811
1998.31	10.0999
1999.78	10.1985
2001.26	11.3339
2002.73	11.8833
2004.2	11.8627
2005.67	11.9731
2007.15	11.4562
2008.62	11.3118
2010.09	11.5926
2011.56	11.5404
2013.03	12.1532
2014.5	12.7515
2015.97	13.7435
2017.44	14.6235
2018.91	14.3675
2020.38	13.7485
2021.85	14.6113
2023.32	14.8918
2024.79	15.1162
2026.25	14.9222
2027.72	14.8296
2029.19	14.7224
2030.66	14.2223
2032.13	14.858
2033.59	14.3016
2035.06	13.9658
2036.53	13.8003
2037.99	13.9557
2039.46	13.7137
2040.92	14.2026
2042.39	14.0034
2043.85	14.6705
2045.32	15.479
2046.78	15.9429
2048.25	15.6627
2049.71	15.6887
2051.18	15.6086
2052.64	16.2105
2054.1	15.7341
2055.56	15.5356
2057.03	15.4963
2058.49	15.41
2059.95	14.8634
2061.42	15.7549
2062.88	16.623
2064.34	17.0998
2065.8	17.1355
2067.26	16.9529
2068.72	16.9091
2070.18	16.6457
2071.64	17.3151
2073.1	17.9241
2074.56	18.3015
2076.02	17.6437
2077.48	17.0587
2078.94	16.8201
2080.39	17.1394
2081.85	18.2041
2083.31	18.5575
2084.77	19.5932
2086.22	19.8492
2087.68	20.3262
2089.14	20.118
2090.6	18.9484
2092.05	19.1934
2093.51	19.7349
2094.96	19.3671
2096.42	19.237
2097.87	19.3362
2099.33	18.6222
2100.78	18.359
2102.24	17.6198
2103.69	17.5635
2105.15	17.2817
2106.6	17.3954
2108.05	18.1716
2109.51	18.2633
2110.96	18.6826
2112.41	19.0963
2113.86	19.193
2115.32	19.6467
2116.77	18.868
2118.22	19.3321
2119.67	18.5899
2121.12	18.582
2122.57	19.3583
2124.02	19.3748
2125.47	18.1348
2126.92	18.2549
2128.37	18.5867
2129.82	18.1685
2131.27	18.5915
2132.72	19.5135
