#Acq. time (s)=	45
#Accumulations=	2
#Range (cm-¹)=	200...3150
#Windows=	2
#Auto scanning=	Off
#Autofocus=	Off
#Macrospot=	Off
#AutoExposure=	Off
#Spike filter=	Multiple accum.
#Delay time (s)=	0
#Binning=	1
#Readout mode=	Signal
#DeNoise=	Off
#ICS correction=	On
#Dark correction=	Off
#Inst. Process=	Off
#Detector Gain=	Best Dynamic Range
#Detector ADC=	20 kHz       
#Detector temperature (°C)=	-69.85
#Instrument=	LabRAM HR Evol
#Detector=	Synapse
#Objective=	x100
#Grating=	600 gr/mm
#ND Filter=	100%
#Laser (nm)=	532 
#Hole=	100.021
#Range=	Auto
#Laser Pol.=	No
#Raman. Pol.=	No
#Laser Pol. (°)=	-0.0007625
#Raman Pol. (°)=	89.9995
#Collection=	Microscope
#StageXY=	Marzhauser
#StageZ=	Marzhauser
#X (µm)=	-615.6
#Y (µm)=	-1594.6
#Z (µm)=	89.85
#Full time(mm:ss)=	3:19
#Project=	
#Sample=	
#Site=	
#Title=	Mb_10_14_27_2x_45s_532 nm_x100_100%_600 gr_mm
#Remark=	
#Date=	11.07.2022 10:33
#Acquired=	11.07.2022 10:33:14
#Base:Fit=	10.08.2022 10:21:11
#Base:Sub=	10.08.2022 10:21:41
#Filter:Polynom=	16.08.2022 10:17:53
#AxisType[0]=Intens
#AxisUnit[0]=Cnt
#AxisType[1]=Spectr
#AxisUnit[1]=1/cm
200.388	6.7222
202.204	8.20164
204.019	7.2194
205.832	6.23605
207.646	4.86536
209.459	3.75461
211.274	2.57657
213.087	1.62431
214.899	0.786519
216.711	0.952102
218.524	0.757991
220.335	0.821981
222.146	0.945535
223.956	1.99066
225.766	3.57271
227.576	4.08063
229.388	4.6108
231.197	5.69694
233.005	6.18802
234.813	7.3923
236.621	7.53731
238.429	7.91858
240.236	8.75186
242.045	9.1544
243.852	9.4092
245.658	10.8061
247.464	12.1857
249.269	13.4551
251.074	14.91
252.879	15.6968
254.683	15.9922
256.487	16.345
258.291	16.6639
260.094	17.2634
261.897	17.5495
263.702	17.654
265.504	18.1259
267.306	17.3398
269.108	16.0265
270.909	15.0436
272.71	15.1518
274.511	14.7923
276.311	15.2722
278.111	14.1446
279.91	14.2175
281.709	13.1334
283.508	13.1823
285.306	12.767
287.105	12.0696
288.9	10.8672
290.698	10.0089
292.495	10.3255
294.291	10.7145
296.088	10.1974
297.884	11.1587
299.679	11.6593
301.475	12.2745
303.27	13.2636
305.064	14.0151
306.858	15.1823
308.652	15.5
310.444	16.1718
312.237	16.4414
314.03	17.3579
315.822	17.9194
317.615	16.5933
319.406	17.0298
321.198	17.8366
322.987	18.6399
324.778	19.6175
326.568	19.224
328.358	19.3744
330.148	20.0022
331.935	19.8696
333.724	20.5634
335.513	21.0935
337.301	20.8806
339.089	21.2894
340.875	21.4771
342.662	21.1334
344.449	20.3394
346.236	20.8014
348.02	20.5133
349.806	21.2055
351.592	21.6008
353.375	20.6476
355.16	20.227
356.944	19.5384
358.728	19.4018
360.51	19.7206
362.294	19.5285
364.077	19.1858
365.858	19.3126
367.64	19.2587
369.422	19.6974
371.202	19.928
372.983	21.247
374.764	20.1691
376.543	20.4815
378.324	20.748
380.102	20.8735
381.881	20.431
383.661	21.1115
385.438	20.9622
387.216	21.4419
388.993	21.5098
390.771	22.3337
392.548	21.2315
394.324	20.5147
396.101	19.6719
397.875	19.3033
399.651	18.8776
401.425	17.9027
403.201	18.4363
404.974	17.7007
406.749	16.9451
408.524	17.2923
410.296	17.083
412.07	16.3027
413.841	15.9612
415.614	15.3659
417.385	15.3496
419.156	15.5679
420.928	14.6904
422.698	14.4158
424.469	15.3015
426.238	16.3117
428.009	17.2054
429.777	16.0349
431.548	15.2607
433.315	14.3146
435.083	13.6613
436.852	13.5238
438.618	13.2541
440.387	13.0659
442.153	11.5007
443.919	11.029
445.686	11.7603
447.451	11.7983
449.218	11.9418
450.982	10.9192
452.746	11.957
454.512	12.2206
456.275	12.1492
458.038	11.7138
459.803	11.251
461.565	10.1424
463.327	8.99714
465.091	9.32543
466.852	10.341
468.613	10.2222
470.374	10.0732
472.136	10.9764
473.896	10.6995
475.655	11.7637
477.415	12.9206
479.176	12.3939
480.934	11.9723
482.692	12.9004
484.45	13.182
486.21	13.6524
487.967	13.4253
489.724	13.0767
491.481	13.3077
493.237	12.6937
494.995	13.3684
496.75	14.0441
498.506	14.7623
500.26	15.7675
502.015	16.4272
503.769	15.7818
505.525	15.791
507.279	14.8116
509.032	14.6977
510.785	14.6034
512.537	15.239
514.289	14.1021
516.041	13.296
517.793	11.5446
519.546	11.353
521.297	10.6109
523.047	9.41525
524.797	8.82327
526.547	7.80539
528.297	8.30718
530.046	8.38054
531.795	8.4827
533.543	9.84144
535.291	8.93752
537.039	7.60394
538.787	7.09571
540.534	7.25423
542.281	6.85426
544.027	6.69524
545.773	7.10441
547.519	6.83857
549.264	6.68992
551.01	6.90598
552.754	6.99937
554.499	7.66469
556.243	6.998
557.987	6.81327
559.73	7.90664
561.474	7.98989
563.216	7.99086
564.959	6.92613
566.701	5.72209
568.441	5.15256
570.182	4.74381
571.923	3.63629
573.664	3.16435
575.405	3.17535
577.145	3.14611
578.885	3.71854
580.624	4.67944
582.361	5.14428
584.1	5.12657
585.839	4.17193
587.577	3.63427
589.315	2.80553
591.052	2.56399
592.787	2.51371
594.524	2.39111
596.26	3.2536
597.997	2.21824
599.732	2.92276
601.466	2.73365
603.201	2.02991
604.936	1.6098
606.67	1.94392
608.403	1.35687
610.136	1.39137
611.87	2.11746
613.603	3.78037
615.334	5.23406
617.067	5.86613
618.799	6.61903
620.529	6.89269
622.26	6.34164
623.991	6.35127
625.72	7.78238
627.451	8.73837
629.181	9.57327
630.909	10.5084
632.638	11.0985
634.368	10.6668
636.095	12.1471
637.823	12.2575
639.551	12.9705
641.277	13.6596
643.005	14.5607
644.73	14.863
646.457	15.9863
648.184	16.0261
649.908	15.8705
651.634	15.8592
653.357	16.0418
655.083	16.3711
656.806	16.8655
658.53	17.1653
660.253	17.3137
661.977	17.9605
663.7	18.2969
665.422	18.9676
667.145	19.3999
668.865	18.9687
670.588	19.0302
672.308	19.2315
674.027	18.9809
675.749	19.6094
677.468	19.3193
679.188	19.4227
680.907	19.8356
682.627	20.1609
684.345	19.351
686.064	20.3378
687.781	19.6552
689.498	19.2507
691.216	19.8142
692.932	19.947
694.65	20.1378
696.366	20.8327
698.081	21.3758
699.797	22.2347
701.512	21.7287
703.228	21.8667
704.942	21.6311
706.655	21.4628
708.371	21.4901
710.083	21.9195
711.796	22.3018
713.51	22.5157
715.222	22.8046
716.934	23.9167
718.645	24.0572
720.358	24.8178
722.068	25.6485
723.779	25.8154
725.49	26.5477
727.2	26.3153
728.909	27.5938
730.618	27.548
732.329	28.3841
734.037	28.9975
735.745	29.2519
737.453	30.0771
739.16	30.5358
740.869	31.3767
742.576	32.4375
744.282	33.9907
745.988	35.0801
747.694	37.5681
749.401	39.2554
751.107	40.8178
752.811	42.3762
754.516	43.1128
756.22	44.1021
757.924	46.1182
759.627	47.3171
761.332	49.5498
763.035	51.524
764.738	53.6787
766.44	55.1631
768.142	57.3994
769.843	58.5529
771.544	60.5019
773.245	61.9952
774.946	62.8898
776.646	64.8169
778.346	66.0072
780.046	67.3236
781.745	68.3535
783.444	69.163
785.143	69.3838
786.841	69.7057
788.539	70.8683
790.237	71.7853
791.934	72.6923
793.631	72.9836
795.328	73.9153
797.024	74.9538
798.72	76.8934
800.416	76.3342
802.112	76.3107
803.807	75.9779
805.502	76.5029
807.196	77.1795
808.89	77.0653
810.584	76.6701
812.278	76.8491
813.971	77.4274
815.664	76.4245
817.354	76.5799
819.047	77.053
820.739	76.2745
822.43	75.7808
824.122	75.4144
825.813	75.0868
827.503	75.1817
829.192	74.2149
830.882	73.8573
832.571	73.8741
834.261	72.9928
835.95	72.8227
837.637	72.2917
839.325	71.4583
841.013	70.6985
842.701	70.3755
844.389	69.0537
846.074	68.3226
847.761	66.2695
849.447	64.534
851.131	63.5171
852.817	63.4063
854.503	61.4283
856.188	60.0817
857.871	59.1754
859.556	57.5699
861.24	57.5082
862.922	56.0127
864.606	55.3894
866.289	54.1005
867.97	53.1301
869.653	51.8789
871.336	51.2589
873.016	50.5811
874.698	50.1769
876.379	49.5076
878.058	49.2427
879.739	48.3277
881.418	48.445
883.098	48.248
884.778	47.0358
886.456	47.0122
888.135	47.7051
889.812	47.5804
891.49	47.4766
893.167	46.4625
894.845	46.0117
896.523	46.1942
898.198	45.6974
899.875	44.972
901.55	44.7642
903.226	44.1905
904.901	43.6884
906.576	44.0509
908.25	44.4031
909.925	44.7674
911.598	45.0817
913.271	45.0565
914.945	45.6241
916.617	44.7082
918.291	45.2585
919.962	45.7894
921.635	45.3817
923.306	45.2552
924.978	44.5903
926.648	44.7241
928.318	44.1639
929.989	44.3132
931.659	43.7529
933.328	44.1481
934.998	44.8648
936.666	44.9012
938.336	44.3857
940.004	44.7848
941.671	44.0487
943.34	42.9839
945.007	41.7146
946.673	40.8248
948.339	40.743
950.007	39.7185
951.672	39.0345
953.337	37.1869
955.004	37.0116
956.669	36.851
958.333	36.8013
959.997	36.5756
961.662	36.1501
963.326	37.0888
964.989	38.8232
966.651	39.6609
968.315	39.354
969.977	40.1698
971.639	40.5587
973.301	39.4484
974.962	40.028
976.624	39.786
978.285	40.5748
979.945	41.4324
981.605	41.3013
983.264	40.9265
984.924	42.1243
986.583	43.033
988.243	43.2305
989.901	43.4699
991.56	43.1453
993.217	42.6816
994.875	41.4485
996.532	41.1843
998.188	40.8107
999.845	39.6415
1001.5	40.9795
1003.16	40.4075
1004.81	40.8053
1006.47	40.5642
1008.12	40.8722
1009.78	40.3178
1011.43	39.7667
1013.09	40.7406
1014.74	40.3772
1016.39	40.6635
1018.05	40.5644
1019.7	39.5106
1021.35	38.9117
1023	37.804
1024.65	35.6686
1026.31	34.1492
1027.96	33.1421
1029.61	32.5804
1031.26	31.2533
1032.91	29.286
1034.56	28.5063
1036.21	27.677
1037.86	27.7653
1039.51	28.7148
1041.16	28.4525
1042.8	28.5148
1044.45	29.1388
1046.1	30.0379
1047.75	29.2627
1049.39	27.8741
1051.04	27.1296
1052.69	25.7937
1054.33	23.2372
1055.98	22.3149
1057.62	21.5619
1059.27	20.8204
1060.91	19.7557
1062.56	17.3981
1064.2	16.7996
1065.85	16.0427
1067.49	14.718
1069.13	13.6419
1070.77	12.2168
1072.42	11.7687
1074.06	10.696
1075.7	10.6437
1077.34	9.27131
1078.98	9.77494
1080.62	9.7649
1082.27	9.36733
1083.91	9.87778
1085.55	9.18096
1087.18	10.147
1088.82	10.0856
1090.46	10.1409
1092.1	9.85343
1093.74	10.3648
1095.38	11.2836
1097.02	11.1283
1098.65	11.2606
1100.29	10.7828
1101.93	9.7972
1103.56	9.62254
1105.2	8.53478
1106.84	8.39254
1108.47	8.57949
1110.11	9.16881
1111.74	8.80686
1113.38	8.70372
1115.01	8.47077
1116.64	8.137
1118.28	8.08314
1119.91	7.9991
1121.54	9.0013
1123.18	7.75171
1124.81	7.14554
1126.44	7.47425
1128.07	6.61147
1129.7	6.00338
1131.33	6.32807
1132.97	5.67306
1134.6	3.77849
1136.23	3.18523
1137.86	4.11171
1139.49	4.02708
1141.11	4.78631
1142.74	4.73012
1144.37	5.3708
1146	5.47881
1147.63	5.02766
1149.26	4.70259
1150.88	5.22525
1152.51	5.12079
1154.14	4.68116
1155.76	3.92435
1157.39	3.56514
1159.01	2.14187
1160.64	2.11672
1162.27	1.75745
1163.89	1.26944
1165.51	0.686759
1167.14	0.557169
1168.76	1.29267
1170.39	1.85861
1172.01	1.5011
1173.63	1.7371
1175.25	2.013
1176.88	2.5705
1178.5	2.10102
1180.12	2.07229
1181.74	2.04938
1183.36	1.62214
1184.98	2.378
1186.6	2.52424
1188.22	2.29568
1189.84	2.01582
1191.46	1.59447
1193.08	1.46564
1194.7	2.02858
1196.32	1.37021
1197.94	1.42642
1199.55	2.2809
1201.17	2.4636
1202.79	3.20989
1204.41	4.6149
1206.02	4.9152
1207.64	6.77686
1209.25	7.65166
1210.87	9.05434
1212.48	9.41154
1214.1	10.0741
1215.71	11.0347
1217.33	12.3071
1218.94	14.6427
1220.56	16.4204
1222.17	17.9554
1223.79	18.6202
1225.4	18.4991
1227.01	19.3214
1228.62	20.3062
1230.23	21.5962
1231.85	22.3424
1233.46	22.7423
1235.07	23.7172
1236.68	25.1649
1238.29	26.591
1239.9	26.8233
1241.51	28.2257
1243.12	29.4447
1244.73	31.031
1246.34	31.7723
1247.94	33.4473
1249.55	34.3753
1251.16	35.9767
1252.77	37.0236
1254.37	37.7714
1255.98	38.799
1257.59	38.1833
1259.2	37.4951
1260.8	37.681
1262.41	37.2532
1264.01	36.9113
1265.62	37.1331
1267.22	37.2436
1268.83	36.9477
1270.43	37.878
1272.03	37.8151
1273.64	37.7676
1275.24	38.0408
1276.85	37.2923
1278.45	38.4109
1280.05	38.2032
1281.65	39.3285
1283.25	39.4469
1284.85	40.4624
1286.46	39.4419
1288.06	40.6702
1289.66	40.1436
1291.26	40.9584
1292.86	41.3969
1294.46	42.4787
1296.06	41.5044
1297.66	42.187
1299.25	44.2019
1300.85	44.0838
1302.45	44.1727
1304.05	43.2911
1305.65	43.9693
1307.24	44.9891
1308.84	44.6478
1310.43	44.8439
1312.03	44.9879
1313.63	45.196
1315.22	46.8798
1316.82	46.5939
1318.41	46.738
1320.01	46.3122
1321.6	46.1893
1323.2	45.969
1324.79	46.858
1326.38	46.4845
1327.98	46.2293
1329.57	45.1132
1331.16	45.2891
1332.76	44.6882
1334.35	42.8242
1335.94	41.8237
1337.53	39.8401
1339.12	39.6096
1340.71	38.9159
1342.3	37.7978
1343.89	37.7593
1345.48	37.334
1347.07	36.6129
1348.66	35.6555
1350.25	35.4324
1351.84	35.2268
1353.43	35.3006
1355.01	35.3204
1356.6	34.8595
1358.19	34.7661
1359.77	33.5159
1361.36	33.2077
1362.95	31.4587
1364.53	31.1433
1366.12	29.7761
1367.71	29.7766
1369.29	29.175
1370.88	29.8819
1372.46	29.4906
1374.04	28.68
1375.63	28.0349
1377.21	29.2342
1378.8	28.5926
1380.38	28.173
1381.96	28.4257
1383.54	27.467
1385.13	26.7614
1386.71	26.1441
1388.29	25.9319
1389.87	25.6211
1391.45	26.1232
1393.03	25.8783
1394.61	25.4129
1396.19	24.0174
1397.77	23.9561
1399.35	22.4869
1400.93	22.2081
1402.51	22.5597
1404.09	22.5517
1405.67	22.5184
1407.24	22.5621
1408.82	23.0627
1410.4	23.6984
1411.98	23.3775
1413.55	24.3382
1415.13	25.4945
1416.71	26.0933
1418.28	26.9572
1419.86	27.4486
1421.43	29.4226
1423.01	32.5245
1424.58	34.2645
1426.16	36.1868
1427.73	39.0023
1429.31	41.4625
1430.88	44.4704
1432.45	46.6558
1434.02	48.0672
1435.6	50.0253
1437.17	51.0424
1438.74	51.2615
1440.31	52.4021
1441.88	54.0583
1443.45	54.8413
1445.03	55.1207
1446.6	56.45
1448.17	57.5986
1449.74	58.5636
1451.3	58.5088
1452.87	58.2578
1454.44	57.6164
1456.01	57.688
1457.58	56.7174
1459.15	57.1297
1460.72	55.7296
1462.28	54.058
1463.85	52.8075
1465.42	52.4617
1466.98	50.9336
1468.55	49.4205
1470.12	48.1685
1471.68	45.8239
1473.25	43.7687
1474.81	41.5549
1476.38	39.9312
1477.94	37.9256
1479.51	36.4969
1481.07	34.3902
1482.63	32.6982
1484.2	31.7642
1485.76	29.7283
1487.32	27.9735
1488.88	26.4026
1490.45	25.1436
1492.01	24.9143
1493.57	23.5986
1495.13	22.0573
1496.69	21.5473
1498.25	21.2396
1499.81	21.6039
1501.37	21.0916
1502.93	20.1165
1504.49	20.0673
1506.05	19.6111
1507.61	18.3598
1509.17	18.7587
1510.73	17.6608
1512.28	16.6411
1513.84	15.3876
1515.4	14.6609
1516.96	13.776
1518.51	14.9227
1520.07	14.1435
1521.63	13.5512
1523.18	14.2892
1524.74	14.3616
1526.29	14.4041
1527.85	13.904
1529.4	13.7284
1530.96	13.9112
1532.51	13.7738
1534.06	15.0327
1535.62	14.9275
1537.17	15.8454
1538.72	14.6644
1540.28	14.7223
1541.83	15.3842
1543.38	15.4157
1544.93	15.6701
1546.48	16.3435
1548.03	16.9787
1549.59	16.5149
1551.14	16.6254
1552.69	16.8274
1554.24	17.9149
1555.79	17.9596
1557.34	18.1663
1558.88	18.7036
1560.43	19.3524
1561.98	20.2194
1563.53	21.0974
1565.08	22.508
1566.62	23.4253
1568.17	24.5551
1569.72	25.9418
1571.27	26.5873
1572.81	26.7276
1574.36	27.2309
1575.9	27.9283
1577.45	29.1899
1579	29.4214
1580.54	30.419
1582.09	31.1257
1583.63	31.5853
1585.17	32.0037
1586.72	33.1233
1588.26	32.87
1589.8	33.1244
1591.35	33.1996
1592.89	34.1013
1594.43	34.5387
1595.97	36.0773
1597.52	35.8484
1599.06	36.3282
1600.6	36.8728
1602.14	36.574
1603.68	36.5233
1605.22	36.4126
1606.76	36.913
1608.3	36.9781
1609.84	36.45
1611.38	36.9884
1612.92	36.361
1614.46	36.9949
1615.99	36.8053
1617.53	38.2102
1619.07	38.9794
1620.61	39.4661
1622.14	40.7087
1623.68	41.4415
1625.22	42.2884
1626.75	42.0088
1628.29	42.9527
1629.82	44.2298
1631.36	45.3211
1632.9	46.6494
1634.43	48.1986
1635.96	49.6491
1637.5	51.2149
1639.03	53.326
1640.57	53.8351
1642.1	54.6077
1643.63	54.7278
1645.16	56.1658
1646.7	57.1358
1648.23	57.3162
1649.76	57.9538
1651.29	58.6219
1652.82	59.3912
1654.36	59.5651
1655.89	60.0573
1657.42	59.5615
1658.95	58.5823
1660.48	57.2975
1662.01	56.2519
1663.53	55.6017
1665.06	54.2865
1666.59	54.3268
1668.12	52.9136
1669.65	52.8259
1671.18	52.1134
1672.7	51.4658
1674.23	49.5555
1675.76	47.9919
1677.29	46.3958
1678.81	44.0936
1680.34	41.6258
1681.86	39.6358
1683.39	37.9668
1684.91	35.9504
1686.44	33.6606
1687.96	32.684
1689.49	31.3379
1691.01	29.3652
1692.54	27.7564
1694.06	25.5381
1695.58	23.9049
1697.11	21.9716
1698.63	20.6019
1700.15	18.1608
1701.67	16.7794
1703.2	15.6835
1704.72	14.3288
1706.24	13.6672
1707.76	12.4759
1709.28	11.45
1710.8	9.17133
1712.32	8.04405
1713.84	6.45197
1715.36	5.07524
1716.88	3.86948
1718.4	3.42481
1719.91	2.48586
1721.43	2.39337
1722.95	1.86091
1724.47	1.04053
1725.99	1.03352
1727.5	0.567731
1729.02	0.437175
1730.54	0.623152
1732.05	0.597925
1733.57	-0.0897335
1735.09	0.405669
1736.6	0.776956
1738.12	1.63301
1739.63	1.55145
1741.15	2.2641
1742.66	2.89211
1744.18	2.56379
1745.69	4.16016
1747.2	4.37562
1748.72	4.73083
1750.23	4.2384
1751.74	4.34469
1753.25	4.20841
1754.77	3.71513
1756.28	3.37604
1757.79	3.80694
1759.3	4.49037
1760.81	4.20776
1762.32	4.28804
1763.83	4.49752
1765.34	4.15076
1766.85	3.91864
1768.36	4.20567
1769.87	3.97313
1771.38	4.35776
1772.89	4.19351
1774.4	4.41664
1775.91	4.15556
1777.41	4.47399
1778.92	4.18935
1780.43	2.90022
1781.94	3.07477
1783.44	2.16867
1784.95	1.93259
1786.45	1.72615
1787.96	2.19627
1789.47	1.82186
1790.97	1.53285
1792.47	1.47892
1793.98	1.53531
1795.48	1.51113
1796.99	1.65437
1798.49	1.92786
1800	1.60081
1801.5	1.4309
1803	1.24825
1804.51	1.47317
1806.01	1.39695
1807.51	1.20045
1809.01	1.40108
1810.51	1.30074
1812.02	1.55817
1813.52	1.91141
1815.02	1.5638
1816.52	2.54881
1818.02	2.40158
1819.52	2.59579
1821.02	3.79976
1822.52	3.37251
1824.02	3.25154
1825.51	3.02004
1827.01	3.37307
1828.51	3.09383
1830.01	2.71533
1831.51	3.62866
1833	4.13915
1834.5	4.33356
1836	4.2411
1837.49	4.78318
1838.99	4.56882
1840.49	5.00757
1841.98	5.75832
1843.48	6.15378
1844.97	6.50635
1846.47	6.69158
1847.96	6.00083
1849.46	5.82998
1850.95	5.99185
1852.45	5.47378
1853.94	4.94485
1855.43	4.48741
1856.92	4.73144
1858.42	4.51456
1859.91	4.57853
1861.4	3.67258
1862.89	2.94403
1864.39	3.06182
1865.88	1.98854
1867.37	2.24728
1868.86	2.08051
1870.35	1.02898
1871.84	0.417014
1873.33	-0.24858
1874.82	-0.659642
1876.31	-0.776405
1877.8	-0.499913
1879.29	-0.665429
1880.77	-0.633796
1882.26	-0.00345974
1882.52	0.372495
1884.02	0.654127
1885.51	1.0622
1887.01	1.17811
1888.5	1.24332
1889.99	1.62182
1891.49	1.00353
1892.98	1.08237
1894.47	1.51001
1895.96	1.7438
1897.46	2.00189
1898.95	2.4472
1900.44	2.61716
1901.93	3.12146
1903.42	3.591
1904.91	4.82842
1906.4	5.16296
1907.89	5.92393
1909.38	6.19337
1910.87	6.86714
1912.36	7.0613
1913.85	7.65693
1915.34	7.87166
1916.83	8.34181
1918.32	8.19648
1919.8	7.72763
1921.29	7.33549
1922.78	8.24109
1924.27	8.2803
1925.75	7.90922
1927.24	7.62924
1928.73	8.05185
1930.21	8.37604
1931.7	8.63132
1933.18	8.53171
1934.67	8.31736
1936.15	8.96963
1937.64	9.50699
1939.12	8.521
1940.61	8.91919
1942.09	8.55517
1943.57	8.11494
1945.06	8.48628
1946.54	8.54617
1948.02	8.75547
1949.51	8.78397
1950.99	8.80044
1952.47	9.4332
1953.95	10.3136
1955.43	10.1857
1956.91	9.63456
1958.39	9.50668
1959.87	9.128
1961.36	8.79762
1962.84	7.85071
1964.32	7.77971
1965.79	7.42201
1967.27	7.34049
1968.75	7.81312
1970.23	7.77585
1971.71	7.81326
1973.19	8.32313
1974.66	8.00916
1976.14	8.66319
1977.62	8.46463
1979.1	8.85115
1980.57	9.05806
1982.05	9.73158
1983.53	9.91561
1985	9.87679
1986.48	9.97038
1987.95	10.1651
1989.43	10.3711
1990.9	10.299
1992.38	10.1624
1993.85	10.3831
1995.33	10.9503
1996.8	11.2715
1998.27	11.5192
1999.75	11.7393
2001.22	11.7807
2002.69	11.9399
2004.16	12.376
2005.64	12.3623
2007.11	12.4655
2008.58	12.1493
2010.05	11.9087
2011.52	12.0229
2012.99	11.8224
2014.46	11.8403
2015.93	11.2087
2017.4	11.1609
2018.87	11.0503
2020.34	10.5564
2021.81	10.9435
2023.28	11.1862
2024.75	11.3225
2026.22	11.5451
2027.69	11.1535
2029.15	10.7968
2030.62	10.5872
2032.09	10.3852
2033.56	10.1675
2035.02	10.0164
2036.49	10.3696
2037.95	10.0904
2039.42	9.56033
2040.89	9.75922
2042.35	10.4199
2043.82	10.6566
2045.28	11.2332
2046.75	11.7131
2048.21	11.6619
2049.67	11.8719
2051.14	11.9886
2052.6	12.2736
2054.06	12.6936
2055.53	12.5933
2056.99	12.2304
2058.45	12.2387
2059.92	12.1678
2061.38	11.9587
2062.84	12.1025
2064.3	11.595
2065.76	12.3905
2067.22	12.8501
2068.68	12.3554
2070.14	12.6226
2071.6	12.4303
2073.06	11.9359
2074.52	11.491
2075.98	10.9083
2077.44	11.3199
2078.9	11.2211
2080.36	11.0013
2081.82	10.4227
2083.27	10.6217
2084.73	10.904
2086.19	10.4034
2087.65	9.99447
2089.1	9.42693
2090.56	9.57402
2092.01	9.73215
2093.47	10.0416
2094.93	9.65658
2096.38	9.2237
2097.84	8.91143
2099.29	8.90391
2100.75	9.62846
2102.2	9.69208
2103.66	9.54224
2105.11	9.51327
2106.56	9.96888
2108.02	10.4577
2109.47	11.1602
2110.92	10.9756
2112.37	12.1712
2113.83	13.1305
2115.28	14.0589
2116.73	15.0675
2118.18	15.5998
2119.63	17.1102
2121.09	17.0441
2122.54	18.1426
2123.99	19.1079
2125.44	19.6641
2126.89	20.6322
2128.34	21.8157
2129.79	22.3491
2131.23	23.7849
2132.68	24.4709
2134.13	25.8876
