#Acq. time (s)=	45
#Accumulations=	2
#Range (cm-¹)=	200...3150
#Windows=	2
#Auto scanning=	Off
#Autofocus=	Off
#Macrospot=	Off
#AutoExposure=	Off
#Spike filter=	Multiple accum.
#Delay time (s)=	0
#Binning=	1
#Readout mode=	Signal
#DeNoise=	Off
#ICS correction=	On
#Dark correction=	Off
#Inst. Process=	Off
#Detector Gain=	Best Dynamic Range
#Detector ADC=	20 kHz       
#Detector temperature (°C)=	-69.85
#Instrument=	LabRAM HR Evol
#Detector=	Synapse
#Objective=	x100
#Grating=	600 gr/mm
#ND Filter=	100%
#Laser (nm)=	532 
#Hole=	100.021
#Range=	Auto
#Laser Pol.=	No
#Raman. Pol.=	No
#Laser Pol. (°)=	-0.0007625
#Raman Pol. (°)=	89.9995
#Collection=	Microscope
#StageXY=	Marzhauser
#StageZ=	Marzhauser
#X (µm)=	-645.1
#Y (µm)=	-1709.9
#Z (µm)=	89.45
#Full time(mm:ss)=	3:19
#Project=	
#Sample=	
#Site=	
#Title=	Mb_10_14_50_2x_45s_532 nm_x100_100%_600 gr_mm
#Remark=	
#Date=	11.07.2022 12:26
#Acquired=	11.07.2022 12:26:56
#Edit:Spike=	11.07.2022 12:30:37
#Base:Fit=	10.08.2022 10:21:11
#Base:Sub=	10.08.2022 10:21:41
#Filter:Polynom=	16.08.2022 10:17:53
#AxisType[0]=Intens
#AxisUnit[0]=Cnt
#AxisType[1]=Spectr
#AxisUnit[1]=1/cm
200.388	9.17052
202.204	5.16218
204.019	4.52154
205.832	4.97751
207.646	4.7868
209.459	4.00646
211.274	3.09375
213.087	2.47593
214.899	1.51898
216.711	1.01605
218.524	2.07501
220.335	2.19274
222.146	3.1896
223.956	4.45175
225.766	5.93475
227.576	5.61227
229.388	6.57849
231.197	6.8472
233.005	7.59278
234.813	8.15034
236.621	9.31011
238.429	10.9848
240.236	11.541
242.045	11.8561
243.852	12.1749
245.658	12.4297
247.464	13.5847
249.269	14.86
251.074	15.6988
252.879	16.3388
254.683	15.9893
256.487	16.2516
258.291	15.9625
260.094	15.6482
261.897	14.6648
263.702	14.7973
265.504	14.3251
267.306	14.8787
269.108	15.0999
270.909	13.838
272.71	13.8981
274.511	14.0645
276.311	12.9134
278.111	12.412
279.91	11.8399
281.709	12.9582
283.508	11.8992
285.306	11.3942
287.105	11.1693
288.9	10.8488
290.698	9.68473
292.495	8.68563
294.291	6.84061
296.088	4.97785
297.884	4.66669
299.679	4.43099
301.475	4.32675
303.27	4.50885
305.064	4.72436
306.858	5.05704
308.652	5.16921
310.444	4.9489
312.237	5.88673
314.03	5.54022
315.822	4.03181
317.615	3.65563
319.406	4.20231
321.198	3.58845
322.987	4.13427
324.778	4.44546
326.568	5.10605
328.358	5.67047
330.148	5.26509
331.935	5.35369
333.724	5.93435
335.513	6.23676
337.301	6.77656
339.089	6.20881
340.875	5.51399
342.662	5.80123
344.449	5.51494
346.236	5.41983
348.02	4.97785
349.806	5.11303
351.592	6.23199
353.375	8.64673
355.16	9.63671
356.944	10.6432
358.728	11.7327
360.51	12.4734
362.294	13.8715
364.077	14.2111
365.858	14.0793
367.64	15.3276
369.422	15.5555
371.202	16.9522
372.983	16.5906
374.764	16.5611
376.543	15.9453
378.324	16.0597
380.102	16.0795
381.881	16.1091
383.661	17.146
385.438	17.0292
387.216	16.9255
388.993	16.8375
390.771	16.5974
392.548	16.774
394.324	16.632
396.101	16.1529
397.875	15.0008
399.651	15.2021
401.425	14.3016
403.201	12.7417
404.974	12.1696
406.749	12.4364
408.524	12.4875
410.296	11.5889
412.07	12.1742
413.841	11.666
415.614	10.0677
417.385	10.0416
419.156	9.56281
420.928	9.05489
422.698	8.18408
424.469	8.60705
426.238	7.6445
428.009	6.55149
429.777	6.72053
431.548	6.72877
433.315	6.45855
435.083	6.00684
436.852	6.67344
438.618	6.72538
440.387	7.43157
442.153	7.58088
443.919	7.41982
445.686	8.07771
447.451	8.72342
449.218	8.24057
450.982	8.94097
452.746	9.49682
454.512	9.96925
456.275	10.5119
458.038	10.3889
459.803	10.691
461.565	10.567
463.327	11.1305
465.091	11.4399
466.852	11.8493
468.613	11.4182
470.374	11.7009
472.136	12.5744
473.896	12.1687
475.655	12.3816
477.415	12.5527
479.176	12.9496
480.934	13.3105
482.692	13.0595
484.45	12.797
486.21	12.3305
487.967	13.62
489.724	13.0058
491.481	13.3107
493.237	14.121
494.995	14.5128
496.75	14.9824
498.506	14.3409
500.26	14.8031
502.015	14.2575
503.769	14.4697
505.525	15.5359
507.279	15.4536
509.032	14.8588
510.785	15.0065
512.537	15.3335
514.289	14.4695
516.041	14.7618
517.793	15.4334
519.546	15.4943
521.297	15.6748
523.047	15.3768
524.797	16.4065
526.547	15.437
528.297	16.2477
530.046	16.6534
531.795	16.5955
533.543	17.0039
535.291	16.9435
537.039	16.4184
538.787	16.4701
540.534	16.0692
542.281	15.5016
544.027	14.9506
545.773	14.9982
547.519	14.7557
549.264	14.5393
551.01	14.4699
552.754	12.9507
554.499	11.8621
556.243	11.2084
557.987	11.5799
559.73	11.1055
561.474	9.92398
563.216	9.37731
564.959	9.33734
566.701	9.07594
568.441	8.63623
570.182	7.69176
571.923	8.10823
573.664	7.83443
575.405	7.04898
577.145	6.3678
578.885	6.44423
580.624	6.31204
582.361	5.70395
584.1	5.55542
585.839	5.60768
587.577	4.7391
589.315	4.5684
591.052	3.40582
592.787	2.16507
594.524	1.53501
596.26	0.830827
597.997	1.36874
599.732	1.15013
601.466	0.885445
603.201	0.597849
604.936	1.33272
606.67	1.79089
608.403	2.27307
610.136	3.46085
611.87	4.06537
613.603	4.15341
615.334	5.59455
617.067	6.24382
618.799	6.63035
620.529	8.3585
622.26	8.40638
623.991	8.37444
625.72	9.25212
627.451	9.7548
629.181	11.2
630.909	12.9481
632.638	13.4882
634.368	13.964
636.095	14.6072
637.823	15.1424
639.551	15.3431
641.277	16.4588
643.005	17.2152
644.73	18.6717
646.457	19.3504
648.184	20.035
649.908	21.1683
651.634	21.1178
653.357	21.2118
655.083	21.8736
656.806	21.7454
658.53	23.3676
660.253	23.4147
661.977	23.4414
663.7	23.7331
665.422	23.9308
667.145	24.7073
668.865	24.9831
670.588	25.7045
672.308	25.5161
674.027	25.6119
675.749	26.0888
677.468	26.3336
679.188	27.8416
680.907	28.3702
682.627	29.5772
684.345	31.2028
686.064	31.865
687.781	33.1397
689.498	33.5225
691.216	35.02
692.932	35.6821
694.65	36.8764
696.366	37.6744
698.081	37.638
699.797	38.8128
701.512	39.2007
703.228	38.2849
704.942	38.4701
706.655	38.656
708.371	38.5961
710.083	38.8003
711.796	38.8434
713.51	39.1136
715.222	38.6623
716.934	38.5769
718.645	37.6964
720.358	37.9703
722.068	38.1586
723.779	38.4869
725.49	38.1818
727.2	38.3087
728.909	38.2235
730.618	39.1369
732.329	39.0881
734.037	38.8452
735.745	39.2724
737.453	38.9899
739.16	39.7464
740.869	40.5527
742.576	41.5506
744.282	42.694
745.988	42.7995
747.694	43.6898
749.401	45.3858
751.107	47.6736
752.811	49.4214
754.516	50.9105
756.22	52.7159
757.924	54.7304
759.627	56.8961
761.332	59.2367
763.035	60.8873
764.738	61.9471
766.44	62.8084
768.142	64.509
769.843	66.5276
771.544	67.3144
773.245	68.1248
774.946	69.1738
776.646	71.9542
778.346	73.0945
780.046	74.2255
781.745	75.2808
783.444	76.0989
785.143	76.8642
786.841	77.4872
788.539	78.6093
790.237	79.6915
791.934	79.9432
793.631	81.227
795.328	80.6905
797.024	80.3892
798.72	80.4649
800.416	81.1982
802.112	82.1971
803.807	81.3325
805.502	81.0097
807.196	81.1542
808.89	80.5137
810.584	79.3537
812.278	79.5903
813.971	79.1265
815.664	79.11
817.354	77.535
819.047	77.1135
820.739	76.3586
822.43	75.1879
824.122	75.0017
825.813	75.0905
827.503	73.9304
829.192	73.6673
830.882	73.4786
832.571	73.3931
834.261	73.1202
835.95	72.874
837.637	72.3102
839.325	72.011
841.013	71.5323
842.701	72.1824
844.389	71.4264
846.074	71.136
847.761	69.271
849.447	68.8734
851.131	69.0393
852.817	68.1057
854.503	67.5967
856.188	66.4524
857.871	66.1218
859.556	66.9236
861.24	66.3374
862.922	65.4187
864.606	64.5327
866.289	64.1475
867.97	63.6401
869.653	63.6351
871.336	63.3319
873.016	61.2146
874.698	60.4012
876.379	59.9391
878.058	58.0773
879.739	56.8236
881.418	56.2586
883.098	56.5214
884.778	55.819
886.456	54.7773
888.135	54.5132
889.812	54.5434
891.49	54.2118
893.167	52.7321
894.845	52.1807
896.523	51.9845
898.198	51.0256
899.875	50.5911
901.55	49.7483
903.226	49.2706
904.901	49.005
906.576	49.625
908.25	50.8222
909.925	50.0402
911.598	49.2416
913.271	50.0356
914.945	49.386
916.617	48.7505
918.291	48.8524
919.962	49.0323
921.635	48.9138
923.306	49.2361
924.978	49.6138
926.648	49.2886
928.318	48.6214
929.989	47.843
931.659	46.8238
933.328	46.7437
934.998	46.4894
936.666	45.3559
938.336	45.2094
940.004	45.0056
941.671	45.152
943.34	45.0689
945.007	44.2087
946.673	43.2985
948.339	43.4909
950.007	43.2866
951.672	43.5768
953.337	43.5577
955.004	42.7846
956.669	41.8021
958.333	42.4474
959.997	41.658
961.662	40.829
963.326	42.0334
964.989	42.1551
966.651	42.0414
968.315	41.2957
969.977	41.7107
971.639	41.4255
973.301	40.0211
974.962	39.8526
976.624	39.4797
978.285	39.2741
979.945	38.679
981.605	37.7461
983.264	37.8952
984.924	36.5265
986.583	35.8867
988.243	35.3631
989.901	35.2875
991.56	33.3894
993.217	31.4928
994.875	31.597
996.532	31.6074
998.188	30.6347
999.845	31.3828
1001.5	31.6274
1003.16	31.6702
1004.81	31.4998
1006.47	30.5284
1008.12	29.5077
1009.78	28.8166
1011.43	29.1059
1013.09	27.6748
1014.74	27.8107
1016.39	28.9351
1018.05	29.107
1019.7	28.6719
1021.35	28.9421
1023	29.509
1024.65	30.1066
1026.31	29.7948
1027.96	30.1141
1029.61	29.804
1031.26	30.5555
1032.91	29.9049
1034.56	30.1811
1036.21	29.9884
1037.86	28.1064
1039.51	28.0174
1041.16	28.435
1042.8	29.0942
1044.45	28.2634
1046.1	28.8238
1047.75	28.869
1049.39	28.3097
1051.04	28.8451
1052.69	28.3142
1054.33	26.9327
1055.98	26.3042
1057.62	26.0712
1059.27	24.3659
1060.91	22.8635
1062.56	22.0886
1064.2	20.4878
1065.85	19.3351
1067.49	17.6194
1069.13	17.4886
1070.77	16.545
1072.42	16.9964
1074.06	16.0292
1075.7	16.4226
1077.34	16.718
1078.98	16.0722
1080.62	15.7765
1082.27	15.5327
1083.91	14.749
1085.55	13.8046
1087.18	13.2477
1088.82	13.2805
1090.46	13.7218
1092.1	14.0567
1093.74	14.2433
1095.38	14.3164
1097.02	15.3091
1098.65	16.5502
1100.29	15.4578
1101.93	14.7783
1103.56	15.3276
1105.2	15.1902
1106.84	14.0933
1108.47	12.7798
1110.11	12.7402
1111.74	12.0416
1113.38	12.0237
1115.01	12.1135
1116.64	12.3128
1118.28	12.3447
1119.91	12.1299
1121.54	13.0969
1123.18	12.8245
1124.81	12.2918
1126.44	10.947
1128.07	11.245
1129.7	11.2429
1131.33	10.5101
1132.97	9.54582
1134.6	7.44048
1136.23	6.91396
1137.86	7.1585
1139.49	6.68672
1141.11	6.35096
1142.74	6.13333
1144.37	5.06622
1146	3.94588
1147.63	5.16903
1149.26	5.21266
1150.88	5.82307
1152.51	6.25529
1154.14	6.66016
1155.76	6.16991
1157.39	6.51268
1159.01	6.6788
1160.64	6.30001
1162.27	6.20865
1163.89	6.452
1165.51	6.82506
1167.14	6.76931
1168.76	8.32883
1170.39	8.96198
1172.01	9.13879
1173.63	9.18922
1175.25	9.53669
1176.88	9.62917
1178.5	9.88469
1180.12	10.2641
1181.74	9.50492
1183.36	9.71419
1184.98	10.7632
1186.6	10.5514
1188.22	11.1508
1189.84	11.6398
1191.46	13.2103
1193.08	13.3628
1194.7	13.7392
1196.32	13.9476
1197.94	13.8746
1199.55	14.26
1201.17	14.7611
1202.79	14.9413
1204.41	14.8627
1206.02	14.5761
1207.64	15.4682
1209.25	15.9009
1210.87	15.6445
1212.48	15.0667
1214.1	15.3075
1215.71	15.8992
1217.33	16.6604
1218.94	16.8999
1220.56	17.2424
1222.17	17.0301
1223.79	16.4145
1225.4	16.951
1227.01	17.9868
1228.62	19.1464
1230.23	18.9023
1231.85	19.5979
1233.46	19.0703
1235.07	18.9612
1236.68	19.4643
1238.29	20.3337
1239.9	20.0126
1241.51	20.0009
1243.12	19.9753
1244.73	20.7619
1246.34	20.527
1247.94	20.7727
1249.55	20.7418
1251.16	19.8389
1252.77	19.2761
1254.37	19.7165
1255.98	19.7245
1257.59	19.3223
1259.2	20.14
1260.8	20.8057
1262.41	20.687
1264.01	21.0152
1265.62	20.6524
1267.22	20.9176
1268.83	21.0111
1270.43	20.1848
1272.03	19.972
1273.64	19.0291
1275.24	18.6762
1276.85	18.6572
1278.45	19.1104
1280.05	20.0317
1281.65	19.7856
1283.25	20.0353
1284.85	20.126
1286.46	20.9343
1288.06	21.6006
1289.66	21.2255
1291.26	21.1521
1292.86	21.4404
1294.46	21.7349
1296.06	21.4401
1297.66	22.0415
1299.25	22.2553
1300.85	23.3163
1302.45	24.0029
1304.05	23.8828
1305.65	24.8042
1307.24	25.3527
1308.84	25.5028
1310.43	26.0899
1312.03	27.299
1313.63	28.1544
1315.22	29.5102
1316.82	29.7596
1318.41	29.4645
1320.01	28.7804
1321.6	29.2354
1323.2	29.375
1324.79	29.9358
1326.38	29.9812
1327.98	29.3856
1329.57	28.9048
1331.16	28.1434
1332.76	27.9915
1334.35	27.7075
1335.94	26.8128
1337.53	26.251
1339.12	26.662
1340.71	26.0216
1342.3	24.8783
1343.89	23.3461
1345.48	22.3919
1347.07	22.4522
1348.66	21.729
1350.25	20.4608
1351.84	20.0427
1353.43	20.0881
1355.01	19.7794
1356.6	19.4895
1358.19	19.3708
1359.77	19.6665
1361.36	19.3265
1362.95	20.4484
1364.53	19.5871
1366.12	19.7363
1367.71	18.757
1369.29	18.2084
1370.88	18.0728
1372.46	17.7697
1374.04	18.547
1375.63	18.2206
1377.21	18.9187
1378.8	18.2499
1380.38	18.8407
1381.96	18.1163
1383.54	17.9194
1385.13	18.3794
1386.71	19.0287
1388.29	19.1034
1389.87	19.9604
1391.45	20.8676
1393.03	20.764
1394.61	20.6163
1396.19	20.3992
1397.77	20.3502
1399.35	21.277
1400.93	22.4322
1402.51	22.2691
1404.09	21.9288
1405.67	21.7085
1407.24	21.0953
1408.82	21.7326
1410.4	21.3548
1411.98	22.0227
1413.55	22.1559
1415.13	23.3618
1416.71	24.2886
1418.28	24.7694
1419.86	25.1674
1421.43	25.0544
1423.01	25.7726
1424.58	27.1889
1426.16	28.3604
1427.73	29.4918
1429.31	30.3252
1430.88	31.9925
1432.45	32.9088
1434.02	33.5662
1435.6	34.1851
1437.17	35.3
1438.74	36.5502
1440.31	37.8799
1441.88	38.5655
1443.45	38.4951
1445.03	40.0509
1446.6	40.7604
1448.17	40.935
1449.74	41.3999
1451.3	41.6695
1452.87	42.1636
1454.44	41.3538
1456.01	41.9873
1457.58	41.4442
1459.15	42.3178
1460.72	41.2428
1462.28	40.9374
1463.85	40.5867
1465.42	40.6728
1466.98	40.5626
1468.55	40.7522
1470.12	40.2458
1471.68	39.8999
1473.25	39.0727
1474.81	38.0892
1476.38	37.4475
1477.94	36.7709
1479.51	35.0639
1481.07	32.8087
1482.63	32.6647
1484.2	32.0868
1485.76	31.8806
1487.32	30.9323
1488.88	29.3166
1490.45	28.5247
1492.01	26.9882
1493.57	25.8596
1495.13	24.4624
1496.69	22.6418
1498.25	21.6681
1499.81	20.8448
1501.37	20.2536
1502.93	19.0027
1504.49	18.6683
1506.05	17.8731
1507.61	16.8225
1509.17	16.1859
1510.73	15.0576
1512.28	14.3535
1513.84	13.0963
1515.4	13.0359
1516.96	12.6699
1518.51	12.6352
1520.07	12.5073
1521.63	12.6733
1523.18	12.6065
1524.74	11.7516
1526.29	10.9211
1527.85	11.189
1529.4	10.5906
1530.96	9.67407
1532.51	9.36435
1534.06	9.5976
1535.62	10.1751
1537.17	10.349
1538.72	10.2196
1540.28	10.8966
1541.83	11.973
1543.38	12.2698
1544.93	12.415
1546.48	12.4896
1548.03	11.8633
1549.59	12.2553
1551.14	12.5238
1552.69	13.4687
1554.24	14.4034
1555.79	14.4012
1557.34	15.0817
1558.88	15.4295
1560.43	15.8807
1561.98	15.9594
1563.53	15.7836
1565.08	15.2179
1566.62	14.1775
1568.17	14.2822
1569.72	14.0367
1571.27	14.4022
1572.81	15.2514
1574.36	16.0652
1575.9	16.7415
1577.45	17.3389
1579	17.663
1580.54	18.9356
1582.09	19.6591
1583.63	19.5934
1585.17	19.9261
1586.72	20.3337
1588.26	20.3841
1589.8	20.8111
1591.35	21.6818
1592.89	22.9822
1594.43	23.8043
1595.97	24.6657
1597.52	25.6414
1599.06	26.2402
1600.6	26.2202
1602.14	26.1202
1603.68	26.8478
1605.22	27.1819
1606.76	27.1577
1608.3	28.0229
1609.84	28.2474
1611.38	29.7752
1612.92	29.9754
1614.46	29.5634
1615.99	30.1542
1617.53	30.6907
1619.07	31.0935
1620.61	30.1575
1622.14	30.7637
1623.68	31.1601
1625.22	31.5056
1626.75	32.0653
1628.29	31.7114
1629.82	31.3194
1631.36	30.7098
1632.9	29.7346
1634.43	29.3016
1635.96	28.8269
1637.5	29.0257
1639.03	29.8599
1640.57	29.824
1642.1	29.0834
1643.63	29.0624
1645.16	29.7124
1646.7	29.2342
1648.23	29.8046
1649.76	30.2479
1651.29	29.8128
1652.82	28.9584
1654.36	28.5522
1655.89	29.1927
1657.42	29.4184
1658.95	27.8378
1660.48	27.8377
1662.01	28.5452
1663.53	27.6471
1665.06	27.1097
1666.59	27.0096
1668.12	27.0559
1669.65	26.0384
1671.18	25.0474
1672.7	24.5464
1674.23	24.2768
1675.76	23.1222
1677.29	21.9721
1678.81	21.6682
1680.34	22.2436
1681.86	21.2183
1683.39	20.2085
1684.91	19.134
1686.44	18.2487
1687.96	18.3183
1689.49	16.6322
1691.01	15.9554
1692.54	15.5456
1694.06	14.3978
1695.58	12.8834
1697.11	11.8122
1698.63	11.0721
1700.15	9.72919
1701.67	8.63406
1703.2	7.0501
1704.72	5.94179
1706.24	6.12451
1707.76	5.57225
1709.28	5.16158
1710.8	4.82135
1712.32	4.28464
1713.84	4.17152
1715.36	3.33812
1716.88	2.11099
1718.4	0.87294
1719.91	1.15633
1721.43	0.414312
1722.95	-0.367379
1724.47	-0.227019
1725.99	-0.741727
1727.5	-0.16753
1729.02	0.22159
1730.54	0.803715
1732.05	1.37125
1733.57	0.579554
1735.09	0.185202
1736.6	0.228254
1738.12	-0.119993
1739.63	-1.48235
1741.15	-0.539747
1742.66	0.129603
1744.18	-0.125199
1745.69	0.0023047
1747.2	1.01103
1748.72	1.7386
1750.23	1.60105
1751.74	1.84124
1753.25	2.39586
1754.77	3.20029
1756.28	3.6191
1757.79	2.96889
1759.3	3.22532
1760.81	3.54544
1762.32	3.90628
1763.83	3.90368
1765.34	4.00054
1766.85	3.77122
1768.36	3.5848
1769.87	3.09132
1771.38	3.63318
1772.89	3.90947
1774.4	3.80888
1775.91	4.40616
1777.41	4.16076
1778.92	3.78286
1780.43	4.37169
1781.94	4.23952
1783.44	3.8654
1784.95	3.33898
1786.45	2.87668
1787.96	2.70054
1789.47	2.84433
1790.97	2.28187
1792.47	1.88433
1793.98	2.17855
1795.48	2.36381
1796.99	2.47068
1798.49	2.33051
1800	2.77487
1801.5	3.22937
1803	2.99948
1804.51	2.6273
1806.01	2.71194
1807.51	3.24173
1809.01	3.02954
1810.51	3.36399
1812.02	3.41098
1813.52	4.25638
1815.02	4.141
1816.52	4.73441
1818.02	4.62034
1819.52	4.95367
1821.02	5.51708
1822.52	5.73168
1824.02	5.44058
1825.51	5.18608
1827.01	5.66764
1828.51	6.11455
1830.01	6.01218
1831.51	6.04413
1833	5.59018
1834.5	5.83159
1836	5.90859
1837.49	5.01535
1838.99	5.17907
1840.49	4.99776
1841.98	4.67387
1843.48	4.21497
1844.97	4.86434
1846.47	5.47493
1847.96	5.07387
1849.46	4.43747
1850.95	4.73389
1852.45	4.29376
1853.94	4.26372
1855.43	3.92803
1856.92	3.03971
1858.42	3.22977
1859.91	2.89027
1861.4	2.80983
1862.89	3.14822
1864.39	2.25596
1865.88	1.77981
1867.37	1.94451
1868.86	2.58125
1870.35	2.78857
1871.84	3.21891
1873.33	3.14759
1874.82	3.90197
1876.31	4.50434
1877.8	5.07355
1879.29	5.92093
1880.77	5.73304
1882.26	5.56554
1882.52	4.99468
1884.02	5.10825
1885.51	4.79084
1887.01	4.43644
1888.5	4.40232
1889.99	4.35281
1891.49	5.44225
1892.98	5.33904
1894.47	4.73601
1895.96	4.68456
1897.46	4.95002
1898.95	5.16648
1900.44	5.19737
1901.93	5.56418
1903.42	4.84217
1904.91	5.32692
1906.4	5.67141
1907.89	5.65538
1909.38	6.1727
1910.87	6.0121
1912.36	6.27183
1913.85	6.44599
1915.34	6.69406
1916.83	7.01995
1918.32	7.83975
1919.8	7.41972
1921.29	7.48178
1922.78	7.59147
1924.27	8.00394
1925.75	7.87233
1927.24	7.99189
1928.73	7.69152
1930.21	7.89233
1931.7	8.20711
1933.18	8.58195
1934.67	8.89095
1936.15	9.26919
1937.64	8.03303
1939.12	8.76421
1940.61	8.70214
1942.09	8.97816
1943.57	8.64678
1945.06	9.21703
1946.54	9.29499
1948.02	9.56477
1949.51	9.61397
1950.99	9.81026
1952.47	9.08075
1953.95	8.62996
1955.43	8.69308
1956.91	8.33143
1958.39	8.56799
1959.87	8.42496
1961.36	8.53961
1962.84	8.84299
1964.32	8.8402
1965.79	9.02877
1967.27	8.62348
1968.75	8.26118
1970.23	8.53641
1971.71	9.06121
1973.19	8.46392
1974.66	7.81191
1976.14	7.80446
1977.62	7.73585
1979.1	7.87638
1980.57	8.17561
1982.05	8.21423
1983.53	8.44725
1985	7.62578
1986.48	7.56854
1987.95	8.31692
1989.43	8.35565
1990.9	8.42764
1992.38	8.34168
1993.85	7.95207
1995.33	8.36699
1996.8	7.5049
1998.27	7.17772
1999.75	7.0584
2001.22	6.31993
2002.69	5.78651
2004.16	5.81914
2005.64	5.73204
2007.11	5.70142
2008.58	4.58823
2010.05	4.07
2011.52	3.32064
2012.99	3.86359
2014.46	3.88806
2015.93	4.83505
2017.4	4.87065
2018.87	6.10219
2020.34	6.01726
2021.81	6.20768
2023.28	7.11301
2024.75	7.9751
2026.22	7.39147
2027.69	7.71737
2029.15	8.06273
2030.62	8.60184
2032.09	9.06477
2033.56	9.74116
2035.02	10.0348
2036.49	9.87182
2037.95	10.0163
2039.42	9.66359
2040.89	9.8441
2042.35	9.49142
2043.82	10.1102
2045.28	10.4468
2046.75	10.1248
2048.21	10.4556
2049.67	10.4007
2051.14	10.9766
2052.6	10.8408
2054.06	11.082
2055.53	10.9176
2056.99	10.7379
2058.45	10.9413
2059.92	11.1913
2061.38	11.0871
2062.84	10.6853
2064.3	9.98218
2065.76	8.87256
2067.22	8.25079
2068.68	8.45603
2070.14	8.26488
2071.6	8.31266
2073.06	8.04412
2074.52	7.50393
2075.98	7.80773
2077.44	7.39768
2078.9	7.39295
2080.36	7.74413
2081.82	8.25145
2083.27	8.40785
2084.73	8.71772
2086.19	9.91864
2087.65	10.5287
2089.1	10.5198
2090.56	11.1244
2092.01	12.4161
2093.47	12.2561
2094.93	12.8291
2096.38	13.8399
2097.84	14.2015
2099.29	13.761
2100.75	14.6197
2102.2	14.9019
2103.66	14.7187
2105.11	14.9764
2106.56	14.8986
2108.02	14.6695
2109.47	14.1253
2110.92	14.3708
2112.37	14.2747
2113.83	14.5113
2115.28	15.0178
2116.73	14.9816
2118.18	14.6313
2119.63	14.8162
2121.09	14.8083
2122.54	14.8999
2123.99	15.1367
2125.44	14.5363
2126.89	15.0311
2128.34	14.5393
2129.79	15.0539
