#Acq. time (s)=	45
#Accumulations=	2
#Range (cm-¹)=	200...3150
#Windows=	2
#Auto scanning=	Off
#Autofocus=	Off
#Macrospot=	Off
#AutoExposure=	Off
#Spike filter=	Multiple accum.
#Delay time (s)=	0
#Binning=	1
#Readout mode=	Signal
#DeNoise=	Off
#ICS correction=	On
#Dark correction=	Off
#Inst. Process=	Off
#Detector Gain=	Best Dynamic Range
#Detector ADC=	20 kHz       
#Detector temperature (°C)=	-70.08
#Instrument=	LabRAM HR Evol
#Detector=	Synapse
#Objective=	x100
#Grating=	600 gr/mm
#ND Filter=	100%
#Laser (nm)=	532 
#Hole=	100.021
#Range=	Auto
#Laser Pol.=	No
#Raman. Pol.=	No
#Laser Pol. (°)=	-0.0007625
#Raman Pol. (°)=	89.9995
#Collection=	Microscope
#StageXY=	Marzhauser
#StageZ=	Marzhauser
#X (µm)=	-598.7
#Y (µm)=	-1602.5
#Z (µm)=	89.6
#Full time(mm:ss)=	3:18
#Project=	
#Sample=	
#Site=	
#Title=	Mb_10_14_30_2x_45s_532 nm_x100_100%_600 gr_mm
#Remark=	
#Date=	11.07.2022 10:45
#Acquired=	11.07.2022 10:45:44
#Base:Fit=	10.08.2022 10:21:11
#Base:Sub=	10.08.2022 10:21:41
#Filter:Polynom=	16.08.2022 10:17:53
#AxisType[0]=Intens
#AxisUnit[0]=Cnt
#AxisType[1]=Spectr
#AxisUnit[1]=1/cm
200.388	8.59861
202.204	6.68933
204.019	6.075
205.832	6.3909
207.646	6.72337
209.459	7.43997
211.274	8.40702
213.087	9.19807
214.899	9.82158
216.711	9.95886
218.524	9.64788
220.335	10.6657
222.146	11.148
223.956	11.6928
225.766	11.7906
227.576	10.4823
229.388	11.0211
231.197	10.3897
233.005	10.3663
234.813	9.76153
236.621	9.34846
238.429	8.4979
240.236	9.20995
242.045	9.53227
243.852	9.4417
245.658	9.47085
247.464	9.83176
249.269	8.75728
251.074	9.08437
252.879	8.79873
254.683	8.56978
256.487	8.57776
258.291	9.03896
260.094	9.22373
261.897	9.98354
263.702	9.57281
265.504	9.70472
267.306	9.72241
269.108	10.5151
270.909	10.8948
272.71	10.0618
274.511	9.54474
276.311	9.07906
278.111	8.26936
279.91	8.12906
281.709	7.30785
283.508	8.17495
285.306	8.75637
287.105	8.57904
288.9	9.45347
290.698	9.10892
292.495	9.41382
294.291	9.91447
296.088	10.3188
297.884	10.8198
299.679	10.5702
301.475	10.7946
303.27	10.9403
305.064	11.0436
306.858	11.0985
308.652	11.7543
310.444	13.2384
312.237	13.4285
314.03	13.2507
315.822	12.7924
317.615	12.2787
319.406	13.1741
321.198	13.1322
322.987	13.6687
324.778	13.3662
326.568	13.485
328.358	13.7289
330.148	14.2929
331.935	13.7908
333.724	13.7632
335.513	13.7344
337.301	13.903
339.089	12.7883
340.875	13.8891
342.662	12.2876
344.449	11.1024
346.236	9.95161
348.02	9.80533
349.806	8.21076
351.592	8.29931
353.375	8.08636
355.16	8.26616
356.944	7.78905
358.728	7.65867
360.51	6.46651
362.294	4.74009
364.077	4.62986
365.858	4.00843
367.64	3.9216
369.422	4.6445
371.202	3.92934
372.983	4.08472
374.764	2.96253
376.543	2.23592
378.324	3.3068
380.102	3.39765
381.881	3.93419
383.661	4.82451
385.438	4.52511
387.216	5.00422
388.993	4.91944
390.771	5.41043
392.548	6.00869
394.324	6.15911
396.101	7.00158
397.875	7.0986
399.651	7.85048
401.425	7.56899
403.201	7.67914
404.974	8.20906
406.749	9.01541
408.524	10.0883
410.296	10.4226
412.07	9.91811
413.841	9.25659
415.614	9.46656
417.385	9.44334
419.156	9.41893
420.928	9.6637
422.698	9.73739
424.469	9.02956
426.238	8.86549
428.009	8.04867
429.777	6.91818
431.548	5.89413
433.315	5.3162
435.083	5.25248
436.852	5.1282
438.618	5.03551
440.387	5.64681
442.153	5.64568
443.919	5.51127
445.686	5.30214
447.451	5.58169
449.218	5.06251
450.982	5.67432
452.746	6.128
454.512	6.1755
456.275	6.61675
458.038	5.94127
459.803	6.1851
461.565	6.83577
463.327	6.93927
465.091	8.62638
466.852	9.34179
468.613	9.25376
470.374	10.2521
472.136	11.1228
473.896	11.4003
475.655	11.6012
477.415	11.6933
479.176	13.2042
480.934	14.9189
482.692	15.6343
484.45	16.3585
486.21	16.9007
487.967	17.7355
489.724	18.8377
491.481	19.6635
493.237	19.917
494.995	20.1136
496.75	20.4512
498.506	20.2783
500.26	20.8886
502.015	22.2552
503.769	22.8908
505.525	22.1174
507.279	22.3103
509.032	21.7324
510.785	20.6664
512.537	20.2598
514.289	19.8092
516.041	19.4955
517.793	18.9076
519.546	19.1086
521.297	17.938
523.047	17.5422
524.797	16.9822
526.547	16.6516
528.297	16.3879
530.046	16.8028
531.795	15.7278
533.543	14.8829
535.291	14.6911
537.039	14.8478
538.787	14.7674
540.534	13.9176
542.281	14.2795
544.027	14.1181
545.773	13.107
547.519	14.052
549.264	13.975
551.01	13.8562
552.754	14.4822
554.499	13.6655
556.243	13.9959
557.987	14.7479
559.73	15.0065
561.474	15.3936
563.216	15.8138
564.959	16.3525
566.701	16.9869
568.441	16.9523
570.182	15.3528
571.923	14.8101
573.664	14.3132
575.405	13.6202
577.145	14.2907
578.885	14.0329
580.624	14.6901
582.361	14.982
584.1	14.7728
585.839	14.6141
587.577	14.3903
589.315	13.6448
591.052	12.2473
592.787	11.3279
594.524	10.1752
596.26	9.29247
597.997	8.57332
599.732	8.85538
601.466	8.06428
603.201	8.10353
604.936	7.04754
606.67	6.80398
608.403	6.53145
610.136	6.26083
611.87	6.24698
613.603	6.2798
615.334	7.02318
617.067	6.27615
618.799	5.60198
620.529	6.47881
622.26	6.90393
623.991	6.98599
625.72	8.0088
627.451	8.45262
629.181	9.21476
630.909	8.84467
632.638	9.91624
634.368	12.0245
636.095	12.0582
637.823	13.1065
639.551	14.0916
641.277	15.0341
643.005	16.8162
644.73	17.5747
646.457	18.9796
648.184	19.4505
649.908	19.472
651.634	19.7029
653.357	20.1934
655.083	20.283
656.806	20.7369
658.53	21.8196
660.253	22.5641
661.977	23.1883
663.7	24.3293
665.422	24.6729
667.145	25.3469
668.865	25.4222
670.588	25.3765
672.308	25.9989
674.027	26.6307
675.749	26.9315
677.468	27.2664
679.188	27.3647
680.907	27.2979
682.627	28.6738
684.345	29.6418
686.064	30.6532
687.781	31.1446
689.498	32.4799
691.216	32.8105
692.932	33.7744
694.65	34.4775
696.366	35.6567
698.081	36.8724
699.797	38.0384
701.512	38.4733
703.228	38.2635
704.942	39.1105
706.655	39.5729
708.371	39.8245
710.083	40.5239
711.796	41.9867
713.51	41.8555
715.222	41.7058
716.934	41.7711
718.645	42.9217
720.358	41.7878
722.068	41.9602
723.779	42.1153
725.49	42.3634
727.2	42.5806
728.909	42.8123
730.618	43.3908
732.329	44.3337
734.037	44.2087
735.745	44.099
737.453	43.6136
739.16	43.967
740.869	44.9259
742.576	46.0559
744.282	47.4228
745.988	48.4671
747.694	49.9805
749.401	51.6493
751.107	52.9602
752.811	53.993
754.516	54.7069
756.22	54.7417
757.924	54.6905
759.627	55.5831
761.332	57.4131
763.035	59.1599
764.738	60.1965
766.44	62.5011
768.142	63.9678
769.843	66.8622
771.544	68.5066
773.245	70.1975
774.946	71.5501
776.646	73.5184
778.346	75.0713
780.046	76.6652
781.745	77.4998
783.444	77.8697
785.143	78.5943
786.841	79.0899
788.539	79.5267
790.237	80.9841
791.934	82.2648
793.631	83.5365
795.328	84.437
797.024	84.7559
798.72	85.6426
800.416	85.9139
802.112	86.5201
803.807	86.8385
805.502	87.0152
807.196	88.4886
808.89	88.2513
810.584	89.2735
812.278	89.5376
813.971	89.8359
815.664	89.4421
817.354	88.3688
819.047	89.013
820.739	89.5569
822.43	89.5038
824.122	90.4907
825.813	91.131
827.503	90.5223
829.192	90.5072
830.882	88.6684
832.571	87.6182
834.261	86.9361
835.95	85.5199
837.637	84.0424
839.325	82.7908
841.013	80.8323
842.701	79.993
844.389	80.4601
846.074	79.9584
847.761	77.2076
849.447	76.2158
851.131	75.1605
852.817	73.5617
854.503	72.9061
856.188	70.6051
857.871	69.0877
859.556	68.1335
861.24	67.4398
862.922	65.6578
864.606	65.2725
866.289	64.5041
867.97	64.5025
869.653	64.0667
871.336	63.7731
873.016	63.3167
874.698	63.4707
876.379	62.8391
878.058	62.0781
879.739	61.0261
881.418	61.3309
883.098	61.8279
884.778	61.5707
886.456	61.6301
888.135	60.896
889.812	61.1477
891.49	60.3239
893.167	60.2132
894.845	59.5153
896.523	59.2624
898.198	59.5977
899.875	59.458
901.55	59.8478
903.226	60.7063
904.901	60.5271
906.576	59.7517
908.25	59.4829
909.925	59.4418
911.598	58.5579
913.271	59.8623
914.945	59.7862
916.617	59.8726
918.291	60.7681
919.962	59.3468
921.635	58.4561
923.306	57.6759
924.978	57.0149
926.648	57.2
928.318	55.9744
929.989	54.7155
931.659	53.6682
933.328	52.9187
934.998	52.5541
936.666	53.2428
938.336	52.321
940.004	50.8022
941.671	49.9638
943.34	50.0345
945.007	49.1451
946.673	49.0684
948.339	48.7696
950.007	48.3086
951.672	48.3449
953.337	48.0904
955.004	47.8
956.669	48.0236
958.333	46.4734
959.997	44.2538
961.662	44.0326
963.326	44.4303
964.989	45.3667
966.651	45.1808
968.315	45.1188
969.977	45.2538
971.639	44.7624
973.301	45.4102
974.962	44.897
976.624	45.062
978.285	45.3421
979.945	46.414
981.605	46.5306
983.264	45.5371
984.924	45.7256
986.583	45.8625
988.243	45.8521
989.901	45.3528
991.56	45.7653
993.217	46.2309
994.875	46.0765
996.532	45.9477
998.188	44.758
999.845	43.8702
1001.5	43.2758
1003.16	41.6796
1004.81	40.8701
1006.47	39.8583
1008.12	39.4787
1009.78	38.4795
1011.43	37.6013
1013.09	36.6766
1014.74	36.0274
1016.39	35.7517
1018.05	35.3823
1019.7	34.2929
1021.35	32.5693
1023	30.1685
1024.65	29.2829
1026.31	28.9961
1027.96	27.8661
1029.61	26.972
1031.26	26.1052
1032.91	25.3596
1034.56	25.4632
1036.21	24.7544
1037.86	22.8125
1039.51	21.3764
1041.16	19.7845
1042.8	20.2247
1044.45	21.3047
1046.1	21.5947
1047.75	20.4099
1049.39	19.5738
1051.04	18.7602
1052.69	18.8599
1054.33	18.6927
1055.98	18.6409
1057.62	18.4869
1059.27	18.1164
1060.91	18.2083
1062.56	18.2319
1064.2	17.6529
1065.85	17.6562
1067.49	17.6849
1069.13	17.7182
1070.77	17.3758
1072.42	17.5392
1074.06	17.7934
1075.7	16.5034
1077.34	16.8198
1078.98	16.5144
1080.62	17.3757
1082.27	17.0559
1083.91	16.7471
1085.55	16.8692
1087.18	16.9463
1088.82	17.6435
1090.46	18.3689
1092.1	18.3864
1093.74	18.6196
1095.38	17.9209
1097.02	18.5869
1098.65	17.3612
1100.29	16.0938
1101.93	16.0826
1103.56	15.2919
1105.2	13.7784
1106.84	14.3043
1108.47	14.5776
1110.11	14.5732
1111.74	14.3638
1113.38	14.7872
1115.01	14.3314
1116.64	13.6782
1118.28	12.3319
1119.91	10.4258
1121.54	10.3961
1123.18	9.96919
1124.81	8.72234
1126.44	7.35566
1128.07	6.72088
1129.7	5.3042
1131.33	4.98536
1132.97	5.08871
1134.6	5.41686
1136.23	5.54921
1137.86	5.13141
1139.49	5.41344
1141.11	5.6879
1142.74	5.60738
1144.37	5.98921
1146	5.62276
1147.63	5.87202
1149.26	5.48435
1150.88	6.07814
1152.51	6.47318
1154.14	7.40366
1155.76	7.23414
1157.39	7.04664
1159.01	8.0536
1160.64	7.72554
1162.27	7.6074
1163.89	6.49351
1165.51	6.60414
1167.14	6.67656
1168.76	7.51206
1170.39	7.86147
1172.01	7.38038
1173.63	7.93521
1175.25	7.92051
1176.88	7.6951
1178.5	7.73644
1180.12	7.86817
1181.74	8.29671
1183.36	8.7677
1184.98	8.65849
1186.6	8.82183
1188.22	10.6972
1189.84	10.5521
1191.46	11.8575
1193.08	11.4593
1194.7	11.4493
1196.32	11.3535
1197.94	11.1502
1199.55	12.0178
1201.17	11.6221
1202.79	11.9885
1204.41	12.1989
1206.02	12.926
1207.64	13.6874
1209.25	14.7327
1210.87	16.1745
1212.48	16.9998
1214.1	19.0614
1215.71	19.9162
1217.33	21.3764
1218.94	21.939
1220.56	22.2957
1222.17	22.8497
1223.79	23.3596
1225.4	23.6683
1227.01	24.2187
1228.62	25.4922
1230.23	25.8378
1231.85	27.4253
1233.46	27.9184
1235.07	27.3427
1236.68	27.4913
1238.29	28.6069
1239.9	29.3392
1241.51	30.0493
1243.12	29.9991
1244.73	31.3355
1246.34	32.103
1247.94	32.7575
1249.55	33.7606
1251.16	33.9166
1252.77	34.8394
1254.37	36.2968
1255.98	37.1142
1257.59	37.2607
1259.2	37.8642
1260.8	38.266
1262.41	37.7885
1264.01	38.7924
1265.62	40.1973
1267.22	41.1216
1268.83	41.6276
1270.43	40.7408
1272.03	42.2621
1273.64	41.8481
1275.24	43.1177
1276.85	43.4185
1278.45	44.3518
1280.05	44.7954
1281.65	45.0792
1283.25	46.0313
1284.85	47.2641
1286.46	48.0372
1288.06	49.4609
1289.66	51.1094
1291.26	51.5389
1292.86	51.4405
1294.46	52.025
1296.06	51.5182
1297.66	52.3179
1299.25	52.1863
1300.85	51.6883
1302.45	51.6042
1304.05	50.9817
1305.65	50.133
1307.24	51.3448
1308.84	51.7068
1310.43	51.3562
1312.03	51.5453
1313.63	51.2605
1315.22	51.341
1316.82	52.8218
1318.41	52.7905
1320.01	52.976
1321.6	53.1205
1323.2	52.8573
1324.79	52.8759
1326.38	52.0656
1327.98	52.3245
1329.57	51.8698
1331.16	51.8155
1332.76	51.5915
1334.35	51.2043
1335.94	49.5485
1337.53	48.3392
1339.12	47.7279
1340.71	46.3699
1342.3	45.295
1343.89	45.5458
1345.48	44.6637
1347.07	43.2478
1348.66	42.8079
1350.25	41.9242
1351.84	41.8841
1353.43	40.6572
1355.01	40.2426
1356.6	39.1007
1358.19	38.1344
1359.77	36.7063
1361.36	37.1028
1362.95	35.9793
1364.53	35.4718
1366.12	35.2886
1367.71	34.8132
1369.29	33.19
1370.88	30.7162
1372.46	30.1833
1374.04	29.0345
1375.63	28.2769
1377.21	27.2683
1378.8	25.2547
1380.38	23.7136
1381.96	22.98
1383.54	22.7139
1385.13	22.3239
1386.71	21.9835
1388.29	20.9877
1389.87	20.208
1391.45	20.3186
1393.03	20.3331
1394.61	20.4002
1396.19	20.2645
1397.77	20.054
1399.35	20.8546
1400.93	20.3676
1402.51	20.6197
1404.09	20.8547
1405.67	21.2712
1407.24	21.4831
1408.82	21.9344
1410.4	22.3588
1411.98	22.7595
1413.55	23.9015
1415.13	24.7138
1416.71	26.7516
1418.28	27.7226
1419.86	28.9708
1421.43	31.4035
1423.01	33.6912
1424.58	35.5042
1426.16	37.5117
1427.73	38.9474
1429.31	40.4748
1430.88	42.4831
1432.45	44.065
1434.02	45.8179
1435.6	47.5851
1437.17	49.6211
1438.74	51.7674
1440.31	52.8978
1441.88	52.2998
1443.45	53.2606
1445.03	53.5684
1446.6	53.6798
1448.17	54.1498
1449.74	53.5141
1451.3	53.6716
1452.87	53.0589
1454.44	53.0643
1456.01	52.2593
1457.58	51.9049
1459.15	51.7195
1460.72	50.7335
1462.28	49.9513
1463.85	48.0433
1465.42	46.6406
1466.98	44.7067
1468.55	43.5759
1470.12	42.5214
1471.68	40.1706
1473.25	38.5453
1474.81	36.7478
1476.38	35.6983
1477.94	33.6371
1479.51	32.1457
1481.07	30.5977
1482.63	28.1004
1484.2	26.2752
1485.76	24.8957
1487.32	23.2458
1488.88	21.6883
1490.45	20.9435
1492.01	19.4894
1493.57	17.8872
1495.13	16.8737
1496.69	15.5319
1498.25	15.0815
1499.81	14.3477
1501.37	13.278
1502.93	12.917
1504.49	11.7524
1506.05	10.4591
1507.61	10.1204
1509.17	9.29759
1510.73	8.60509
1512.28	7.27789
1513.84	7.31557
1515.4	6.81557
1516.96	5.5979
1518.51	3.60116
1520.07	2.64182
1521.63	3.5065
1523.18	3.58737
1524.74	3.47933
1526.29	3.46238
1527.85	2.69548
1529.4	3.58705
1530.96	4.51838
1532.51	5.11297
1534.06	5.40579
1535.62	6.30331
1537.17	6.83474
1538.72	7.16597
1540.28	7.70069
1541.83	7.88959
1543.38	8.25277
1544.93	8.86661
1546.48	10.2069
1548.03	11.1003
1549.59	11.976
1551.14	12.5726
1552.69	13.72
1554.24	14.3655
1555.79	14.5496
1557.34	15.7024
1558.88	15.3762
1560.43	15.5883
1561.98	16.3679
1563.53	16.2522
1565.08	15.6499
1566.62	16.4617
1568.17	16.9186
1569.72	17.1945
1571.27	18.8271
1572.81	19.7412
1574.36	20.159
1575.9	21.4284
1577.45	21.6908
1579	22.352
1580.54	23.2602
1582.09	24.0259
1583.63	24.8405
1585.17	25.5182
1586.72	25.559
1588.26	25.8152
1589.8	26.3639
1591.35	28.0128
1592.89	28.1698
1594.43	27.8367
1595.97	28.0444
1597.52	28.932
1599.06	29.1555
1600.6	28.2852
1602.14	27.9636
1603.68	28.254
1605.22	28.2749
1606.76	28.4808
1608.3	28.2827
1609.84	28.5263
1611.38	29.5158
1612.92	30.4677
1614.46	30.588
1615.99	31.3999
1617.53	31.7393
1619.07	32.1153
1620.61	31.9537
1622.14	32.5571
1623.68	33.9338
1625.22	34.3872
1626.75	34.871
1628.29	34.6736
1629.82	36.6241
1631.36	37.542
1632.9	38.4434
1634.43	39.3569
1635.96	40.5261
1637.5	42.5605
1639.03	44.0264
1640.57	46.0337
1642.1	47.344
1643.63	49.7668
1645.16	51.4968
1646.7	53.5395
1648.23	55.2181
1649.76	56.1364
1651.29	57.4447
1652.82	59.6162
1654.36	60.3222
1655.89	61.8957
1657.42	63.2823
1658.95	63.8068
1660.48	64.0206
1662.01	63.9417
1663.53	63.5552
1665.06	63.007
1666.59	63.0725
1668.12	62.1152
1669.65	60.8606
1671.18	59.3012
1672.7	57.8589
1674.23	55.7622
1675.76	53.404
1677.29	52.2542
1678.81	50.2548
1680.34	48.9236
1681.86	47.5802
1683.39	45.8667
1684.91	43.9491
1686.44	41.9187
1687.96	40.0806
1689.49	36.8788
1691.01	34.376
1692.54	32.7003
1694.06	29.4541
1695.58	27.4632
1697.11	25.5628
1698.63	23.3287
1700.15	21.9074
1701.67	19.8593
1703.2	18.244
1704.72	16.549
1706.24	15.5248
1707.76	13.2472
1709.28	11.5459
1710.8	10.483
1712.32	10.0683
1713.84	9.19438
1715.36	7.63063
1716.88	7.10559
1718.4	5.64653
1719.91	5.91751
1721.43	5.32881
1722.95	4.78931
1724.47	4.16377
1725.99	4.13274
1727.5	3.86406
1729.02	3.72492
1730.54	3.19059
1732.05	3.41994
1733.57	2.99047
1735.09	2.54332
1736.6	2.33117
1738.12	1.59213
1739.63	1.06694
1741.15	1.20422
1742.66	1.67411
1744.18	1.17597
1745.69	1.6683
1747.2	1.83787
1748.72	1.96938
1750.23	2.05768
1751.74	2.55269
1753.25	3.15692
1754.77	2.91277
1756.28	3.71148
1757.79	3.46769
1759.3	2.65994
1760.81	1.92858
1762.32	1.55018
1763.83	1.46927
1765.34	1.14996
1766.85	1.85032
1768.36	2.06468
1769.87	1.53551
1771.38	2.26596
1772.89	2.1798
1774.4	1.46684
1775.91	1.94472
1777.41	1.38789
1778.92	0.603655
1780.43	0.940119
1781.94	0.624467
1783.44	0.342903
1784.95	0.550923
1786.45	1.05269
1787.96	1.18047
1789.47	1.11935
1790.97	1.28495
1792.47	1.5712
1793.98	1.20009
1795.48	1.55286
1796.99	1.63335
1798.49	2.06135
1800	2.49892
1801.5	2.57693
1803	2.52485
1804.51	3.00305
1806.01	3.24933
1807.51	3.21943
1809.01	3.19268
1810.51	3.07063
1812.02	2.66406
1813.52	2.44614
1815.02	2.38065
1816.52	2.23233
1818.02	2.74041
1819.52	2.7548
1821.02	3.02636
1822.52	2.75049
1824.02	2.47186
1825.51	2.87401
1827.01	2.98758
1828.51	2.45841
1830.01	2.59959
1831.51	2.73048
1833	2.45374
1834.5	2.33193
1836	2.72569
1837.49	2.82267
1838.99	3.19608
1840.49	3.55794
1841.98	4.17653
1843.48	4.48284
1844.97	4.4424
1846.47	4.72632
1847.96	4.42424
1849.46	3.96296
1850.95	4.39685
1852.45	4.60116
1853.94	4.61746
1855.43	4.76939
1856.92	4.34135
1858.42	4.4028
1859.91	4.57907
1861.4	4.99658
1862.89	4.83928
1864.39	5.07783
1865.88	5.78475
1867.37	5.37232
1868.86	5.65069
1870.35	6.43345
1871.84	7.04734
1873.33	6.73116
1874.82	6.68156
1876.31	6.78042
1877.8	6.08044
1879.29	5.81745
1880.77	5.36601
1882.26	5.1593
1882.52	4.72192
1884.02	4.83775
1885.51	4.90431
1887.01	4.40625
1888.5	4.49266
1889.99	4.72463
1891.49	5.06629
1892.98	5.04341
1894.47	5.25538
1895.96	5.25768
1897.46	5.77186
1898.95	5.83857
1900.44	5.2056
1901.93	5.1419
1903.42	4.75937
1904.91	4.51516
1906.4	4.25767
1907.89	4.60804
1909.38	5.11546
1910.87	4.92737
1912.36	4.84954
1913.85	4.94326
1915.34	4.81162
1916.83	4.47118
1918.32	4.81651
1919.8	5.14444
1921.29	5.19459
1922.78	5.33528
1924.27	5.44715
1925.75	4.93793
1927.24	4.48468
1928.73	4.87115
1930.21	5.34531
1931.7	5.50678
1933.18	6.07421
1934.67	7.07924
1936.15	7.16553
1937.64	7.2358
1939.12	7.30888
1940.61	7.18231
1942.09	7.52279
1943.57	7.40337
1945.06	7.37291
1946.54	7.27927
1948.02	7.7273
1949.51	7.80482
1950.99	7.83209
1952.47	8.50378
1953.95	8.93015
1955.43	8.74029
1956.91	9.17887
1958.39	9.37492
1959.87	8.93792
1961.36	8.30599
1962.84	9.02808
1964.32	9.40279
1965.79	9.13198
1967.27	9.53908
1968.75	9.12859
1970.23	9.02025
1971.71	8.66155
1973.19	7.58592
1974.66	6.75065
1976.14	6.40856
1977.62	5.62726
1979.1	5.59488
1980.57	5.72068
1982.05	6.06687
1983.53	5.27482
1985	4.72433
1986.48	4.41235
1987.95	4.08213
1989.43	4.17641
1990.9	4.8222
1992.38	5.32531
1993.85	4.82923
1995.33	4.65201
1996.8	4.49461
1998.27	4.83874
1999.75	4.93062
2001.22	4.7815
2002.69	5.13694
2004.16	4.73275
2005.64	4.67778
2007.11	4.81799
2008.58	5.20512
2010.05	4.88446
2011.52	5.11528
2012.99	5.1255
2014.46	5.11407
2015.93	4.88897
2017.4	5.36105
2018.87	6.09086
2020.34	6.90627
2021.81	7.42246
2023.28	7.4842
2024.75	8.10079
2026.22	8.24351
2027.69	8.70037
2029.15	9.01511
2030.62	9.98194
2032.09	9.95147
2033.56	10.2074
2035.02	10.7653
2036.49	11.2218
2037.95	11.1753
2039.42	11.3476
2040.89	11.8862
2042.35	11.2947
2043.82	11.316
2045.28	10.6348
2046.75	9.93732
2048.21	9.76036
2049.67	9.82838
2051.14	9.57442
2052.6	9.6058
2054.06	9.5303
2055.53	9.31858
2056.99	8.68803
2058.45	9.29714
2059.92	9.71573
2061.38	9.52507
2062.84	10.2129
2064.3	10.3775
2065.76	9.98
2067.22	9.76708
2068.68	9.90782
2070.14	9.81304
2071.6	9.59204
2073.06	8.63553
2074.52	8.49809
2075.98	8.5375
2077.44	8.34885
2078.9	8.69431
2080.36	9.14748
2081.82	9.55274
2083.27	9.42976
2084.73	9.46823
2086.19	9.40735
2087.65	9.74043
2089.1	11.1986
2090.56	12.0908
2092.01	12.6073
2093.47	13.7708
2094.93	14.3349
2096.38	14.6181
2097.84	15.2965
2099.29	16.1554
2100.75	17.2622
2102.2	17.7086
2103.66	18.2318
2105.11	18.0514
2106.56	18.5355
2108.02	19.2358
2109.47	18.8428
2110.92	19.4101
2112.37	19.8958
2113.83	19.6535
2115.28	19.4022
2116.73	19.2606
2118.18	18.7649
2119.63	18.6598
2121.09	19.4116
2122.54	19.9392
2123.99	19.6979
2125.44	19.5816
2126.89	19.5476
2128.34	20.1336
2129.79	21.0116
2131.23	21.0328
2132.68	20.6762
2134.13	20.5295
2135.58	21.046
