#Acq. time (s)=	45
#Accumulations=	2
#Range (cm-¹)=	200...3150
#Windows=	2
#Auto scanning=	Off
#Autofocus=	Off
#Macrospot=	Off
#AutoExposure=	Off
#Spike filter=	Multiple accum.
#Delay time (s)=	0
#Binning=	1
#Readout mode=	Signal
#DeNoise=	Off
#ICS correction=	On
#Dark correction=	Off
#Inst. Process=	Off
#Detector Gain=	Best Dynamic Range
#Detector ADC=	20 kHz       
#Detector temperature (°C)=	-70.08
#Instrument=	LabRAM HR Evol
#Detector=	Synapse
#Objective=	x100
#Grating=	600 gr/mm
#ND Filter=	100%
#Laser (nm)=	532 
#Hole=	100.021
#Range=	Auto
#Laser Pol.=	No
#Raman. Pol.=	No
#Laser Pol. (°)=	-0.0007625
#Raman Pol. (°)=	89.9995
#Collection=	Microscope
#StageXY=	Marzhauser
#StageZ=	Marzhauser
#X (µm)=	-2405
#Y (µm)=	2128.3
#Z (µm)=	-40.8
#Full time(mm:ss)=	3:18
#Project=	
#Sample=	
#Site=	
#Title=	Mb_10_14_09_2x_45s_532 nm_x100_100%_600 gr_mm
#Remark=	
#Date=	07.07.2022 14:02
#Acquired=	07.07.2022 14:02:44
#Base:Fit=	10.08.2022 10:21:11
#Base:Sub=	10.08.2022 10:21:41
#Filter:Polynom=	16.08.2022 10:17:53
#AxisType[0]=Intens
#AxisUnit[0]=Cnt
#AxisType[1]=Spectr
#AxisUnit[1]=1/cm
200.43	5.09599
202.246	6.28372
204.061	6.47712
205.875	6.27255
207.688	5.57832
209.501	4.92187
211.316	5.15632
213.129	5.36726
214.941	6.43193
216.753	6.20252
218.566	6.73791
220.377	8.52151
222.188	9.21517
223.999	11.0028
225.809	11.5457
227.618	12.4397
229.43	14.0746
231.239	15.5023
233.047	16.609
234.855	19.1793
236.663	20.2002
238.471	20.3139
240.278	20.2667
242.087	20.1966
243.894	20.8928
245.7	20.1216
247.506	20.1136
249.311	20.494
251.116	20.8282
252.921	19.8599
254.725	20.1795
256.529	19.1572
258.333	18.9694
260.136	18.5856
261.939	17.6732
263.744	19.7241
265.546	18.7658
267.348	17.2863
269.15	17.0659
270.951	15.0714
272.752	14.1443
274.552	12.9301
276.353	11.9411
278.152	11.2596
279.952	9.01894
281.751	8.12748
283.55	8.14604
285.348	7.43174
287.146	6.26317
288.942	4.80196
290.739	3.78613
292.536	3.1378
294.333	2.98619
296.129	3.33485
297.925	4.07717
299.721	5.16369
301.516	5.72473
303.311	5.80216
305.106	7.47429
306.9	7.24787
308.694	7.94488
310.486	8.71462
312.279	8.60885
314.072	9.73127
315.864	9.63919
317.656	10.7455
319.448	11.734
321.24	11.6338
323.029	11.4719
324.819	11.742
326.61	10.1366
328.4	9.4031
330.19	9.80772
331.977	9.88393
333.766	9.653
335.555	8.46826
337.343	8.71756
339.131	8.46587
340.917	7.37231
342.704	7.34732
344.491	8.2608
346.277	8.4963
348.062	8.90701
349.848	9.19031
351.633	9.48283
353.416	11.2846
355.201	10.0154
356.986	10.9778
358.77	11.6992
360.552	11.8358
362.335	13.8975
364.118	14.3741
365.899	15.2045
367.682	16.6806
369.464	18.3905
371.243	19.7695
373.025	21.0481
374.806	22.0155
376.585	23.7017
378.365	24.6094
380.143	25.4195
381.923	27.4554
383.702	29.1762
385.479	30.8805
387.258	32.4864
389.034	33.9946
390.812	34.8527
392.59	35.8905
394.365	36.693
396.142	35.6232
397.916	36.0501
399.693	35.8333
401.467	35.7202
403.242	36.525
405.015	36.0449
406.79	35.9771
408.565	35.1906
410.337	33.8194
412.111	32.711
413.882	31.0726
415.656	30.0378
417.426	28.864
419.197	27.5804
420.969	25.9077
422.739	24.3577
424.51	22.8132
426.279	21.4633
428.05	20.353
429.819	19.0719
431.589	19.1078
433.356	17.8563
435.124	16.2353
436.893	15.0082
438.66	13.2634
440.428	12.3498
442.194	11.461
443.96	9.19735
445.727	9.72633
447.492	8.74955
449.259	8.00649
451.023	8.09606
452.787	7.59444
454.553	8.11899
456.316	8.17633
458.079	7.79753
459.844	8.05596
461.606	9.15838
463.368	8.7825
465.132	9.07858
466.893	9.26292
468.654	9.88783
470.415	11.986
472.177	12.5942
473.937	13.4409
475.696	13.8834
477.456	13.9772
479.217	14.6656
480.975	15.4521
482.733	17.2119
484.491	18.1095
486.251	19.6847
488.008	20.5199
489.765	22.7258
491.522	24.6515
493.278	25.5973
495.036	26.859
496.791	27.7154
498.546	28.8816
500.301	29.3527
502.056	30.8291
503.81	31.686
505.566	32.1322
507.319	33.2876
509.073	34.586
510.825	35.0995
512.578	34.8872
514.33	35.4877
516.082	35.6232
517.833	35.077
519.587	35.7371
521.337	35.0863
523.088	34.0733
524.838	33.0851
526.588	31.4869
528.337	30.5393
530.087	28.8561
531.835	28.4347
533.584	28.3501
535.332	26.169
537.08	25.094
538.827	23.9409
540.574	22.4866
542.321	21.2432
544.068	19.5649
545.814	18.5685
547.56	17.765
549.305	15.0423
551.05	13.5625
552.795	12.4376
554.54	10.8699
556.284	9.9023
558.027	8.41924
559.771	6.73397
561.514	5.25575
563.257	3.87401
564.999	3.60562
566.742	3.39633
568.481	3.16608
570.223	3.20155
571.964	2.17617
573.705	2.22697
575.445	2.30585
577.185	2.38505
578.925	2.31429
580.665	2.06681
582.402	2.38037
584.141	2.51806
585.879	2.86891
587.617	3.21193
589.355	3.99426
591.092	3.67631
592.828	5.14563
594.564	6.2809
596.301	6.6869
598.037	6.62839
599.773	7.34494
601.506	8.76914
603.242	9.08069
604.976	9.86228
606.711	10.6491
608.443	9.872
610.177	10.1284
611.91	10.6652
613.644	11.2166
615.374	12.2157
617.107	12.7769
618.839	14.0567
620.569	14.1405
622.3	13.6456
624.032	13.676
625.761	14.1711
627.491	14.3432
629.221	14.8189
630.949	15.0859
632.679	15.8275
634.408	16.7602
636.135	16.6042
637.863	17.6633
639.592	17.4766
641.318	17.7963
643.045	17.6125
644.77	17.7014
646.497	18.7448
648.224	17.9747
649.948	18.2543
651.674	19.5164
653.398	19.2924
655.123	18.4078
656.846	18.3232
658.57	17.7447
660.293	17.0509
662.017	16.3986
663.738	16.0641
665.462	15.8163
667.185	16.4744
668.905	17.6769
670.628	17.8797
672.348	17.3033
674.067	17.908
675.789	17.6617
677.508	18.0981
679.228	19.0227
680.947	18.7692
682.667	19.0315
684.385	19.8438
686.104	20.91
687.821	22.2849
689.538	22.8741
691.256	23.224
692.972	23.518
694.69	23.2066
696.406	24.3574
698.121	24.5119
699.837	24.6103
701.552	25.2151
703.268	26.4063
704.982	27.0556
706.695	27.8835
708.41	28.5891
710.123	29.0563
711.836	31.4596
713.55	31.8623
715.262	32.2725
716.973	33.593
718.685	34.2538
720.398	35.4095
722.108	35.536
723.818	35.7929
725.53	36.1059
727.24	37.5809
728.949	37.8412
730.658	38.5173
732.369	38.9983
734.077	38.5489
735.785	39.1375
737.493	39.0929
739.2	38.5703
740.909	38.1589
742.616	39.549
744.322	39.8458
746.028	41.5223
747.734	43.1002
749.441	45.5288
751.146	46.4665
752.851	48.32
754.555	49.1178
756.26	49.4003
757.963	50.2557
759.667	52.2373
761.372	52.8903
763.075	54.2651
764.777	55.7667
766.479	57.0165
768.181	59.9583
769.883	61.9727
771.584	64.0131
773.285	65.0532
774.986	65.3862
776.686	66.5503
778.386	67.5656
780.085	67.6205
781.785	69.3671
783.484	69.9173
785.182	71.4615
786.881	72.2823
788.579	72.9756
790.276	73.0706
791.974	73.2856
793.671	72.5852
795.367	72.0827
797.064	72.5673
798.76	72.0561
800.456	72.2543
802.151	72.0067
803.846	72.0726
805.541	72.8124
807.236	72.0289
808.93	71.0343
810.624	71.0581
812.317	71.2643
814.01	70.7762
815.703	70.6336
817.394	70.1746
819.086	70.093
820.778	69.0088
822.47	69.0848
824.161	69.3993
825.852	68.2981
827.543	68.5429
829.231	69.1525
830.921	69.2257
832.611	68.6137
834.3	68.5877
835.989	67.6381
837.676	67.7209
839.364	67.0694
841.053	67.251
842.74	67.7393
844.426	67.1733
846.113	66.9553
847.8	66.5885
849.486	66.2061
851.171	65.3632
852.857	64.4165
854.542	62.8612
856.227	61.684
857.911	59.8843
859.595	59.331
861.279	57.5729
862.961	56.5886
864.645	55.4224
866.329	54.718
868.01	54.2731
869.692	53.6011
871.375	52.4439
873.055	51.684
874.737	51.3143
876.418	51.0169
878.097	51.3331
879.778	51.5605
881.457	51.8359
883.137	51.6251
884.817	50.797
886.495	50.9166
888.174	50.9972
889.851	50.872
891.53	50.1552
893.206	50.5158
894.884	51.8085
896.562	53.013
898.237	52.9368
899.914	51.7712
901.589	51.3759
903.265	51.2848
904.94	51.0345
906.615	51.78
908.289	52.3891
909.964	52.4021
911.637	53.7244
913.31	54.2462
914.984	54.2691
916.656	54.7736
918.33	55.2714
920.001	54.9385
921.674	54.3841
923.345	54.7592
925.015	55.4789
926.687	55.1913
928.357	54.1651
930.028	53.7097
931.698	52.4897
933.366	51.4453
935.037	50.9719
936.705	49.6077
938.373	48.718
940.043	47.792
941.71	46.6224
943.379	45.8553
945.046	44.8338
946.712	44.6651
948.378	44.3453
950.046	43.9743
951.711	43.8009
953.376	42.7379
955.043	41.6541
956.708	40.353
958.372	39.9124
960.036	38.2824
961.701	36.8939
963.364	36.1284
965.027	35.7938
966.69	36.4345
968.354	37.2036
970.016	38.2491
971.678	39.1322
973.339	40.6034
975	41.4529
976.661	42.2605
978.324	43.4179
979.984	43.0661
981.644	42.5387
983.303	43.7616
984.962	45.5366
986.621	45.8425
988.282	46.8751
989.94	46.7181
991.598	47.5931
993.256	47.1649
994.913	46.7607
996.57	47.252
998.227	48.078
999.884	47.7992
1001.54	47.7968
1003.2	48.2377
1004.85	48.0598
1006.51	49.0262
1008.16	48.6703
1009.82	47.5619
1011.47	48.5462
1013.12	49.4086
1014.78	50.5044
1016.43	51.2769
1018.08	52.0836
1019.74	51.9502
1021.39	52.862
1023.04	53.7024
1024.69	53.9115
1026.34	54.4448
1028	54.7101
1029.65	55.0245
1031.3	55.7595
1032.95	54.4621
1034.6	53.8943
1036.25	52.8648
1037.9	51.5506
1039.55	51.0315
1041.19	50.9021
1042.84	50.1132
1044.49	50.9532
1046.14	51.0908
1047.79	51.3925
1049.43	51.397
1051.08	50.3467
1052.73	48.9289
1054.37	47.2931
1056.02	44.6632
1057.66	43.0414
1059.31	40.9215
1060.95	38.4311
1062.6	35.7307
1064.24	33.6333
1065.88	32.8662
1067.53	30.6942
1069.17	28.434
1070.81	26.6165
1072.46	24.35
1074.1	22.5848
1075.74	20.7899
1077.38	19.0692
1079.02	18.5873
1080.66	16.4383
1082.3	15.8348
1083.94	14.7134
1085.58	14.0777
1087.22	13.0256
1088.86	14.292
1090.5	14.962
1092.14	16.7327
1093.78	19.0159
1095.42	19.6908
1097.05	20.7959
1098.69	20.6958
1100.33	22.2639
1101.97	22.3702
1103.6	23.1182
1105.24	23.8691
1106.87	24.6952
1108.51	24.831
1110.15	25.2653
1111.78	25.9721
1113.41	26.3845
1115.05	25.8455
1116.68	25.2095
1118.31	24.6824
1119.95	24.9636
1121.58	25.008
1123.21	24.2081
1124.85	23.0668
1126.48	22.5629
1128.11	21.728
1129.74	21.7184
1131.37	20.0399
1133	19.1363
1134.63	18.1218
1136.26	17.5579
1137.89	16.1413
1139.52	15.3626
1141.15	14.9087
1142.78	13.494
1144.41	12.9497
1146.04	12.5989
1147.66	12.5346
1149.29	10.4686
1150.92	9.3367
1152.55	7.89634
1154.17	5.6582
1155.8	4.75551
1157.43	3.70507
1159.05	2.08345
1160.68	2.88327
1162.3	2.3437
1163.93	2.58352
1165.55	1.78297
1167.17	2.08366
1168.8	2.22104
1170.42	2.4821
1172.05	2.64063
1173.67	2.829
1175.29	3.02191
1176.91	3.48996
1178.54	3.95523
1180.16	3.76508
1181.78	4.90371
1183.4	5.33054
1185.02	5.9582
1186.64	6.50792
1188.26	7.12356
1189.88	7.00345
1191.5	8.82725
1193.12	9.65301
1194.74	10.4016
1196.36	11.8707
1197.97	14.2487
1199.59	16.9911
1201.21	18.4565
1202.83	19.7609
1204.44	21.4621
1206.06	23.6237
1207.68	25.4278
1209.29	28.3978
1210.91	30.5923
1212.52	31.1487
1214.14	33.7802
1215.75	35.8226
1217.37	37.7881
1218.98	39.192
1220.6	41.4051
1222.21	43.0763
1223.82	43.6844
1225.44	44.9445
1227.05	47.1515
1228.66	48.0875
1230.27	47.549
1231.88	48.3759
1233.49	49.1391
1235.1	49.2902
1236.72	50.8891
1238.33	51.6983
1239.94	52.412
1241.55	53.9121
1243.16	53.0077
1244.76	52.7333
1246.37	52.6723
1247.98	52.7136
1249.59	53.4588
1251.2	53.7287
1252.8	54.1843
1254.41	54.0631
1256.02	53.6948
1257.63	52.8395
1259.23	51.3864
1260.84	51.4895
1262.44	51.3481
1264.05	50.6393
1265.66	49.3478
1267.26	49.7137
1268.87	50.5519
1270.47	50.5145
1272.07	51.9148
1273.68	52.4911
1275.28	52.5718
1276.88	53.9442
1278.48	54.825
1280.09	54.3898
1281.69	54.4742
1283.29	55.6771
1284.89	55.8758
1286.49	55.9808
1288.09	57.1622
1289.69	59.1754
1291.3	59.6679
1292.9	61.3403
1294.49	63.0566
1296.09	63.5412
1297.69	64.3103
1299.29	66.0578
1300.89	67.137
1302.49	66.9741
1304.09	68.6738
1305.68	69.1167
1307.28	71.1189
1308.88	71.9071
1310.47	72.8484
1312.07	74.5908
1313.66	76.0798
1315.26	77.0287
1316.86	77.9163
1318.45	78.6075
1320.05	78.9182
1321.64	79.409
1323.23	80.4588
1324.83	81.2819
1326.42	81.9166
1328.01	82.3428
1329.61	82.5656
1331.2	82.1296
1332.79	81.4473
1334.38	80.5309
1335.98	78.7744
1337.57	77.3279
1339.16	75.9656
1340.75	74.9888
1342.34	73.4038
1343.93	72.13
1345.52	71.3904
1347.11	70.0071
1348.7	68.9884
1350.29	66.8332
1351.87	66.0542
1353.46	63.9187
1355.05	61.6488
1356.64	60.1355
1358.23	58.0373
1359.81	56.7378
1361.4	55.5262
1362.99	53.5835
1364.57	51.419
1366.16	49.6732
1367.74	47.8305
1369.33	46.1278
1370.91	44.762
1372.5	43.6515
1374.08	40.9895
1375.67	40.1759
1377.25	39.2566
1378.83	38.3566
1380.42	36.3646
1382	35.2486
1383.58	35.07
1385.16	33.5111
1386.75	34.0628
1388.33	33.4396
1389.91	31.9503
1391.49	31.1395
1393.07	31.6989
1394.65	32.2508
1396.23	30.9964
1397.81	30.8274
1399.39	31.0651
1400.97	30.8174
1402.55	31.599
1404.13	30.9205
1405.7	31.7829
1407.28	33.1305
1408.86	34.9562
1410.44	35.8564
1412.01	37.3274
1413.59	39.3155
1415.17	40.5443
1416.74	42.3708
1418.32	44.9951
1419.89	48.2409
1421.47	52.4411
1423.05	56.1752
1424.62	59.4567
1426.19	63.6394
1427.77	67.612
1429.34	71.1277
1430.92	74.945
1432.49	78.6229
1434.06	81.5797
1435.63	85.1319
1437.2	88.9531
1438.78	92.2659
1440.35	93.8925
1441.92	95.2782
1443.49	96.9866
1445.06	97.9104
1446.63	99.5273
1448.2	100.9
1449.77	101.306
1451.34	101.052
1452.91	100.391
1454.48	99.039
1456.05	98.2168
1457.62	96.997
1459.18	95.7014
1460.75	94.3749
1462.32	91.6353
1463.89	89.3996
1465.45	87.5369
1467.02	85.7029
1468.59	82.5085
1470.15	79.3502
1471.72	76.2855
1473.28	71.9692
1474.85	67.529
1476.41	64.6685
1477.98	60.3028
1479.54	56.3601
1481.11	53.1499
1482.67	50.2166
1484.23	47.8855
1485.8	45.1306
1487.36	41.8125
1488.92	38.4113
1490.48	36.7971
1492.05	34.9008
1493.61	32.3775
1495.17	30.6449
1496.73	29.6495
1498.29	28.4807
1499.85	27.958
1501.41	26.6265
1502.97	25.3394
1504.53	23.9361
1506.09	22.5828
1507.65	21.9005
1509.2	21.4214
1510.76	20.9696
1512.32	19.9035
1513.88	19.27
1515.44	18.7054
1516.99	17.5477
1518.55	16.5306
1520.1	16.3521
1521.66	15.7811
1523.22	15.8794
1524.77	15.5547
1526.33	14.2262
1527.88	13.8982
1529.44	13.1301
1530.99	12.4243
1532.55	11.9162
1534.1	12.6901
1535.65	11.5885
1537.21	11.3372
1538.76	11.3094
1540.31	10.7396
1541.86	11.102
1543.42	11.5017
1544.97	11.6202
1546.52	10.9872
1548.07	11.0913
1549.62	11.5735
1551.17	12.2938
1552.72	13.2402
1554.27	13.1106
1555.82	12.7913
1557.37	13.1215
1558.92	13.7462
1560.47	15.1518
1562.02	15.3988
1563.57	15.6198
1565.11	16.1341
1566.66	18.1043
1568.21	20.1424
1569.75	20.5781
1571.3	20.8455
1572.85	22.0351
1574.39	23.8156
1575.94	26.0633
1577.49	27.4005
1579.03	28.2
1580.58	29.9748
1582.12	30.8911
1583.67	33.5242
1585.21	35.5762
1586.75	37.4196
1588.3	37.8838
1589.84	39.2391
1591.38	40.3438
1592.93	42.222
1594.47	42.7394
1596.01	43.8285
1597.55	44.5042
1599.09	44.7093
1600.63	45.5368
1602.18	45.3643
1603.72	44.9852
1605.26	45.8464
1606.8	45.9843
1608.34	46.7257
1609.87	46.6314
1611.41	47.0504
1612.95	46.9986
1614.49	48.0356
1616.03	48.0223
1617.57	48.306
1619.11	48.9241
1620.64	50.2637
1622.18	51.0855
1623.72	51.92
1625.25	52.7654
1626.79	54.194
1628.32	56.3765
1629.86	57.2519
1631.4	58.3784
1632.93	59.9181
1634.47	61.4446
1636	63.5236
1637.53	64.8622
1639.07	65.5435
1640.6	67.0617
1642.14	69.5508
1643.67	72.2002
1645.2	73.6024
1646.73	74.5441
1648.27	77.0642
1649.8	79.452
1651.33	81.3487
1652.86	82.6342
1654.39	82.8751
1655.92	84.9073
1657.45	86.3069
1658.98	85.8625
1660.51	86.4729
1662.04	85.9809
1663.57	85.0087
1665.1	83.6174
1666.63	82.6254
1668.16	81.0883
1669.69	79.6336
1671.21	77.7718
1672.74	76.145
1674.27	74.2945
1675.79	71.7402
1677.32	69.0226
1678.85	66.0614
1680.37	62.1218
1681.9	59.126
1683.42	56.0224
1684.95	53.2099
1686.47	49.5308
1688	47.5235
1689.52	43.9444
1691.05	40.8592
1692.57	37.9605
1694.1	36.4502
1695.62	33.5413
1697.14	31.421
1698.66	28.4057
1700.19	27.3468
1701.71	25.5446
1703.23	23.8087
1704.75	21.2862
1706.27	18.4384
1707.79	17.2276
1709.32	15.9382
1710.83	14.2554
1712.35	12.2539
1713.88	11.448
1715.39	11.0352
1716.91	10.9359
1718.43	11.6256
1719.95	11.2717
1721.47	10.6106
1722.99	10.1324
1724.5	10.4134
1726.02	10.0452
1727.54	9.91462
1729.06	9.80589
1730.57	10.2388
1732.09	10.2158
1733.61	8.92632
1735.12	7.6213
1736.64	7.83533
1738.15	7.45347
1739.67	7.45054
1741.18	6.57948
1742.7	5.79102
1744.21	5.56752
1745.72	5.43445
1747.24	4.50698
1748.75	3.68301
1750.26	2.74795
1751.78	1.8869
1753.29	2.0605
1754.8	1.89241
1756.31	1.51187
1757.82	2.21457
1759.34	2.62768
1760.85	2.22365
1762.36	2.28462
1763.87	2.52228
1765.38	1.76743
1766.89	2.16888
1768.4	2.75391
1769.91	2.8273
1771.41	2.34968
1772.92	3.14397
1774.43	2.83349
1775.94	3.16584
1777.45	2.52243
1778.96	2.36366
1780.46	2.43805
1781.97	3.11051
1783.48	4.37014
1784.98	4.72319
1786.49	4.70898
1788	5.34784
1789.5	6.28721
1791.01	6.6353
1792.51	6.74995
1794.01	7.05623
1795.52	6.43975
1797.02	6.74402
1798.53	7.04128
1800.03	7.20434
1801.54	7.00979
1803.04	7.08971
1804.54	6.96672
1806.04	6.83852
1807.54	6.15529
1809.05	6.18581
1810.55	6.27873
1812.05	6.2494
1813.55	5.76355
1815.05	5.43501
1816.55	4.52469
1818.05	4.19136
1819.55	4.43857
1821.05	4.21598
1822.55	3.60414
1824.05	4.29963
1825.55	4.62115
1827.05	4.86504
1828.55	5.32198
1830.04	5.48554
1831.54	5.20155
1833.04	5.48671
1834.54	5.21715
1836.03	5.5864
1837.53	6.22444
1839.03	6.05954
1840.52	5.99457
1842.02	6.34648
1843.51	7.06634
1845.01	7.151
1846.5	6.77272
1848	6.57182
1849.49	6.89993
1850.99	6.66847
1852.48	7.24095
1853.97	6.85308
1855.47	7.00816
1856.96	7.02392
1858.45	7.31127
1859.94	6.98247
1861.44	7.22355
1862.93	6.4127
1864.42	5.50779
1865.91	5.17424
1867.4	5.10479
1868.89	5.20541
1870.38	4.70246
1871.87	4.37634
1873.36	3.62952
1874.85	2.85363
1876.34	2.62431
1877.83	2.99649
1879.32	3.32963
1880.81	3.55521
1882.3	3.70626
1882.56	3.57146
1884.06	3.87893
1885.55	3.98483
1887.04	4.17065
1888.54	4.52285
1890.03	4.38433
1891.52	5.34853
1893.02	5.38586
1894.51	5.23521
1896	5.17127
1897.49	5.25957
1898.99	4.81417
1900.48	4.20373
1901.97	4.21328
1903.46	4.23455
1904.95	3.93024
1906.44	4.39665
1907.93	3.96322
1909.42	4.60745
1910.91	4.63507
1912.4	4.84863
1913.89	4.72813
1915.38	5.30543
1916.86	5.96961
1918.35	5.71664
1919.84	5.76334
1921.33	5.86538
1922.82	6.62445
1924.3	6.33185
1925.79	6.40412
1927.28	6.29428
1928.76	6.53052
1930.25	6.59031
1931.74	6.61483
1933.22	6.85196
1934.71	6.87004
1936.19	6.32506
1937.67	7.4777
1939.16	8.8932
1940.64	9.63113
1942.13	9.707
1943.61	9.5925
1945.09	9.8054
1946.58	10.3967
1948.06	10.7561
1949.54	11.4608
1951.03	11.813
1952.51	12.1929
1953.99	11.9039
1955.47	12.2694
1956.95	12.7301
1958.43	12.8866
1959.91	13.1244
1961.39	12.7719
1962.87	13.187
1964.35	12.6599
1965.83	12.309
1967.31	11.483
1968.79	11.2271
1970.27	10.6429
1971.75	10.7418
1973.22	11.3682
1974.7	11.3779
1976.18	11.4296
1977.66	11.6007
1979.13	11.4213
1980.61	11.8754
1982.09	12.2579
1983.56	12.9194
1985.04	12.1922
1986.52	12.0683
1987.99	12.2762
1989.47	12.8241
1990.94	13.4439
1992.41	13.238
1993.89	13.025
1995.36	13.9387
1996.84	14.0381
1998.31	14.7189
1999.78	14.9921
2001.26	15.9794
2002.73	15.8033
2004.2	15.7976
2005.67	16.1385
2007.15	17.0784
2008.62	17.4721
2010.09	18.0268
2011.56	18.7356
2013.03	18.2645
2014.5	17.625
2015.97	17.3467
2017.44	17.0052
2018.91	16.7341
2020.38	16.8229
2021.85	16.2382
2023.32	16.0707
2024.79	15.576
2026.25	16.8671
2027.72	17.0267
2029.19	17.4559
2030.66	17.8017
2032.13	17.4093
2033.59	17.5259
2035.06	17.555
2036.53	17.5414
2037.99	17.4514
2039.46	17.5545
2040.92	17.8255
2042.39	17.8819
2043.85	17.2284
2045.32	17.5863
2046.78	17.3728
2048.25	16.0605
2049.71	15.7406
2051.18	15.6899
2052.64	15.4938
2054.1	15.1579
2055.56	14.7677
2057.03	14.3043
2058.49	13.4721
2059.95	13.6908
2061.42	13.8841
2062.88	14.0352
2064.34	13.7573
2065.8	13.125
2067.26	12.4106
2068.72	12.9531
2070.18	12.3902
2071.64	12.7717
2073.1	12.523
2074.56	12.2232
2076.02	11.7879
2077.48	12.1225
2078.94	12.1762
2080.39	12.644
2081.85	12.2216
2083.31	11.644
2084.77	11.4744
2086.22	11.1992
2087.68	11.4651
2089.14	12.032
2090.6	12.5534
2092.05	13.0136
2093.51	13.4424
2094.96	14.1815
2096.42	15.451
2097.87	15.6645
2099.33	16.9802
2100.78	16.2032
2102.24	16.8486
2103.69	17.1688
2105.15	17.1979
2106.6	18.0918
2108.05	18.7793
2109.51	18.8183
2110.96	19.5961
2112.41	19.5003
2113.86	19.9481
2115.32	20.4801
2116.77	20.6399
2118.22	21.639
2119.67	21.4434
2121.12	21.6874
2122.57	21.8521
2124.02	22.032
2125.47	22.4632
2126.92	22.316
2128.37	22.4246
2129.82	23.3941
2131.27	23.6958
2132.72	24.3241
2134.17	24.588
2135.62	24.5692
2137.06	24.928
2138.51	25.8601
