#Acq. time (s)=	45
#Accumulations=	2
#Range (cm-¹)=	200...3150
#Windows=	2
#Auto scanning=	Off
#Autofocus=	Off
#Macrospot=	Off
#AutoExposure=	Off
#Spike filter=	Multiple accum.
#Delay time (s)=	0
#Binning=	1
#Readout mode=	Signal
#DeNoise=	Off
#ICS correction=	On
#Dark correction=	Off
#Inst. Process=	Off
#Detector Gain=	Best Dynamic Range
#Detector ADC=	20 kHz       
#Detector temperature (°C)=	-69.85
#Instrument=	LabRAM HR Evol
#Detector=	Synapse
#Objective=	x100
#Grating=	600 gr/mm
#ND Filter=	100%
#Laser (nm)=	532 
#Hole=	100.021
#Range=	Auto
#Laser Pol.=	No
#Raman. Pol.=	No
#Laser Pol. (°)=	-0.0007625
#Raman Pol. (°)=	89.9995
#Collection=	Microscope
#StageXY=	Marzhauser
#StageZ=	Marzhauser
#X (µm)=	-628.2
#Y (µm)=	-1697.8
#Z (µm)=	89.1
#Full time(mm:ss)=	3:19
#Project=	
#Sample=	
#Site=	
#Title=	Mb_10_14_45_2x_45s_532 nm_x100_100%_600 gr_mm
#Remark=	
#Date=	11.07.2022 12:04
#Acquired=	11.07.2022 12:04:52
#Base:Fit=	10.08.2022 10:21:11
#Base:Sub=	10.08.2022 10:21:41
#Filter:Polynom=	16.08.2022 10:17:53
#AxisType[0]=Intens
#AxisUnit[0]=Cnt
#AxisType[1]=Spectr
#AxisUnit[1]=1/cm
200.388	24.1407
202.204	22.7335
204.019	19.2268
205.832	16.8437
207.646	14.2542
209.459	11.7121
211.274	9.16408
213.087	7.39044
214.899	6.16459
216.711	5.65252
218.524	5.31377
220.335	6.36694
222.146	6.69843
223.956	6.69804
225.766	7.68624
227.576	9.98709
229.388	11.0661
231.197	11.3253
233.005	12.2539
234.813	13.6792
236.621	14.694
238.429	14.994
240.236	16.1423
242.045	17.1557
243.852	17.399
245.658	17.7676
247.464	18.9643
249.269	19.6008
251.074	20.247
252.879	22.3725
254.683	24.0548
256.487	25.1032
258.291	25.1191
260.094	25.9464
261.897	25.8081
263.702	26.2674
265.504	26.3309
267.306	27.2247
269.108	26.7505
270.909	27.3331
272.71	27.0926
274.511	27.4476
276.311	26.284
278.111	24.6057
279.91	23.9823
281.709	23.5792
283.508	21.6515
285.306	22.0585
287.105	19.2416
288.9	18.0876
290.698	16.2167
292.495	15.0706
294.291	14.1248
296.088	11.9478
297.884	11.1675
299.679	10.3318
301.475	9.28894
303.27	9.56326
305.064	8.61145
306.858	8.36508
308.652	7.87722
310.444	7.27601
312.237	5.64526
314.03	5.3055
315.822	5.59396
317.615	5.485
319.406	4.03778
321.198	2.57455
322.987	1.75723
324.778	1.99868
326.568	0.586014
328.358	-0.452873
330.148	-0.66515
331.935	-1.89226
333.724	-2.33057
335.513	-2.10397
337.301	-1.88452
339.089	-2.76213
340.875	-1.85415
342.662	-0.812137
344.449	0.291426
346.236	1.48523
348.02	2.1435
349.806	5.27356
351.592	7.474
353.375	8.98744
355.16	9.85642
356.944	11.4298
358.728	12.5501
360.51	14.6722
362.294	16.5559
364.077	20.4441
365.858	22.2729
367.64	24.9874
369.422	26.4255
371.202	28.7621
372.983	29.2191
374.764	30.5789
376.543	30.7988
378.324	32.8675
380.102	33.9399
381.881	34.3041
383.661	35.582
385.438	36.2302
387.216	37.6842
388.993	38.265
390.771	39.1351
392.548	39.9634
394.324	39.8182
396.101	40.1397
397.875	39.2535
399.651	38.893
401.425	38.4754
403.201	37.5999
404.974	36.4811
406.749	35.6464
408.524	34.3215
410.296	33.0611
412.07	32.1826
413.841	31.4763
415.614	29.6326
417.385	28.0536
419.156	26.9271
420.928	25.1596
422.698	24.743
424.469	22.8696
426.238	21.4645
428.009	21.1815
429.777	21.4773
431.548	20.6468
433.315	20.5479
435.083	19.0025
436.852	17.7556
438.618	17.0215
440.387	15.5033
442.153	14.049
443.919	13.2737
445.686	12.5941
447.451	12.0773
449.218	12.0766
450.982	11.1924
452.746	11.1771
454.512	10.741
456.275	10.2693
458.038	9.61174
459.803	9.85823
461.565	9.22876
463.327	10.1208
465.091	11.7775
466.852	11.9079
468.613	12.1154
470.374	12.4327
472.136	14.2083
473.896	14.3084
475.655	15.7457
477.415	15.0398
479.176	15.7219
480.934	16.2704
482.692	16.0877
484.45	17.2973
486.21	18.0612
487.967	19.8031
489.724	21.3115
491.481	22.2089
493.237	24.1012
494.995	25.55
496.75	26.6309
498.506	27.6735
500.26	28.011
502.015	28.3102
503.769	29.5849
505.525	29.578
507.279	31.3717
509.032	31.5894
510.785	33.2325
512.537	32.7119
514.289	33.1487
516.041	33.8994
517.793	33.637
519.546	32.5084
521.297	32.1384
523.047	31.3617
524.797	31.7507
526.547	30.9481
528.297	30.6507
530.046	30.1088
531.795	28.728
533.543	27.5689
535.291	26.9496
537.039	25.166
538.787	24.7984
540.534	24.8823
542.281	24.1595
544.027	22.9413
545.773	21.4568
547.519	20.3161
549.264	19.1215
551.01	17.0231
552.754	16.3935
554.499	15.1102
556.243	14.7123
557.987	12.6501
559.73	11.9708
561.474	9.58668
563.216	9.11357
564.959	7.39635
566.701	8.15126
568.441	7.46058
570.182	6.18596
571.923	6.17619
573.664	4.82721
575.405	4.17507
577.145	3.65358
578.885	2.32474
580.624	1.98268
582.361	2.25335
584.1	3.39801
585.839	2.85151
587.577	2.1813
589.315	2.34149
591.052	3.57632
592.787	3.61392
594.524	4.04304
596.26	2.97464
597.997	2.80079
599.732	1.74376
601.466	1.6109
603.201	1.67501
604.936	1.70944
606.67	1.62733
608.403	1.53091
610.136	2.05789
611.87	3.60734
613.603	3.60169
615.334	4.45909
617.067	4.6779
618.799	5.07771
620.529	5.42032
622.26	4.99882
623.991	5.10843
625.72	6.4861
627.451	6.42397
629.181	7.26826
630.909	8.02484
632.638	8.29347
634.368	8.30856
636.095	7.92332
637.823	9.06935
639.551	10.5812
641.277	10.674
643.005	10.8678
644.73	11.6182
646.457	13.3432
648.184	14.1075
649.908	15.9929
651.634	15.8906
653.357	15.1853
655.083	14.5096
656.806	14.4711
658.53	14.6143
660.253	14.5166
661.977	14.6376
663.7	15.9845
665.422	16.6944
667.145	18.051
668.865	19.0424
670.588	19.497
672.308	18.2531
674.027	18.9081
675.749	18.9048
677.468	19.5353
679.188	18.0356
680.907	18.5512
682.627	18.6481
684.345	18.6521
686.064	18.5665
687.781	18.8092
689.498	19.7334
691.216	20.3314
692.932	21.0761
694.65	21.8333
696.366	23.5889
698.081	23.8734
699.797	22.9101
701.512	23.2921
703.228	23.3863
704.942	22.8238
706.655	22.6285
708.371	22.6448
710.083	24.0407
711.796	24.732
713.51	25.2587
715.222	26.364
716.934	26.7055
718.645	26.9811
720.358	26.9272
722.068	28.8913
723.779	31.118
725.49	32.0441
727.2	32.7531
728.909	33.8353
730.618	34.9923
732.329	35.751
734.037	36.0743
735.745	36.2466
737.453	36.0455
739.16	36.286
740.869	37.5048
742.576	37.4881
744.282	37.0318
745.988	38.5304
747.694	39.6162
749.401	41.2519
751.107	43.4482
752.811	44.7585
754.516	44.8429
756.22	46.4992
757.924	46.9902
759.627	47.9509
761.332	48.6496
763.035	49.6308
764.738	50.9268
766.44	52.7424
768.142	52.4773
769.843	52.5046
771.544	52.7065
773.245	53.929
774.946	55.5039
776.646	55.8882
778.346	57.0284
780.046	57.0077
781.745	57.0655
783.444	57.3804
785.143	58.3574
786.841	59.8204
788.539	60.3021
790.237	61.4899
791.934	64.3859
793.631	64.8971
795.328	66.7795
797.024	66.9592
798.72	68.0754
800.416	69.6476
802.112	70.9962
803.807	71.0258
805.502	71.322
807.196	72.9261
808.89	73.8071
810.584	73.3909
812.278	73.405
813.971	74.0717
815.664	74.9313
817.354	74.9462
819.047	76.1726
820.739	76.3174
822.43	76.03
824.122	76.5518
825.813	76.3708
827.503	74.9912
829.192	75.4909
830.882	76.934
832.571	76.9304
834.261	76.7252
835.95	75.5936
837.637	73.7422
839.325	72.7356
841.013	72.0747
842.701	70.855
844.389	69.4651
846.074	68.4208
847.761	66.5147
849.447	65.206
851.131	62.6633
852.817	61.1822
854.503	59.964
856.188	58.3441
857.871	57.5961
859.556	56.6206
861.24	54.2433
862.922	52.8411
864.606	51.8728
866.289	51.3561
867.97	50.7889
869.653	50.3222
871.336	50.1435
873.016	48.9515
874.698	48.2009
876.379	47.6388
878.058	46.1605
879.739	45.1354
881.418	44.4736
883.098	44.3694
884.778	43.2065
886.456	42.74
888.135	40.738
889.812	41.0195
891.49	39.8136
893.167	39.23
894.845	39.4009
896.523	39.6339
898.198	40.0327
899.875	39.4748
901.55	39.1052
903.226	39.7644
904.901	38.5391
906.576	38.7891
908.25	39.048
909.925	37.607
911.598	36.9669
913.271	38.1961
914.945	38.5839
916.617	37.2985
918.291	36.2817
919.962	35.2441
921.635	36.0543
923.306	36.2521
924.978	37.0314
926.648	38.3732
928.318	38.09
929.989	38.9975
931.659	40.4709
933.328	41.9192
934.998	42.3981
936.666	43.2094
938.336	43.5861
940.004	43.555
941.671	43.0266
943.34	43.4163
945.007	43.0166
946.673	43.9245
948.339	44.5173
950.007	45.1454
951.672	45.4116
953.337	46.8022
955.004	47.0474
956.669	46.8556
958.333	46.1548
959.997	45.7789
961.662	45.4224
963.326	45.8031
964.989	48.108
966.651	49.2513
968.315	49.8568
969.977	50.7707
971.639	50.7369
973.301	51.5505
974.962	50.9014
976.624	51.7782
978.285	51.9883
979.945	50.2789
981.605	50.0869
983.264	49.1379
984.924	49.0787
986.583	48.4083
988.243	47.2748
989.901	47.4682
991.56	46.3311
993.217	45.6629
994.875	44.8242
996.532	44.4117
998.188	43.8474
999.845	42.5975
1001.5	43.4941
1003.16	43.3105
1004.81	44.4844
1006.47	45.0796
1008.12	45.5773
1009.78	46.1849
1011.43	45.7686
1013.09	46.6252
1014.74	47.184
1016.39	46.9605
1018.05	46.309
1019.7	46.1853
1021.35	45.3089
1023	45.5063
1024.65	44.5649
1026.31	46.0046
1027.96	45.8531
1029.61	46.5246
1031.26	46.1707
1032.91	47.0244
1034.56	46.969
1036.21	47.0175
1037.86	45.5803
1039.51	44.4904
1041.16	44.2326
1042.8	44.9384
1044.45	45.7638
1046.1	46.8018
1047.75	46.2234
1049.39	45.3227
1051.04	43.2924
1052.69	41.3305
1054.33	38.7179
1055.98	36.2572
1057.62	34.0487
1059.27	32.1446
1060.91	29.5995
1062.56	27.2293
1064.2	25.4408
1065.85	23.2884
1067.49	21.3569
1069.13	19.8123
1070.77	17.6833
1072.42	16.4779
1074.06	15.3464
1075.7	13.8237
1077.34	13.0289
1078.98	13.5592
1080.62	12.6773
1082.27	11.6555
1083.91	11.3157
1085.55	11.2198
1087.18	9.86232
1088.82	10.2573
1090.46	9.9287
1092.1	10.6787
1093.74	11.3921
1095.38	11.9594
1097.02	12.9549
1098.65	13.5988
1100.29	13.7893
1101.93	14.0834
1103.56	13.929
1105.2	14.1182
1106.84	13.7874
1108.47	14.9493
1110.11	15.3855
1111.74	15.4167
1113.38	14.9119
1115.01	14.4612
1116.64	13.3755
1118.28	12.7388
1119.91	12.6517
1121.54	12.5574
1123.18	12.7854
1124.81	11.7897
1126.44	11.8742
1128.07	10.8928
1129.7	9.1841
1131.33	9.24583
1132.97	8.53533
1134.6	8.36495
1136.23	7.91164
1137.86	7.78456
1139.49	7.59064
1141.11	6.44387
1142.74	6.40681
1144.37	7.14728
1146	7.01605
1147.63	7.27495
1149.26	6.48108
1150.88	5.61041
1152.51	4.41601
1154.14	5.15855
1155.76	5.04549
1157.39	3.7509
1159.01	3.48784
1160.64	3.10477
1162.27	1.39699
1163.89	1.43634
1165.51	0.946389
1167.14	0.93148
1168.76	-0.00893196
1170.39	1.65625
1172.01	1.74079
1173.63	3.38187
1175.25	3.34037
1176.88	3.31348
1178.5	3.77789
1180.12	4.26591
1181.74	5.10654
1183.36	5.34826
1184.98	4.95008
1186.6	4.96055
1188.22	4.57958
1189.84	4.24711
1191.46	4.39911
1193.08	4.06795
1194.7	3.85716
1196.32	4.06987
1197.94	4.65041
1199.55	5.3945
1201.17	5.77353
1202.79	6.31213
1204.41	5.97412
1206.02	6.12466
1207.64	6.78727
1209.25	8.50126
1210.87	9.83643
1212.48	12.2488
1214.1	14.2708
1215.71	16.397
1217.33	17.5233
1218.94	18.9336
1220.56	20.5223
1222.17	21.4661
1223.79	23.2877
1225.4	25.293
1227.01	25.2933
1228.62	26.4111
1230.23	27.8693
1231.85	29.4132
1233.46	30.8034
1235.07	32.6705
1236.68	33.9266
1238.29	34.4941
1239.9	35.5598
1241.51	36.7461
1243.12	37.3469
1244.73	38.3647
1246.34	39.5098
1247.94	39.8107
1249.55	40.8741
1251.16	42.1753
1252.77	42.6859
1254.37	43.0357
1255.98	41.5171
1257.59	41.8592
1259.2	41.2474
1260.8	41.048
1262.41	40.8153
1264.01	39.6811
1265.62	38.7534
1267.22	38.1854
1268.83	38.1795
1270.43	38.2005
1272.03	38.5836
1273.64	38.3662
1275.24	38.0202
1276.85	38.0974
1278.45	38.3414
1280.05	37.6684
1281.65	37.8028
1283.25	38.4229
1284.85	38.1842
1286.46	38.8297
1288.06	39.9604
1289.66	42.0585
1291.26	41.919
1292.86	43.8081
1294.46	44.1291
1296.06	44.6467
1297.66	44.1342
1299.25	44.7669
1300.85	45.6356
1302.45	46.5192
1304.05	48.2896
1305.65	49.9294
1307.24	50.325
1308.84	51.8815
1310.43	51.9166
1312.03	52.9483
1313.63	54.2656
1315.22	55.3419
1316.82	56.1451
1318.41	56.0328
1320.01	57.1868
1321.6	57.0654
1323.2	57.2301
1324.79	56.7156
1326.38	55.5735
1327.98	54.0461
1329.57	54.3122
1331.16	53.7575
1332.76	52.4876
1334.35	51.4121
1335.94	49.1361
1337.53	49.2733
1339.12	47.7404
1340.71	47.3581
1342.3	47.3213
1343.89	46.3903
1345.48	46.0066
1347.07	44.7884
1348.66	43.1394
1350.25	42.4971
1351.84	41.9874
1353.43	40.8041
1355.01	39.6265
1356.6	39.0923
1358.19	38.4116
1359.77	36.4604
1361.36	36.5092
1362.95	35.9403
1364.53	34.6198
1366.12	34.8859
1367.71	35.0881
1369.29	34.2722
1370.88	33.472
1372.46	33.4165
1374.04	32.6169
1375.63	32.7925
1377.21	32.1331
1378.8	32.8071
1380.38	33.7484
1381.96	33.8633
1383.54	33.7815
1385.13	34.1224
1386.71	33.9239
1388.29	33.8803
1389.87	33.9535
1391.45	36.9032
1393.03	37.0835
1394.61	37.0925
1396.19	37.3256
1397.77	36.2122
1399.35	36.1205
1400.93	35.2905
1402.51	35.3323
1404.09	34.6867
1405.67	35.0369
1407.24	36.6793
1408.82	37.3848
1410.4	38.936
1411.98	39.8531
1413.55	40.8534
1415.13	41.7087
1416.71	43.0822
1418.28	43.179
1419.86	45.1936
1421.43	46.8112
1423.01	49.2664
1424.58	51.9286
1426.16	54.0084
1427.73	57.3605
1429.31	61.3673
1430.88	63.2898
1432.45	65.8194
1434.02	68.497
1435.6	71.0718
1437.17	72.7909
1438.74	74.7217
1440.31	77.9198
1441.88	80.1326
1443.45	80.6603
1445.03	82.1098
1446.6	83.0784
1448.17	83.0443
1449.74	83.542
1451.3	83.5277
1452.87	83.317
1454.44	82.3842
1456.01	81.4889
1457.58	81.3513
1459.15	81.5358
1460.72	79.8623
1462.28	78.4157
1463.85	77.0731
1465.42	75.2733
1466.98	73.6324
1468.55	71.9338
1470.12	70.2595
1471.68	66.1237
1473.25	63.9569
1474.81	61.7359
1476.38	59.5661
1477.94	58.4106
1479.51	56.0237
1481.07	53.5727
1482.63	50.6388
1484.2	48.1369
1485.76	46.2179
1487.32	43.2369
1488.88	41.4378
1490.45	38.6272
1492.01	36.4593
1493.57	33.8423
1495.13	31.2034
1496.69	30.5067
1498.25	30.6053
1499.81	30.2968
1501.37	30.2038
1502.93	29.6367
1504.49	29.2679
1506.05	28.0406
1507.61	25.5721
1509.17	24.1651
1510.73	24.1827
1512.28	23.1459
1513.84	22.0881
1515.4	21.5659
1516.96	20.0473
1518.51	19.0189
1520.07	17.255
1521.63	16.6902
1523.18	17.4074
1524.74	16.9562
1526.29	15.848
1527.85	15.8411
1529.4	16.2205
1530.96	16.8472
1532.51	16.368
1534.06	16.1795
1535.62	16.9476
1537.17	17.3528
1538.72	17.1047
1540.28	17.415
1541.83	17.9636
1543.38	19.1481
1544.93	19.325
1546.48	19.8583
1548.03	20.9439
1549.59	22.603
1551.14	24.5993
1552.69	26.0591
1554.24	26.6613
1555.79	26.9288
1557.34	27.3381
1558.88	27.4191
1560.43	27.8006
1561.98	29.2041
1563.53	29.471
1565.08	30.0349
1566.62	31.0196
1568.17	31.5027
1569.72	31.7885
1571.27	32.0941
1572.81	33.87
1574.36	36.2638
1575.9	36.2266
1577.45	37.5049
1579	38.5965
1580.54	38.8473
1582.09	39.3081
1583.63	39.4531
1585.17	40.5172
1586.72	42.3922
1588.26	42.7675
1589.8	41.862
1591.35	42.5721
1592.89	42.4112
1594.43	42.7785
1595.97	43.8933
1597.52	45.2583
1599.06	46.699
1600.6	46.6903
1602.14	46.0646
1603.68	46.5753
1605.22	46.1572
1606.76	46.3779
1608.3	46.2533
1609.84	44.8037
1611.38	44.231
1612.92	44.6371
1614.46	44.7398
1615.99	44.5978
1617.53	44.7957
1619.07	45.2691
1620.61	46.5031
1622.14	46.7032
1623.68	47.6172
1625.22	49.0024
1626.75	49.5624
1628.29	50.0215
1629.82	50.2887
1631.36	50.3595
1632.9	51.2191
1634.43	51.6442
1635.96	52.4783
1637.5	52.9029
1639.03	53.0935
1640.57	53.6141
1642.1	55.0559
1643.63	56.5434
1645.16	57.9115
1646.7	59.4837
1648.23	61.2643
1649.76	62.8172
1651.29	63.068
1652.82	62.7238
1654.36	63.7625
1655.89	63.1239
1657.42	63.367
1658.95	63.4907
1660.48	63.4057
1662.01	63.1335
1663.53	63.113
1665.06	62.6464
1666.59	62.4168
1668.12	61.6735
1669.65	60.4659
1671.18	59.4888
1672.7	57.3399
1674.23	56.8419
1675.76	54.8382
1677.29	52.9462
1678.81	50.7135
1680.34	49.2375
1681.86	46.9488
1683.39	45.0156
1684.91	42.1408
1686.44	39.1117
1687.96	36.4682
1689.49	34.6742
1691.01	32.8153
1692.54	30.3201
1694.06	28.4445
1695.58	27.4736
1697.11	25.9127
1698.63	23.5845
1700.15	21.8962
1701.67	20.9123
1703.2	18.5727
1704.72	17.0139
1706.24	14.7444
1707.76	12.9171
1709.28	12.2877
1710.8	11.3072
1712.32	11.204
1713.84	10.2632
1715.36	9.95691
1716.88	9.64253
1718.4	8.81317
1719.91	8.20847
1721.43	7.07809
1722.95	5.73737
1724.47	4.44776
1725.99	3.7485
1727.5	3.25492
1729.02	3.02806
1730.54	2.97549
1732.05	2.39951
1733.57	2.62555
1735.09	2.49337
1736.6	2.83222
1738.12	3.14085
1739.63	3.53944
1741.15	3.49151
1742.66	2.76403
1744.18	2.26033
1745.69	2.59889
1747.2	1.83373
1748.72	2.57734
1750.23	3.45594
1751.74	3.2155
1753.25	3.14874
1754.77	3.16936
1756.28	3.59453
1757.79	3.32974
1759.3	3.12817
1760.81	2.3547
1762.32	2.10941
1763.83	1.98926
1765.34	3.04416
1766.85	3.44036
1768.36	3.65324
1769.87	4.22894
1771.38	5.22909
1772.89	4.61314
1774.4	4.49072
1775.91	4.34599
1777.41	4.41235
1778.92	3.7913
1780.43	4.19623
1781.94	4.20444
1783.44	5.64316
1784.95	6.74252
1786.45	6.86575
1787.96	7.41377
1789.47	7.51749
1790.97	7.40834
1792.47	7.60179
1793.98	7.91272
1795.48	8.10896
1796.99	8.05378
1798.49	7.65895
1800	7.66658
1801.5	7.98902
1803	8.29964
1804.51	8.10087
1806.01	7.7785
1807.51	6.89585
1809.01	6.28471
1810.51	6.27216
1812.02	6.07064
1813.52	6.16106
1815.02	6.32896
1816.52	5.91204
1818.02	5.76108
1819.52	6.29713
1821.02	6.25833
1822.52	6.61775
1824.02	7.00931
1825.51	6.44845
1827.01	6.15462
1828.51	6.34848
1830.01	6.48353
1831.51	6.17064
1833	5.39896
1834.5	4.87064
1836	4.60194
1837.49	4.96844
1838.99	5.45597
1840.49	5.02174
1841.98	4.63171
1843.48	4.87232
1844.97	4.8809
1846.47	4.61837
1847.96	4.1236
1849.46	3.56822
1850.95	3.61638
1852.45	3.57822
1853.94	3.38964
1855.43	3.69575
1856.92	3.50291
1858.42	3.97155
1859.91	4.22366
1861.4	4.98654
1862.89	5.11517
1864.39	5.27873
1865.88	5.28666
1867.37	4.8184
1868.86	4.05864
1870.35	3.68669
1871.84	3.27286
1873.33	3.64411
1874.82	4.14325
1876.31	4.58414
1877.8	4.14336
1879.29	4.12092
1880.77	4.21122
1882.26	3.99359
1882.52	4.25081
1884.02	5.55576
1885.51	5.48352
1887.01	6.24983
1888.5	6.17882
1889.99	5.70903
1891.49	5.90244
1892.98	5.63876
1894.47	5.71402
1895.96	5.35504
1897.46	5.11662
1898.95	4.4385
1900.44	5.22543
1901.93	5.5753
1903.42	5.70103
1904.91	5.85242
1906.4	6.49513
1907.89	6.50229
1909.38	7.43211
1910.87	7.9515
1912.36	8.57219
1913.85	8.79185
1915.34	9.92778
1916.83	10.0989
1918.32	9.89336
1919.8	9.7044
1921.29	10.1269
1922.78	10.5099
1924.27	9.98993
1925.75	10.1978
1927.24	10.2087
1928.73	11.8596
1930.21	11.7673
1931.7	12.7367
1933.18	12.9658
1934.67	12.2129
1936.15	11.7394
1937.64	12.0041
1939.12	11.5409
1940.61	11.1885
1942.09	11.6248
1943.57	11.5986
1945.06	11.3191
1946.54	11.9864
1948.02	11.5406
1949.51	11.4377
1950.99	10.8646
1952.47	11.5158
1953.95	11.2451
1955.43	10.8457
1956.91	10.5189
1958.39	11.2768
1959.87	10.1568
1961.36	9.62018
1962.84	8.50019
1964.32	7.97085
1965.79	8.2929
1967.27	8.25675
1968.75	7.71863
1970.23	6.5495
1971.71	7.05882
1973.19	6.60988
1974.66	7.36433
1976.14	7.18141
1977.62	6.90397
1979.1	6.47657
1980.57	6.30722
1982.05	6.48547
1983.53	7.98408
1985	8.22733
1986.48	7.63546
1987.95	7.34462
1989.43	7.26139
1990.9	7.50033
1992.38	7.52713
1993.85	7.52983
1995.33	7.69584
1996.8	7.59032
1998.27	7.06651
1999.75	8.12002
2001.22	8.64597
2002.69	8.83406
2004.16	8.3976
2005.64	8.36835
2007.11	8.03367
2008.58	7.75289
2010.05	7.34755
2011.52	8.14873
2012.99	7.71856
2014.46	8.86425
2015.93	9.97702
2017.4	9.91045
2018.87	10.0535
2020.34	10.2603
2021.81	9.88764
2023.28	10.0203
2024.75	9.773
2026.22	10.7989
2027.69	11.8293
2029.15	12.2483
2030.62	13.8383
2032.09	14.0763
2033.56	13.1809
2035.02	13.9829
2036.49	15.1345
2037.95	14.9931
2039.42	15.1433
2040.89	15.4995
2042.35	15.3371
2043.82	16.2929
2045.28	17.8914
2046.75	18.135
2048.21	18.4351
2049.67	18.9474
2051.14	19.4649
2052.6	20.0417
2054.06	20.6652
2055.53	21.9265
2056.99	22.2102
2058.45	21.2924
2059.92	21.0589
2061.38	21.9537
2062.84	22.4762
2064.3	22.5041
2065.76	21.7702
2067.22	22.1942
2068.68	22.3945
2070.14	23.2128
2071.6	23.5041
2073.06	23.3223
2074.52	22.6636
2075.98	21.8647
2077.44	22.1847
2078.9	21.2027
2080.36	20.9411
2081.82	20.1723
2083.27	19.6303
2084.73	20.2478
2086.19	19.4902
2087.65	19.4884
2089.1	18.831
2090.56	18.2047
2092.01	17.2855
2093.47	16.9152
2094.93	17.126
2096.38	17.792
2097.84	17.9316
2099.29	18.2707
2100.75	18.286
2102.2	18.5549
2103.66	18.8331
2105.11	17.7255
2106.56	17.9303
2108.02	19.0884
2109.47	19.0879
2110.92	19.848
2112.37	20.6195
2113.83	20.9484
2115.28	21.3352
2116.73	23.6108
2118.18	23.6596
2119.63	22.981
2121.09	23.7777
2122.54	24.0332
2123.99	23.7489
2125.44	23.8026
2126.89	23.6235
2128.34	24.3437
2129.79	24.2941
2131.23	24.2789
2132.68	25.1645
2134.13	25.5703
