#Acq. time (s)=	45
#Accumulations=	2
#Range (cm-¹)=	200...3150
#Windows=	2
#Auto scanning=	Off
#Autofocus=	Off
#Macrospot=	Off
#AutoExposure=	Off
#Spike filter=	Multiple accum.
#Delay time (s)=	0
#Binning=	1
#Readout mode=	Signal
#DeNoise=	Off
#ICS correction=	On
#Dark correction=	Off
#Inst. Process=	Off
#Detector Gain=	Best Dynamic Range
#Detector ADC=	20 kHz       
#Detector temperature (°C)=	-69.85
#Instrument=	LabRAM HR Evol
#Detector=	Synapse
#Objective=	x100
#Grating=	600 gr/mm
#ND Filter=	100%
#Laser (nm)=	532 
#Hole=	100.021
#Range=	Auto
#Laser Pol.=	No
#Raman. Pol.=	No
#Laser Pol. (°)=	-0.0007625
#Raman Pol. (°)=	89.9995
#Collection=	Microscope
#StageXY=	Marzhauser
#StageZ=	Marzhauser
#X (µm)=	-612.7
#Y (µm)=	-1585.3
#Z (µm)=	90
#Full time(mm:ss)=	3:18
#Project=	
#Sample=	
#Site=	
#Title=	Mb_10_14_33_2x_45s_532 nm_x100_100%_600 gr_mm
#Remark=	
#Date=	11.07.2022 10:58
#Acquired=	11.07.2022 10:58:46
#Base:Fit=	10.08.2022 10:21:11
#Base:Sub=	10.08.2022 10:21:41
#Filter:Polynom=	16.08.2022 10:17:53
#AxisType[0]=Intens
#AxisUnit[0]=Cnt
#AxisType[1]=Spectr
#AxisUnit[1]=1/cm
200.388	9.32146
202.204	8.52782
204.019	8.11203
205.832	8.09465
207.646	8.26646
209.459	8.50352
211.274	8.61026
213.087	8.20658
214.899	8.02518
216.711	6.92212
218.524	6.49248
220.335	7.14631
222.146	8.31815
223.956	8.89525
225.766	10.1605
227.576	10.2751
229.388	10.2799
231.197	10.9629
233.005	11.6004
234.813	12.0801
236.621	12.6279
238.429	14.0022
240.236	14.0277
242.045	13.5534
243.852	14.3835
245.658	14.8408
247.464	15.6084
249.269	15.625
251.074	14.8888
252.879	15.4995
254.683	15.1743
256.487	15.8197
258.291	16.2844
260.094	17.0217
261.897	17.4242
263.702	17.7581
265.504	18.6867
267.306	19.1088
269.108	21.2922
270.909	22.0074
272.71	22.2704
274.511	23.3777
276.311	23.4132
278.111	23.024
279.91	23.1976
281.709	22.5351
283.508	22.0848
285.306	22.6214
287.105	22.9954
288.9	24.1586
290.698	23.5562
292.495	24.4442
294.291	24.6276
296.088	24.6129
297.884	24.4116
299.679	24.478
301.475	23.8765
303.27	23.9044
305.064	24.6227
306.858	25.452
308.652	27.1601
310.444	28.4849
312.237	28.3928
314.03	29.3059
315.822	29.6164
317.615	29.5452
319.406	30.4114
321.198	31.1232
322.987	31.1243
324.778	31.3514
326.568	31.2056
328.358	31.7419
330.148	30.971
331.935	30.6933
333.724	31.0368
335.513	30.49
337.301	30.2563
339.089	29.0892
340.875	28.2196
342.662	27.671
344.449	26.5124
346.236	26.4613
348.02	26.3356
349.806	26.4238
351.592	27.091
353.375	26.7295
355.16	28.1487
356.944	27.6701
358.728	27.3375
360.51	26.4767
362.294	25.5509
364.077	26.2637
365.858	25.3749
367.64	24.2954
369.422	24.7174
371.202	24.3489
372.983	24.7162
374.764	25.3977
376.543	25.1392
378.324	24.7977
380.102	24.3381
381.881	24.8208
383.661	25.5786
385.438	25.7427
387.216	26.3243
388.993	26.6933
390.771	26.1927
392.548	27.1997
394.324	27.558
396.101	26.8459
397.875	27.0026
399.651	26.4037
401.425	25.6716
403.201	26.696
404.974	25.3655
406.749	25.0579
408.524	24.5537
410.296	24.4581
412.07	24.1493
413.841	24.076
415.614	23.5518
417.385	23.286
419.156	22.3433
420.928	22.3296
422.698	22.9356
424.469	22.959
426.238	22.8232
428.009	21.742
429.777	20.7832
431.548	19.6673
433.315	19.7084
435.083	19.4298
436.852	18.5923
438.618	18.2958
440.387	17.45
442.153	15.7288
443.919	14.8111
445.686	13.0952
447.451	12.5468
449.218	11.965
450.982	11.1299
452.746	11.2751
454.512	10.5006
456.275	10.1726
458.038	10.8468
459.803	10.7117
461.565	11.6513
463.327	11.6535
465.091	12.4208
466.852	13.5268
468.613	14.2073
470.374	13.9286
472.136	15.3584
473.896	15.0258
475.655	15.1743
477.415	14.8205
479.176	15.0833
480.934	15.472
482.692	16.3616
484.45	17.4238
486.21	19.1525
487.967	19.4598
489.724	20.525
491.481	21.818
493.237	22.4697
494.995	24.2107
496.75	25.3161
498.506	26.624
500.26	27.5349
502.015	28.8705
503.769	30.0768
505.525	30.6468
507.279	31.7449
509.032	31.8841
510.785	31.6948
512.537	31.0609
514.289	30.797
516.041	30.4821
517.793	30.7092
519.546	30.2502
521.297	30.1742
523.047	29.5073
524.797	28.5087
526.547	28.3698
528.297	26.8416
530.046	26.3159
531.795	25.9794
533.543	24.2254
535.291	23.721
537.039	22.7955
538.787	23.0216
540.534	22.5991
542.281	21.8447
544.027	21.7233
545.773	21.3417
547.519	21.3576
549.264	20.3994
551.01	19.2799
552.754	18.1497
554.499	16.3097
556.243	14.7599
557.987	13.8369
559.73	13.6945
561.474	12.7999
563.216	12.7251
564.959	12.5219
566.701	12.0189
568.441	11.8066
570.182	11.9671
571.923	10.5343
573.664	9.30137
575.405	8.35073
577.145	7.69336
578.885	7.59394
580.624	7.15744
582.361	6.75024
584.1	6.31702
585.839	6.16644
587.577	6.57406
589.315	6.06071
591.052	4.90338
592.787	4.71188
594.524	4.54437
596.26	4.17544
597.997	4.49474
599.732	5.39525
601.466	5.59874
603.201	6.05013
604.936	5.89393
606.67	5.90318
608.403	6.40689
610.136	6.26214
611.87	6.26679
613.603	7.33073
615.334	7.64136
617.067	7.9897
618.799	8.09799
620.529	7.94038
622.26	9.40999
623.991	10.81
625.72	11.8666
627.451	11.418
629.181	12.3641
630.909	13.201
632.638	13.7857
634.368	14.436
636.095	14.6812
637.823	14.4364
639.551	14.6179
641.277	15.2959
643.005	16.5766
644.73	17.6065
646.457	17.6592
648.184	17.8191
649.908	17.8091
651.634	17.3301
653.357	17.191
655.083	17.8147
656.806	17.434
658.53	17.37
660.253	18.1131
661.977	18.4744
663.7	18.7717
665.422	18.8626
667.145	19.576
668.865	19.7494
670.588	20.5163
672.308	20.5959
674.027	21.6103
675.749	20.9736
677.468	20.9504
679.188	21.6165
680.907	21.615
682.627	21.6193
684.345	21.9525
686.064	22.6206
687.781	21.8987
689.498	22.3548
691.216	22.7708
692.932	23.4978
694.65	23.4629
696.366	24.336
698.081	25.5895
699.797	26.4358
701.512	27.4389
703.228	28.1076
704.942	28.7392
706.655	29.8578
708.371	30.9957
710.083	31.5052
711.796	31.4914
713.51	32.4239
715.222	33.604
716.934	34.7045
718.645	35.7229
720.358	35.9502
722.068	36.6503
723.779	36.3924
725.49	36.7151
727.2	37.3313
728.909	37.3627
730.618	38.1876
732.329	38.872
734.037	39.6046
735.745	40.54
737.453	40.7615
739.16	41.6966
740.869	42.4851
742.576	43.2634
744.282	44.62
745.988	45.4202
747.694	46.8141
749.401	47.4937
751.107	48.3571
752.811	50.5239
754.516	50.3557
756.22	52.1881
757.924	52.8133
759.627	54.293
761.332	55.0276
763.035	57.1098
764.738	59.2838
766.44	59.728
768.142	60.6177
769.843	62.2822
771.544	62.8927
773.245	63.8912
774.946	65.8941
776.646	66.988
778.346	68.038
780.046	69.1598
781.745	71.0337
783.444	71.6035
785.143	72.4413
786.841	73.3321
788.539	73.0469
790.237	72.5532
791.934	73.3586
793.631	73.4815
795.328	73.6771
797.024	74.2579
798.72	74.024
800.416	74.4374
802.112	74.8477
803.807	74.5115
805.502	74.699
807.196	73.6565
808.89	72.5557
810.584	72.827
812.278	72.7541
813.971	72.3309
815.664	72.7874
817.354	71.4194
819.047	70.4242
820.739	70.5676
822.43	70.3817
824.122	70.4541
825.813	69.5865
827.503	69.7155
829.192	69.5955
830.882	68.7835
832.571	68.5994
834.261	67.8156
835.95	67.3719
837.637	67.1921
839.325	66.3247
841.013	66.6912
842.701	66.7587
844.389	67.3419
846.074	66.2766
847.761	65.2622
849.447	63.9771
851.131	62.1543
852.817	61.7719
854.503	60.6479
856.188	59.5542
857.871	60.1275
859.556	59.2294
861.24	58.9817
862.922	58.3726
864.606	57.0053
866.289	55.8588
867.97	54.5228
869.653	52.8425
871.336	50.5954
873.016	50.1354
874.698	49.7165
876.379	50.1991
878.058	49.5765
879.739	48.5294
881.418	47.7648
883.098	46.793
884.778	46.5233
886.456	45.31
888.135	43.9336
889.812	43.468
891.49	42.3494
893.167	42.0944
894.845	42.5251
896.523	40.6907
898.198	40.3328
899.875	40.0111
901.55	40.4244
903.226	39.7759
904.901	39.4093
906.576	38.8104
908.25	38.3833
909.925	37.6409
911.598	38.2319
913.271	38.0788
914.945	37.2321
916.617	37.7801
918.291	37.4374
919.962	36.4963
921.635	36.351
923.306	36.6493
924.978	36.1817
926.648	36.0929
928.318	36.348
929.989	35.7351
931.659	36.0834
933.328	36.8731
934.998	36.7972
936.666	36.6098
938.336	36.9808
940.004	37.6951
941.671	38.7571
943.34	38.153
945.007	38.8654
946.673	38.6182
948.339	38.4996
950.007	37.9088
951.672	36.6585
953.337	36.7333
955.004	37.4156
956.669	38.2638
958.333	37.976
959.997	38.6399
961.662	37.8595
963.326	36.6172
964.989	36.5595
966.651	36.3142
968.315	36.9181
969.977	36.8633
971.639	37.342
973.301	37.8497
974.962	37.2218
976.624	37.0645
978.285	37.3135
979.945	37.1258
981.605	36.6455
983.264	37.01
984.924	36.8864
986.583	34.6227
988.243	33.812
989.901	33.5249
991.56	33.1297
993.217	31.9467
994.875	32.0727
996.532	31.2168
998.188	30.2854
999.845	29.5858
1001.5	27.6058
1003.16	26.9326
1004.81	26.4685
1006.47	25.9558
1008.12	25.152
1009.78	24.6912
1011.43	24.9461
1013.09	23.9384
1014.74	23.4449
1016.39	23.8975
1018.05	23.1411
1019.7	22.5967
1021.35	22.6978
1023	23.5584
1024.65	24.1469
1026.31	22.9283
1027.96	22.715
1029.61	22.4878
1031.26	21.7733
1032.91	21.1276
1034.56	21.2562
1036.21	21.9505
1037.86	21.7281
1039.51	21.8528
1041.16	22.291
1042.8	23.2775
1044.45	22.8655
1046.1	23.3275
1047.75	24.2077
1049.39	24.4459
1051.04	25.2797
1052.69	25.4308
1054.33	25.8766
1055.98	26.0218
1057.62	25.4266
1059.27	25.5933
1060.91	25.7568
1062.56	24.9884
1064.2	23.7579
1065.85	24.0452
1067.49	22.7779
1069.13	21.8183
1070.77	21.0757
1072.42	20.6314
1074.06	19.9673
1075.7	18.9066
1077.34	18.0213
1078.98	16.8552
1080.62	15.8999
1082.27	14.453
1083.91	13.2554
1085.55	12.0283
1087.18	11.2676
1088.82	10.5941
1090.46	9.81705
1092.1	9.25172
1093.74	8.80168
1095.38	8.70243
1097.02	8.69199
1098.65	9.10293
1100.29	8.4598
1101.93	8.97218
1103.56	9.47471
1105.2	9.76735
1106.84	9.08876
1108.47	7.70789
1110.11	8.02909
1111.74	8.4372
1113.38	7.8511
1115.01	7.93665
1116.64	7.46187
1118.28	7.61067
1119.91	7.94043
1121.54	7.92149
1123.18	8.69897
1124.81	9.21531
1126.44	9.27479
1128.07	9.75658
1129.7	9.48864
1131.33	9.83363
1132.97	10.0851
1134.6	9.75662
1136.23	9.23549
1137.86	8.77055
1139.49	8.07828
1141.11	8.64201
1142.74	8.8506
1144.37	9.42941
1146	9.51849
1147.63	9.22603
1149.26	8.99298
1150.88	8.17645
1152.51	6.73054
1154.14	6.43041
1155.76	6.51328
1157.39	6.23351
1159.01	5.47547
1160.64	5.60736
1162.27	4.15916
1163.89	2.98676
1165.51	2.23599
1167.14	1.82342
1168.76	1.78237
1170.39	2.12174
1172.01	1.94988
1173.63	2.36607
1175.25	2.72934
1176.88	4.41615
1178.5	5.09619
1180.12	4.83441
1181.74	4.81424
1183.36	4.74812
1184.98	4.13041
1186.6	4.03339
1188.22	4.15484
1189.84	4.49804
1191.46	5.75129
1193.08	5.09375
1194.7	4.79785
1196.32	5.16753
1197.94	4.9497
1199.55	5.28531
1201.17	5.31325
1202.79	5.0463
1204.41	5.336
1206.02	4.70288
1207.64	5.35409
1209.25	5.53067
1210.87	5.31411
1212.48	4.90996
1214.1	5.07248
1215.71	6.68085
1217.33	7.11573
1218.94	8.41733
1220.56	9.44707
1222.17	10.7265
1223.79	11.2164
1225.4	12.2923
1227.01	12.2264
1228.62	12.5874
1230.23	13.3478
1231.85	13.3477
1233.46	13.9979
1235.07	14.5108
1236.68	15.6516
1238.29	15.9053
1239.9	16.5531
1241.51	17.5254
1243.12	17.6523
1244.73	19.1069
1246.34	20.4611
1247.94	21.3805
1249.55	22.5742
1251.16	24.4579
1252.77	25.0785
1254.37	25.8661
1255.98	26.2193
1257.59	26.4035
1259.2	26.5912
1260.8	26.3104
1262.41	26.8223
1264.01	27.0902
1265.62	27.0557
1267.22	27.333
1268.83	27.2607
1270.43	26.8103
1272.03	26.05
1273.64	25.6199
1275.24	26.9391
1276.85	26.6368
1278.45	26.9327
1280.05	27.1678
1281.65	26.9606
1283.25	27.3003
1284.85	28.3966
1286.46	29.4214
1288.06	29.4179
1289.66	30.1573
1291.26	30.4268
1292.86	30.306
1294.46	31.3945
1296.06	32.0486
1297.66	31.4383
1299.25	32.3791
1300.85	32.6308
1302.45	33.7135
1304.05	34.0564
1305.65	34.8078
1307.24	33.9897
1308.84	34.6631
1310.43	34.2785
1312.03	34.0114
1313.63	34.7718
1315.22	35.6687
1316.82	37.5747
1318.41	38.3715
1320.01	38.2477
1321.6	38.7376
1323.2	38.5755
1324.79	38.7592
1326.38	38.8457
1327.98	38.6212
1329.57	38.6203
1331.16	38.6569
1332.76	37.7657
1334.35	37.2913
1335.94	36.3677
1337.53	36.4331
1339.12	36.528
1340.71	35.838
1342.3	35.1045
1343.89	34.6195
1345.48	34.0312
1347.07	34.5288
1348.66	34.282
1350.25	33.6869
1351.84	33.6341
1353.43	33.871
1355.01	33.2296
1356.6	32.0295
1358.19	32.0184
1359.77	31.5556
1361.36	31.3408
1362.95	31.4715
1364.53	30.8915
1366.12	30.9744
1367.71	30.0409
1369.29	30.3746
1370.88	29.7768
1372.46	29.0618
1374.04	29.1117
1375.63	29.0505
1377.21	29.2415
1378.8	29.6658
1380.38	29.729
1381.96	29.9113
1383.54	29.3436
1385.13	28.1546
1386.71	27.149
1388.29	28.3232
1389.87	27.7419
1391.45	28.5053
1393.03	29.6389
1394.61	29.4095
1396.19	28.8792
1397.77	27.6677
1399.35	26.2491
1400.93	26.5474
1402.51	26.2403
1404.09	26.9731
1405.67	26.5621
1407.24	26.3154
1408.82	26.6799
1410.4	27.3973
1411.98	27.0434
1413.55	27.8542
1415.13	27.74
1416.71	28.4771
1418.28	28.7722
1419.86	28.7836
1421.43	29.5498
1423.01	30.8603
1424.58	32.0164
1426.16	33.319
1427.73	33.4359
1429.31	33.9302
1430.88	34.6252
1432.45	35.5783
1434.02	35.8337
1435.6	37.0879
1437.17	37.8979
1438.74	38.6238
1440.31	39.2715
1441.88	39.7547
1443.45	41.1221
1445.03	42.3202
1446.6	42.3647
1448.17	42.9497
1449.74	43.5363
1451.3	43.2611
1452.87	43.7855
1454.44	44.6266
1456.01	44.5111
1457.58	43.4112
1459.15	42.7639
1460.72	42.6117
1462.28	41.8725
1463.85	40.6601
1465.42	40.8173
1466.98	39.8263
1468.55	38.0316
1470.12	36.9268
1471.68	36.499
1473.25	34.9765
1474.81	33.4944
1476.38	33.3319
1477.94	32.3481
1479.51	31.5375
1481.07	30.5465
1482.63	29.2047
1484.2	27.7334
1485.76	26.9057
1487.32	25.5375
1488.88	23.8793
1490.45	22.48
1492.01	21.062
1493.57	19.5578
1495.13	19.2013
1496.69	18.862
1498.25	18.6282
1499.81	18.6322
1501.37	18.1385
1502.93	16.96
1504.49	17.046
1506.05	15.2499
1507.61	14.4489
1509.17	13.8042
1510.73	13.1985
1512.28	12.0412
1513.84	11.875
1515.4	10.969
1516.96	10.8557
1518.51	11.0359
1520.07	11.5653
1521.63	11.6509
1523.18	11.0975
1524.74	10.4819
1526.29	10.4316
1527.85	9.38325
1529.4	8.63972
1530.96	8.37309
1532.51	8.81783
1534.06	8.09018
1535.62	8.51578
1537.17	9.67888
1538.72	10.2176
1540.28	10.3402
1541.83	11.067
1543.38	12.0247
1544.93	12.1312
1546.48	12.9613
1548.03	14.4712
1549.59	15.0172
1551.14	15.4639
1552.69	15.3341
1554.24	16.2544
1555.79	15.862
1557.34	16.3377
1558.88	16.1326
1560.43	16.7474
1561.98	17.2952
1563.53	17.4332
1565.08	17.9385
1566.62	19.1728
1568.17	20.6755
1569.72	21.1432
1571.27	22.4295
1572.81	23.7114
1574.36	24.1858
1575.9	25.2304
1577.45	24.3641
1579	25.0352
1580.54	25.1791
1582.09	25.776
1583.63	25.4095
1585.17	25.517
1586.72	25.0834
1588.26	25.6556
1589.8	26.0072
1591.35	26.1201
1592.89	26.5738
1594.43	26.8699
1595.97	26.7282
1597.52	26.4779
1599.06	25.7554
1600.6	25.245
1602.14	24.3329
1603.68	23.7961
1605.22	23.2466
1606.76	23.9331
1608.3	23.8101
1609.84	24.6064
1611.38	24.571
1612.92	24.9638
1614.46	24.5632
1615.99	24.1507
1617.53	24.431
1619.07	24.4005
1620.61	24.1167
1622.14	23.5073
1623.68	23.833
1625.22	23.7872
1626.75	23.199
1628.29	23.463
1629.82	23.0609
1631.36	23.7496
1632.9	24.337
1634.43	25.2072
1635.96	24.991
1637.5	26.4558
1639.03	26.6565
1640.57	26.9881
1642.1	27.8691
1643.63	28.204
1645.16	28.6943
1646.7	28.5509
1648.23	28.7809
1649.76	28.4623
1651.29	28.5557
1652.82	28.0582
1654.36	27.3806
1655.89	28.5966
1657.42	28.9668
1658.95	29.3953
1660.48	28.9965
1662.01	29.0427
1663.53	30.4624
1665.06	30.5984
1666.59	29.9778
1668.12	29.9742
1669.65	30.0914
1671.18	28.4278
1672.7	27.5264
1674.23	26.7832
1675.76	26.4022
1677.29	26.0289
1678.81	25.5291
1680.34	24.8699
1681.86	24.6988
1683.39	24.2088
1684.91	24.1266
1686.44	23.4409
1687.96	22.1897
1689.49	20.754
1691.01	19.6551
1692.54	18.2159
1694.06	17.1402
1695.58	15.9405
1697.11	15.4246
1698.63	14.5019
1700.15	13.6595
1701.67	12.3297
1703.2	11.8658
1704.72	11.2549
1706.24	10.5161
1707.76	9.6984
1709.28	9.31072
1710.8	8.14719
1712.32	6.72359
1713.84	6.84913
1715.36	6.0587
1716.88	5.95485
1718.4	5.65461
1719.91	5.03159
1721.43	4.78892
1722.95	3.88671
1724.47	3.11984
1725.99	2.97594
1727.5	3.06949
1729.02	3.10902
1730.54	3.15766
1732.05	3.2253
1733.57	3.15357
1735.09	2.65198
1736.6	2.77998
1738.12	2.76711
1739.63	2.78016
1741.15	2.16481
1742.66	2.48796
1744.18	2.1255
1745.69	1.40383
1747.2	0.858958
1748.72	2.04724
1750.23	2.33714
1751.74	3.00506
1753.25	3.47479
1754.77	3.53271
1756.28	3.99165
1757.79	4.44619
1759.3	4.81699
1760.81	4.59099
1762.32	4.2163
1763.83	4.30626
1765.34	4.45744
1766.85	4.35066
1768.36	3.95155
1769.87	4.31289
1771.38	4.92536
1772.89	5.16137
1774.4	5.04006
1775.91	5.11359
1777.41	5.41021
1778.92	5.4791
1780.43	5.19164
1781.94	5.112
1783.44	5.10086
1784.95	5.51009
1786.45	5.52104
1787.96	6.18073
1789.47	6.37775
1790.97	6.20501
1792.47	5.9127
1793.98	5.86608
1795.48	5.66169
1796.99	5.69198
1798.49	5.3295
1800	4.98084
1801.5	4.76054
1803	4.27308
1804.51	4.42392
1806.01	3.74969
1807.51	3.75918
1809.01	3.67469
1810.51	3.76647
1812.02	3.91398
1813.52	3.64498
1815.02	3.92622
1816.52	3.49978
1818.02	3.05834
1819.52	2.77212
1821.02	2.4004
1822.52	2.7513
1824.02	2.88339
1825.51	2.44633
1827.01	2.67022
1828.51	3.2281
1830.01	3.1302
1831.51	3.14566
1833	3.17245
1834.5	2.9524
1836	2.40414
1837.49	2.08601
1838.99	1.1122
1840.49	0.852595
1841.98	0.77477
1843.48	1.14058
1844.97	0.957813
1846.47	0.830725
1847.96	0.824628
1849.46	0.64015
1850.95	0.57269
1852.45	0.293507
1853.94	0.364458
1855.43	0.428967
1856.92	0.694468
1858.42	1.00896
1859.91	0.874143
1861.4	1.11519
1862.89	0.968515
1864.39	1.02562
1865.88	1.89884
1867.37	2.08015
1868.86	2.77945
1870.35	2.90059
1871.84	3.54932
1873.33	3.64553
1874.82	4.00003
1876.31	4.40946
1877.8	5.22426
1879.29	6.00644
1880.77	5.9016
1882.26	6.0864
1882.52	6.36505
1884.02	6.7938
1885.51	6.94927
1887.01	7.04099
1888.5	6.73613
1889.99	6.51555
1891.49	6.57546
1892.98	6.1733
1894.47	6.43245
1895.96	6.47308
1897.46	6.46751
1898.95	6.24277
1900.44	6.28946
1901.93	5.91318
1903.42	5.7694
1904.91	5.19788
1906.4	4.11387
1907.89	2.91632
1909.38	2.3742
1910.87	2.61957
1912.36	2.22423
1913.85	1.73452
1915.34	1.45782
1916.83	1.35839
1918.32	0.752034
1919.8	0.406756
1921.29	0.422924
1922.78	1.04495
1924.27	1.18788
1925.75	1.29095
1927.24	1.39724
1928.73	1.08622
1930.21	0.841115
1931.7	1.17675
1933.18	0.96447
1934.67	1.19997
1936.15	1.87673
1937.64	3.13861
1939.12	2.90216
1940.61	2.31926
1942.09	3.13379
1943.57	3.30429
1945.06	3.51828
1946.54	3.3326
1948.02	3.06578
1949.51	2.89588
1950.99	2.95912
1952.47	3.10101
1953.95	2.7739
1955.43	3.01823
1956.91	3.75204
1958.39	4.25525
1959.87	4.72574
1961.36	5.11245
1962.84	5.7033
1964.32	5.88996
1965.79	6.72835
1967.27	7.0417
1968.75	6.93799
1970.23	6.59999
1971.71	6.81277
1973.19	6.66121
1974.66	6.51667
1976.14	6.84668
1977.62	6.88447
1979.1	6.33003
1980.57	6.04127
1982.05	6.68851
1983.53	6.69443
1985	6.95394
1986.48	7.10162
1987.95	7.30304
1989.43	8.07023
1990.9	8.14343
1992.38	7.72096
1993.85	7.34619
1995.33	7.55454
1996.8	8.00731
1998.27	7.40886
1999.75	7.10113
2001.22	6.75799
2002.69	6.43639
2004.16	6.21967
2005.64	6.03105
2007.11	5.59552
2008.58	5.45958
2010.05	5.42754
2011.52	5.03083
2012.99	4.63444
2014.46	5.40039
2015.93	5.81383
2017.4	5.00637
2018.87	4.84232
2020.34	5.05897
2021.81	4.49449
2023.28	4.8363
2024.75	5.09767
2026.22	5.39969
2027.69	5.20769
2029.15	5.71763
2030.62	5.88077
2032.09	6.09038
2033.56	6.06785
2035.02	5.84311
2036.49	5.9748
2037.95	5.29224
2039.42	4.95763
2040.89	5.27989
2042.35	5.35828
2043.82	5.32548
2045.28	5.6662
2046.75	6.1556
2048.21	5.99182
2049.67	6.4135
2051.14	6.30823
2052.6	7.23419
2054.06	7.18555
2055.53	6.8439
2056.99	6.59054
2058.45	7.14436
2059.92	7.30282
2061.38	6.91326
2062.84	6.62848
2064.3	5.99354
2065.76	5.8823
2067.22	6.22393
2068.68	6.28247
2070.14	6.10409
2071.6	5.74639
2073.06	5.67948
2074.52	5.81413
2075.98	5.63491
2077.44	5.80652
2078.9	6.32763
2080.36	6.84048
2081.82	7.24613
2083.27	7.50836
2084.73	8.32304
2086.19	8.46397
2087.65	8.56559
2089.1	8.42592
2090.56	8.18364
2092.01	8.93682
2093.47	8.73504
2094.93	8.09601
2096.38	8.25165
2097.84	7.97556
2099.29	7.82681
2100.75	7.77867
2102.2	7.99542
2103.66	7.90448
2105.11	8.29758
2106.56	8.1722
2108.02	8.25351
2109.47	8.71337
2110.92	8.21457
2112.37	8.86211
2113.83	9.81616
2115.28	9.07525
2116.73	8.57552
2118.18	8.82074
2119.63	8.81308
2121.09	9.03426
2122.54	9.64238
2123.99	9.42445
2125.44	9.52264
2126.89	8.87621
2128.34	8.74487
2129.79	9.13583
2131.23	9.49821
2132.68	9.81699
2134.13	9.73529
2135.58	10.2171
2137.03	9.9271
