#Acq. time (s)=	45
#Accumulations=	2
#Range (cm-¹)=	200...3150
#Windows=	2
#Auto scanning=	Off
#Autofocus=	Off
#Macrospot=	Off
#AutoExposure=	Off
#Spike filter=	Multiple accum.
#Delay time (s)=	0
#Binning=	1
#Readout mode=	Signal
#DeNoise=	Off
#ICS correction=	On
#Dark correction=	Off
#Inst. Process=	Off
#Detector Gain=	Best Dynamic Range
#Detector ADC=	20 kHz       
#Detector temperature (°C)=	-70.08
#Instrument=	LabRAM HR Evol
#Detector=	Synapse
#Objective=	x100
#Grating=	600 gr/mm
#ND Filter=	100%
#Laser (nm)=	532 
#Hole=	100.021
#Range=	Auto
#Laser Pol.=	No
#Raman. Pol.=	No
#Laser Pol. (°)=	-0.0007625
#Raman Pol. (°)=	89.9995
#Collection=	Microscope
#StageXY=	Marzhauser
#StageZ=	Marzhauser
#X (µm)=	-2396.1
#Y (µm)=	2132.9
#Z (µm)=	-40.5
#Full time(mm:ss)=	3:18
#Project=	
#Sample=	
#Site=	
#Title=	Mb_10_14_05_2x_45s_532 nm_x100_100%_600 gr_mm
#Remark=	
#Date=	07.07.2022 13:46
#Acquired=	07.07.2022 13:46:09
#Base:Fit=	10.08.2022 10:21:11
#Base:Sub=	10.08.2022 10:21:41
#Filter:Polynom=	16.08.2022 10:17:53
#AxisType[0]=Intens
#AxisUnit[0]=Cnt
#AxisType[1]=Spectr
#AxisUnit[1]=1/cm
200.43	1.86422
202.246	-1.11107
204.061	-1.02964
205.875	0.0868071
207.688	1.04018
209.501	2.02611
211.316	3.20658
213.129	4.93218
214.941	6.96215
216.753	8.69022
218.566	9.91577
220.377	11.0032
222.188	13.3455
223.999	14.1816
225.809	15.985
227.618	17.3819
229.43	18.2054
231.239	18.7277
233.047	18.7763
234.855	19.9534
236.663	21.2631
238.471	21.0505
240.278	21.4097
242.087	22.1322
243.894	22.6741
245.7	22.735
247.506	22.7819
249.311	22.1566
251.116	21.8565
252.921	22.16
254.725	22.6012
256.529	22.0665
258.333	21.5745
260.136	22.1781
261.939	21.5631
263.744	20.7504
265.546	20.6128
267.348	20.1301
269.15	19.6143
270.951	19.9049
272.752	18.6742
274.552	17.0207
276.353	14.9548
278.152	12.2313
279.952	11.0699
281.751	8.96056
283.55	6.62052
285.348	6.25778
287.146	7.89148
288.942	8.27931
290.739	8.56432
292.536	8.35233
294.333	6.65813
296.129	5.84939
297.925	5.48038
299.721	4.77731
301.516	5.33004
303.311	5.87655
305.106	5.96309
306.9	6.05762
308.694	5.78784
310.486	5.83465
312.279	6.61023
314.072	6.61477
315.864	7.70099
317.656	7.18536
319.448	7.15103
321.24	7.78557
323.029	7.59499
324.819	8.35621
326.61	7.89525
328.4	8.59846
330.19	9.79388
331.977	10.1625
333.766	9.53506
335.555	9.94697
337.343	10.2223
339.131	9.82124
340.917	9.83998
342.704	9.74412
344.491	11.1619
346.277	11.4846
348.062	11.3722
349.848	11.143
351.633	11.5313
353.416	11.9885
355.201	12.1907
356.986	11.7573
358.77	13.0591
360.552	13.1158
362.335	13.1317
364.118	13.615
365.899	14.1402
367.682	14.4087
369.464	16.4218
371.243	16.7493
373.025	17.7789
374.806	19.2386
376.585	20.7382
378.365	22.4274
380.143	23.3745
381.923	24.4358
383.702	25.1022
385.479	26.8071
387.258	28.3909
389.034	30.0201
390.812	31.9068
392.59	33.1954
394.365	34.4615
396.142	34.5784
397.916	34.4615
399.693	34.5601
401.467	35.3161
403.242	35.1869
405.015	34.6509
406.79	33.0734
408.565	32.7224
410.337	31.7123
412.111	30.0589
413.882	29.7498
415.656	29.4312
417.426	28.8268
419.197	26.6432
420.969	24.5367
422.739	22.4702
424.51	21.8587
426.279	19.9563
428.05	18.072
429.819	16.7291
431.589	15.3615
433.356	13.7644
435.124	10.9649
436.893	8.02008
438.66	6.46718
440.428	5.83424
442.194	4.94621
443.96	4.31915
445.727	3.77386
447.492	4.3732
449.259	3.90714
451.023	3.92746
452.787	2.38519
454.553	2.36275
456.316	3.06077
458.079	4.39337
459.844	4.47171
461.606	5.47239
463.368	6.91636
465.132	8.56338
466.893	10.9466
468.654	11.7553
470.415	12.6339
472.177	13.2798
473.937	13.7156
475.696	14.9383
477.456	16.1979
479.217	17.9065
480.975	19.0882
482.733	19.6253
484.491	19.7301
486.251	20.5162
488.008	21.3725
489.765	22.9423
491.522	22.6542
493.278	22.8702
495.036	23.0619
496.791	23.0326
498.546	23.4067
500.301	24.1307
502.056	25.2957
503.81	26.4649
505.566	26.5666
507.319	26.6559
509.073	26.5276
510.825	26.7351
512.578	26.9552
514.33	26.3055
516.082	26.1197
517.833	26.5314
519.587	25.9155
521.337	25.866
523.088	25.2259
524.838	24.9894
526.588	23.8464
528.337	23.9535
530.087	23.0619
531.835	22.5786
533.584	22.6424
535.332	21.9401
537.08	21.4977
538.827	19.6898
540.574	19.2356
542.321	19.4422
544.068	19.8606
545.814	18.9946
547.56	18.1243
549.305	17.3355
551.05	17.0435
552.795	16.4491
554.54	15.4814
556.284	14.0647
558.027	12.8712
559.771	12.0629
561.514	12.0715
563.257	12.5053
564.999	12.3284
566.742	12.5697
568.481	11.3986
570.223	10.5474
571.964	9.61357
573.705	9.0315
575.445	8.05593
577.185	7.01721
578.925	5.15726
580.665	5.39088
582.402	4.70151
584.141	4.39813
585.879	6.37569
587.617	6.20219
589.355	6.28374
591.092	6.46447
592.828	5.62359
594.564	4.86357
596.301	4.54058
598.037	4.85018
599.773	5.0906
601.506	5.377
603.242	5.69895
604.976	6.08957
606.711	5.6284
608.443	6.33964
610.177	6.16927
611.91	6.26242
613.644	6.41163
615.374	7.98832
617.107	9.16574
618.839	9.8577
620.569	11.2158
622.3	10.5324
624.032	12.4026
625.761	12.8182
627.491	15.0811
629.221	16.3656
630.949	18.388
632.679	18.0044
634.408	19.0772
636.135	20.6707
637.863	21.3017
639.592	22.402
641.318	23.0893
643.045	24.0352
644.77	24.837
646.497	25.7731
648.224	27.3131
649.948	27.8065
651.674	28.6195
653.398	29.0677
655.123	28.7416
656.846	28.7639
658.57	28.3133
660.293	28.3666
662.017	28.4119
663.738	29.668
665.462	30.172
667.185	31.1198
668.905	32.2734
670.628	32.503
672.348	33.0286
674.067	32.4516
675.789	32.6804
677.508	32.2162
679.228	31.7235
680.947	31.1054
682.667	30.6627
684.385	30.5878
686.104	30.9369
687.821	30.8087
689.538	31.0582
691.256	31.996
692.972	32.3111
694.69	32.7484
696.406	33.1184
698.121	34.0059
699.837	34.359
701.552	34.738
703.268	35.6384
704.982	34.7219
706.695	35.6321
708.41	35.878
710.123	36.9484
711.836	37.3692
713.55	37.5377
715.262	37.8918
716.973	37.881
718.685	38.3609
720.398	39.6485
722.108	39.3365
723.818	39.7506
725.53	40.6331
727.24	41.762
728.949	42.1153
730.658	43.0879
732.369	43.2337
734.077	44.4247
735.785	44.2279
737.493	44.1326
739.2	45.5154
740.909	46.6516
742.616	48.1887
744.322	49.1681
746.028	51.8572
747.734	54.0557
749.441	55.7785
751.146	56.7937
752.851	57.6908
754.555	60.1247
756.26	59.7746
757.963	61.3748
759.667	62.7326
761.372	62.9947
763.075	63.296
764.777	64.6754
766.479	65.4522
768.181	67.5591
769.883	68.7714
771.584	70.8716
773.285	71.9996
774.986	73.3611
776.686	74.3773
778.386	75.7079
780.085	76.9343
781.785	77.9966
783.484	78.0841
785.182	77.5732
786.881	77.2995
788.579	77.2547
790.276	76.6279
791.974	77.7748
793.671	78.0289
795.367	78.7568
797.064	79.2734
798.76	79.6367
800.456	80.0275
802.151	80.23
803.846	80.5504
805.541	79.4469
807.236	79.8665
808.93	81.2209
810.624	80.9774
812.317	80.2423
814.01	79.5965
815.703	79.6686
817.394	79.2483
819.086	79.1948
820.778	77.9859
822.47	78.3733
824.161	79.381
825.852	79.0977
827.543	79.8857
829.231	79.7412
830.921	80.1636
832.611	79.0384
834.3	78.3397
835.989	77.7955
837.676	77.4965
839.364	77.8278
841.053	76.1012
842.74	76.2074
844.426	75.7736
846.113	74.5453
847.8	73.236
849.486	73.3543
851.171	72.8559
852.857	72.2654
854.542	71.244
856.227	71.2277
857.911	70.8853
859.595	69.5271
861.279	69.2906
862.961	68.334
864.645	67.2188
866.329	66.1147
868.01	64.8831
869.692	63.7106
871.375	63.0267
873.055	63.1571
874.737	62.0589
876.418	61.6897
878.097	62.0532
879.778	61.0277
881.457	60.5579
883.137	60.614
884.817	59.811
886.495	59.6858
888.174	59.5162
889.851	59.3442
891.53	59.8635
893.206	59.6135
894.884	58.6911
896.562	57.8242
898.237	58.4927
899.914	58.2227
901.589	57.5039
903.265	56.775
904.94	56.6871
906.615	56.7552
908.289	56.5361
909.964	56.8345
911.637	56.7993
913.31	55.8285
914.984	54.5376
916.656	52.6329
918.33	52.3797
920.001	51.867
921.674	51.1542
923.345	50.2452
925.015	50.4254
926.687	50.4614
928.357	50.0802
930.028	49.6169
931.698	48.9007
933.366	48.8285
935.037	48.4787
936.705	47.5059
938.373	47.375
940.043	47.2766
941.71	47.3502
943.379	46.9716
945.046	47.6273
946.712	46.9002
948.378	46.0209
950.046	44.836
951.711	44.2363
953.376	43.138
955.043	43.0112
956.708	42.2595
958.372	40.5355
960.036	39.8522
961.701	39.0975
963.364	38
965.027	38.3984
966.69	38.4063
968.354	38.7972
970.016	39.8787
971.678	39.9591
973.339	39.5978
975	39.4588
976.661	40.1348
978.324	38.4492
979.984	38.0744
981.644	38.766
983.303	38.9673
984.962	39.0161
986.621	38.3644
988.282	38.5864
989.94	38.4599
991.598	38.1979
993.256	38.4935
994.913	37.4649
996.57	36.4034
998.227	35.7543
999.884	34.7933
1001.54	36.091
1003.2	36.6645
1004.85	36.8645
1006.51	37.3041
1008.16	38.0766
1009.82	37.6922
1011.47	38.081
1013.12	38.4252
1014.78	38.1554
1016.43	39.2385
1018.08	40.8446
1019.74	41.5949
1021.39	43.8278
1023.04	45.4881
1024.69	46.6133
1026.34	46.6272
1028	46.9185
1029.65	46.5642
1031.3	45.7816
1032.95	45.8465
1034.6	45.9831
1036.25	45.3376
1037.9	44.9291
1039.55	44.0412
1041.19	43.3685
1042.84	43.7569
1044.49	43.8483
1046.14	44.7242
1047.79	44.2952
1049.43	44.1768
1051.08	43.4369
1052.73	42.7228
1054.37	40.957
1056.02	39.5978
1057.66	38.57
1059.31	38.0942
1060.95	36.4914
1062.6	35.5259
1064.24	34.8597
1065.88	34.5363
1067.53	33.1113
1069.17	30.8136
1070.81	29.9008
1072.46	28.4812
1074.1	27.644
1075.74	26.7458
1077.38	25.4591
1079.02	24.3205
1080.66	23.786
1082.3	22.4568
1083.94	22.8047
1085.58	22.1751
1087.22	21.1892
1088.86	20.539
1090.5	20.9195
1092.14	20.6279
1093.78	21.3432
1095.42	20.8238
1097.05	20.8624
1098.69	21.8119
1100.33	21.0513
1101.97	21.1847
1103.6	20.9938
1105.24	20.9117
1106.87	20.1337
1108.51	20.2924
1110.15	20.2411
1111.78	19.4346
1113.41	19.1032
1115.05	18.5981
1116.68	18.6197
1118.31	17.8153
1119.95	16.836
1121.58	15.8052
1123.21	14.9324
1124.85	14.8791
1126.48	13.8783
1128.11	12.8923
1129.74	11.0213
1131.37	10.8526
1133	10.6239
1134.63	10.0826
1136.26	8.96945
1137.89	8.04117
1139.52	7.92061
1141.15	8.7399
1142.78	7.81652
1144.41	7.49236
1146.04	8.18878
1147.66	8.6614
1149.29	7.92447
1150.92	7.76398
1152.55	8.84535
1154.17	8.97533
1155.8	9.72511
1157.43	9.8265
1159.05	9.67728
1160.68	9.44998
1162.3	9.58526
1163.93	10.3904
1165.55	11.0573
1167.17	11.5397
1168.8	11.942
1170.42	12.1981
1172.05	12.5934
1173.67	12.9156
1175.29	13.3504
1176.91	13.4641
1178.54	14.5761
1180.16	15.3437
1181.78	15.5441
1183.4	17.7478
1185.02	18.4061
1186.64	19.7647
1188.26	19.9567
1189.88	21.1574
1191.5	20.5781
1193.12	21.3593
1194.74	21.7157
1196.36	21.7155
1197.97	21.9209
1199.59	21.9372
1201.21	20.9771
1202.83	20.4438
1204.44	20.7945
1206.06	21.0039
1207.68	20.8888
1209.29	21.4268
1210.91	22.0642
1212.52	23.3727
1214.14	23.8728
1215.75	24.16
1217.37	25.1283
1218.98	26.1598
1220.6	27.4477
1222.21	28.3707
1223.82	28.8332
1225.44	29.7144
1227.05	30.3757
1228.66	30.8863
1230.27	30.901
1231.88	31.7869
1233.49	32.6873
1235.1	32.3389
1236.72	33.7471
1238.33	34.1956
1239.94	34.2633
1241.55	34.7846
1243.16	35.0509
1244.76	35.4871
1246.37	35.1267
1247.98	35.614
1249.59	35.8501
1251.2	35.4997
1252.8	35.7907
1254.41	35.5676
1256.02	35.3735
1257.63	35.5672
1259.23	35.5835
1260.84	36.9908
1262.44	37.4187
1264.05	37.9061
1265.66	37.7366
1267.26	37.9527
1268.87	38.7489
1270.47	39.6749
1272.07	38.5871
1273.68	39.2518
1275.28	38.7019
1276.88	39.1393
1278.48	38.2116
1280.09	36.9364
1281.69	35.79
1283.29	37.1441
1284.89	37.8855
1286.49	38.8832
1288.09	39.8006
1289.69	40.5662
1291.3	40.4949
1292.9	41.0132
1294.49	41.0177
1296.09	42.0253
1297.69	41.9154
1299.29	42.9233
1300.89	44.2162
1302.49	45.1284
1304.09	46.464
1305.68	46.8585
1307.28	48.8517
1308.88	49.8298
1310.47	50.7438
1312.07	52.1365
1313.66	52.8863
1315.26	53.2284
1316.86	54.9571
1318.45	55.0808
1320.05	55.6369
1321.64	56.4416
1323.23	56.8116
1324.83	57.3459
1326.42	57.5561
1328.01	57.2887
1329.61	56.7561
1331.2	56.4663
1332.79	56.3511
1334.38	56.1349
1335.98	56.6514
1337.57	56.8705
1339.16	56.9608
1340.75	57.8597
1342.34	56.9203
1343.93	55.7175
1345.52	55.7259
1347.11	54.9735
1348.7	53.726
1350.29	52.5648
1351.87	51.1842
1353.46	51.8303
1355.05	50.4364
1356.64	49.4535
1358.23	47.6681
1359.81	46.7181
1361.4	46.2988
1362.99	45.6214
1364.57	44.4344
1366.16	43.7712
1367.74	42.0972
1369.33	41.3024
1370.91	40.3426
1372.5	39.8403
1374.08	39.3796
1375.67	40.124
1377.25	39.2155
1378.83	40.2111
1380.42	40.7154
1382	39.9048
1383.58	40.1303
1385.16	39.7501
1386.75	40.287
1388.33	38.8015
1389.91	38.2273
1391.49	38.2319
1393.07	37.576
1394.65	37.5449
1396.23	37.8539
1397.81	36.6678
1399.39	37.0973
1400.97	36.6378
1402.55	36.0914
1404.13	35.7218
1405.7	34.8552
1407.28	34.5038
1408.86	34.0615
1410.44	34.4996
1412.01	35.2145
1413.59	35.9397
1415.17	37.1284
1416.74	37.3891
1418.32	38.3393
1419.89	40.4084
1421.47	41.787
1423.05	42.5527
1424.62	44.7048
1426.19	46.055
1427.77	48.1875
1429.34	51.551
1430.92	53.5809
1432.49	55.3788
1434.06	56.7722
1435.63	57.8169
1437.2	59.4804
1438.78	60.2334
1440.35	61.7888
1441.92	62.6347
1443.49	64.4001
1445.06	65.3353
1446.63	65.7911
1448.2	67.1454
1449.77	67.3212
1451.34	67.4882
1452.91	67.9227
1454.48	67.8565
1456.05	66.7878
1457.62	66.7394
1459.18	66.897
1460.75	65.8552
1462.32	66.0003
1463.89	65.4362
1465.45	64.5123
1467.02	63.2822
1468.59	63.0823
1470.15	62.9876
1471.72	62.4215
1473.28	61.3474
1474.85	60.1921
1476.41	58.911
1477.98	58.3529
1479.54	56.9614
1481.11	55.6844
1482.67	54.7978
1484.23	52.9472
1485.8	52.5623
1487.36	51.4748
1488.92	51.6193
1490.48	51.5018
1492.05	50.4616
1493.61	49.9751
1495.17	49.0789
1496.73	49.2779
1498.29	48.7685
1499.85	46.8894
1501.41	46.4449
1502.97	46.0002
1504.53	44.9482
1506.09	43.5636
1507.65	42.2491
1509.2	40.3813
1510.76	38.593
1512.32	37.1316
1513.88	34.7285
1515.44	33.3327
1516.99	31.1389
1518.55	30.7039
1520.1	28.7283
1521.66	28.4313
1523.22	26.5456
1524.77	24.9773
1526.33	24.04
1527.88	23.1907
1529.44	22.4003
1530.99	21.9151
1532.55	20.7347
1534.1	19.8028
1535.65	19.2415
1537.21	19.9815
1538.76	19.47
1540.31	19.8204
1541.86	20.3384
1543.42	19.8683
1544.97	20.4667
1546.52	20.683
1548.07	20.5011
1549.62	21.1124
1551.17	21.2184
1552.72	22.1492
1554.27	23.8151
1555.82	24.6566
1557.37	25.5924
1558.92	27.8663
1560.47	29.6827
1562.02	29.7628
1563.57	31.5835
1565.11	32.1323
1566.66	33.0628
1568.21	33.1795
1569.75	33.0085
1571.3	34.5572
1572.85	35.2985
1574.39	35.368
1575.94	36.5393
1577.49	37.2294
1579.03	38.9787
1580.58	39.0639
1582.12	39.5432
1583.67	40.338
1585.21	40.9887
1586.75	41.0324
1588.3	41.4508
1589.84	41.8425
1591.38	42.2542
1592.93	42.6708
1594.47	42.814
1596.01	43.0715
1597.55	42.3257
1599.09	42.8881
1600.63	42.0065
1602.18	42.1365
1603.72	42.4388
1605.26	42.2365
1606.8	41.7592
1608.34	41.7025
1609.87	41.2571
1611.41	41.0569
1612.95	40.892
1614.49	41.1013
1616.03	40.9179
1617.57	41.743
1619.11	41.7443
1620.64	40.6943
1622.18	40.9616
1623.72	40.7657
1625.25	41.6845
1626.79	43.0229
1628.32	43.2152
1629.86	43.5354
1631.4	45.0805
1632.93	46.0035
1634.47	46.5375
1636	48.092
1637.53	47.4396
1639.07	46.979
1640.6	48.311
1642.14	48.5356
1643.67	49.3209
1645.2	50.4862
1646.73	50.9636
1648.27	52.2058
1649.8	52.1999
1651.33	52.6108
1652.86	53.7388
1654.39	54.0634
1655.92	54.4032
1657.45	54.8803
1658.98	54.6104
1660.51	54.4494
1662.04	53.5979
1663.57	53.2277
1665.1	51.9944
1666.63	51.4027
1668.16	50.3488
1669.69	48.9377
1671.21	47.8455
1672.74	47.0484
1674.27	45.8476
1675.79	44.758
1677.32	43.8685
1678.85	42.9895
1680.37	41.9349
1681.9	39.7951
1683.42	37.9631
1684.95	36.107
1686.47	33.9547
1688	31.3369
1689.52	29.2634
1691.05	27.9925
1692.57	26.2385
1694.1	24.2154
1695.62	21.9783
1697.14	20.2738
1698.66	18.6035
1700.19	16.3583
1701.71	15.0074
1703.23	14.0188
1704.75	12.5644
1706.27	11.5131
1707.79	11.0986
1709.32	10.2297
1710.83	8.87634
1712.35	8.45837
1713.88	7.34783
1715.39	6.90698
1716.91	6.59125
1718.43	5.34061
1719.95	5.0051
1721.47	3.86893
1722.99	2.95143
1724.5	3.34899
1726.02	3.62456
1727.54	3.60332
1729.06	3.78898
1730.57	2.92252
1732.09	2.51734
1733.61	1.87748
1735.12	1.20243
1736.64	1.12919
1738.15	0.66104
1739.67	0.635448
1741.18	0.560568
1742.7	1.48035
1744.21	1.38558
1745.72	2.11062
1747.24	1.76349
1748.75	1.93646
1750.26	2.07341
1751.78	2.69618
1753.29	3.30278
1754.8	2.62591
1756.31	2.55668
1757.82	2.06086
1759.34	2.05323
1760.85	1.84689
1762.36	1.65875
1763.87	1.53679
1765.38	1.54166
1766.89	1.69664
1768.4	1.43898
1769.91	1.6683
1771.41	1.81588
1772.92	1.70335
1774.43	1.35677
1775.94	1.57281
1777.45	2.56894
1778.96	2.93836
1780.46	2.71385
1781.97	2.94934
1783.48	2.94979
1784.98	3.2448
1786.49	3.44518
1788	3.4963
1789.5	3.64126
1791.01	3.56615
1792.51	3.3664
1794.01	3.27856
1795.52	3.97552
1797.02	3.95257
1798.53	4.19924
1800.03	4.34054
1801.54	4.05369
1803.04	3.30799
1804.54	2.92048
1806.04	2.445
1807.54	2.716
1809.05	2.77573
1810.55	3.4367
1812.05	3.5514
1813.55	3.48757
1815.05	4.05263
1816.55	4.12707
1818.05	4.41864
1819.55	4.61982
1821.05	4.52766
1822.55	4.70981
1824.05	5.6167
1825.55	5.57575
1827.05	5.3031
1828.55	5.38136
1830.04	5.40729
1831.54	5.38282
1833.04	5.13653
1834.54	5.47017
1836.03	6.46708
1837.53	7.55128
1839.03	7.96433
1840.52	8.01853
1842.02	8.36234
1843.51	8.59813
1845.01	8.94387
1846.5	9.26223
1848	9.61938
1849.49	9.32069
1850.99	9.34391
1852.48	9.42722
1853.97	9.00995
1855.47	9.52031
1856.96	10.1666
1858.45	10.1676
1859.94	10.7136
1861.44	10.2484
1862.93	9.51393
1864.42	9.20693
1865.91	8.95333
1867.4	8.70676
1868.89	8.49697
1870.38	8.75369
1871.87	8.26413
1873.36	7.877
1874.85	7.07406
1876.34	6.72733
1877.83	6.37905
1879.32	5.79367
1880.81	5.15595
1882.3	4.60136
1882.56	4.29801
1884.06	3.77565
1885.55	3.38089
1887.04	3.28445
1888.54	3.11188
1890.03	2.69597
1891.52	2.82113
1893.02	2.52775
1894.51	3.0769
1896	3.99791
1897.49	3.32667
1898.99	2.89912
1900.48	2.93606
1901.97	3.72494
1903.46	4.4122
1904.95	4.46731
1906.44	5.79814
1907.93	6.64237
1909.42	6.04416
1910.91	5.33447
1912.4	5.04379
1913.89	5.24769
1915.38	5.52069
1916.86	5.79384
1918.35	6.02746
1919.84	5.78125
1921.33	5.45721
1922.82	5.05566
1924.3	5.51674
1925.79	5.73336
1927.28	5.86084
1928.76	5.97652
1930.25	5.74876
1931.74	4.61122
1933.22	4.29009
1934.71	3.18599
1936.19	2.97255
1937.67	2.70281
1939.16	2.05786
1940.64	1.55173
1942.13	1.51365
1943.61	1.30178
1945.09	0.678485
1946.58	0.258911
1948.06	-0.295618
1949.54	0.379852
1951.03	0.758172
1952.51	0.574596
1953.99	0.767669
1955.47	0.577678
1956.95	1.15915
1958.43	1.88538
1959.91	2.09422
1961.39	2.51923
1962.87	2.58514
1964.35	3.48409
1965.83	4.24273
1967.31	4.35873
1968.79	4.54551
1970.27	4.50113
1971.75	4.20356
1973.22	5.12678
1974.7	5.61677
1976.18	6.29408
1977.66	5.82783
1979.13	5.12791
1980.61	5.44785
1982.09	4.61874
1983.56	4.4083
1985.04	4.75555
1986.52	5.30947
1987.99	5.05843
1989.47	4.46175
1990.94	4.21507
1992.41	3.75899
1993.89	3.4588
1995.36	3.66481
1996.84	3.48443
1998.31	3.77155
1999.78	4.31035
2001.26	3.68742
2002.73	3.70974
2004.2	3.76109
2005.67	3.2005
2007.15	3.59673
2008.62	3.72501
2010.09	3.30894
2011.56	2.48187
2013.03	2.94022
2014.5	2.92937
2015.97	3.84791
2017.44	4.48663
2018.91	4.92237
2020.38	5.07606
2021.85	5.06945
2023.32	5.47768
2024.79	5.38931
2026.25	5.49596
2027.72	5.58897
2029.19	5.60347
2030.66	6.65153
2032.13	6.92669
2033.59	7.17112
2035.06	6.84839
2036.53	7.00491
2037.99	7.52073
2039.46	7.67555
2040.92	7.65909
2042.39	7.60275
2043.85	8.38138
2045.32	8.85604
2046.78	8.54696
2048.25	8.00467
2049.71	7.70217
2051.18	7.61581
2052.64	8.39486
2054.1	9.05629
2055.56	9.28005
2057.03	9.17535
2058.49	8.89372
2059.95	8.87849
2061.42	8.61934
2062.88	8.3528
2064.34	8.09466
2065.8	8.37436
2067.26	9.38645
2068.72	9.71144
2070.18	9.90931
2071.64	10.1478
2073.1	10.7955
2074.56	10.5784
2076.02	11.5919
2077.48	11.622
2078.94	12.0731
2080.39	12.5068
2081.85	12.6417
2083.31	11.5292
2084.77	12.1801
2086.22	12.8463
2087.68	12.9323
2089.14	13.3921
2090.6	13.0396
2092.05	12.0866
2093.51	11.4373
2094.96	10.9653
2096.42	11.6056
2097.87	11.7502
2099.33	11.8741
2100.78	11.7185
2102.24	12.0317
2103.69	11.8684
2105.15	11.6752
2106.6	11.9249
2108.05	11.3839
2109.51	11.9283
2110.96	11.8301
2112.41	11.4444
2113.86	10.445
2115.32	10.2365
2116.77	10.8481
2118.22	10.2065
2119.67	10.2512
2121.12	11.1623
2122.57	11.4016
2124.02	11.4623
2125.47	11.8514
2126.92	11.6576
2128.37	10.8795
2129.82	10.3775
2131.27	10.582
2132.72	10.6085
2134.17	10.9138
