#Acq. time (s)=	45
#Accumulations=	2
#Range (cm-¹)=	200...3150
#Windows=	2
#Auto scanning=	Off
#Autofocus=	Off
#Macrospot=	Off
#AutoExposure=	Off
#Spike filter=	Multiple accum.
#Delay time (s)=	0
#Binning=	1
#Readout mode=	Signal
#DeNoise=	Off
#ICS correction=	On
#Dark correction=	Off
#Inst. Process=	Off
#Detector Gain=	Best Dynamic Range
#Detector ADC=	20 kHz       
#Detector temperature (°C)=	-69.85
#Instrument=	LabRAM HR Evol
#Detector=	Synapse
#Objective=	x100
#Grating=	600 gr/mm
#ND Filter=	100%
#Laser (nm)=	532 
#Hole=	100.021
#Range=	Auto
#Laser Pol.=	No
#Raman. Pol.=	No
#Laser Pol. (°)=	-0.0007625
#Raman Pol. (°)=	89.9995
#Collection=	Microscope
#StageXY=	Marzhauser
#StageZ=	Marzhauser
#X (µm)=	-612.9
#Y (µm)=	-1580.8
#Z (µm)=	89.85
#Full time(mm:ss)=	3:18
#Project=	
#Sample=	
#Site=	
#Title=	Mb_10_14_25_2x_45s_532 nm_x100_100%_600 gr_mm
#Remark=	
#Date=	11.07.2022 10:24
#Acquired=	11.07.2022 10:24:35
#Base:Fit=	10.08.2022 10:21:11
#Base:Sub=	10.08.2022 10:21:41
#Filter:Polynom=	16.08.2022 10:17:53
#AxisType[0]=Intens
#AxisUnit[0]=Cnt
#AxisType[1]=Spectr
#AxisUnit[1]=1/cm
200.388	2.71966
202.204	3.91609
204.019	3.33103
205.832	3.03891
207.646	2.39965
209.459	1.99118
211.274	2.12271
213.087	2.76227
214.899	3.4811
216.711	4.38676
218.524	5.82801
220.335	6.98484
222.146	8.1366
223.956	9.74242
225.766	10.6583
227.576	11.8607
229.388	12.7733
231.197	13.6608
233.005	16.0093
234.813	16.9524
236.621	17.388
238.429	17.1401
240.236	18.7109
242.045	20.022
243.852	20.9753
245.658	21.3262
247.464	21.783
249.269	22.6125
251.074	23.1673
252.879	23.4005
254.683	23.6561
256.487	24.0128
258.291	24.5243
260.094	24.5334
261.897	24.9838
263.702	25.6573
265.504	27.0698
267.306	26.7387
269.108	26.8542
270.909	27.4034
272.71	26.2313
274.511	26.0567
276.311	25.4553
278.111	24.253
279.91	23.7613
281.709	23.4807
283.508	23.1891
285.306	22.785
287.105	22.0111
288.9	21.5817
290.698	20.392
292.495	20.6089
294.291	20.492
296.088	20.3802
297.884	20.4099
299.679	21.1643
301.475	21.8701
303.27	21.6167
305.064	22.2708
306.858	22.3852
308.652	22.4821
310.444	21.5533
312.237	21.0436
314.03	20.4183
315.822	19.7327
317.615	19.9501
319.406	19.6506
321.198	19.2786
322.987	18.6668
324.778	17.6032
326.568	16.7731
328.358	16.6777
330.148	17.308
331.935	15.9996
333.724	15.3429
335.513	14.5277
337.301	14.1765
339.089	13.8665
340.875	13.0122
342.662	12.0024
344.449	12.1935
346.236	12.4203
348.02	12.7558
349.806	11.8964
351.592	11.9228
353.375	10.9782
355.16	10.3835
356.944	10.0459
358.728	11.314
360.51	11.867
362.294	12.0619
364.077	13.4994
365.858	13.0542
367.64	14.1352
369.422	14.9854
371.202	16.8748
372.983	18.029
374.764	18.3161
376.543	18.648
378.324	20.2045
380.102	21.4828
381.881	22.569
383.661	23.7918
385.438	25.1129
387.216	26.0936
388.993	26.5521
390.771	27.0407
392.548	27.088
394.324	28.3716
396.101	27.2543
397.875	28.3564
399.651	27.4584
401.425	27.7511
403.201	27.4508
404.974	27.8808
406.749	27.084
408.524	26.3063
410.296	26.5063
412.07	26.4214
413.841	26.6441
415.614	25.5184
417.385	25.3802
419.156	24.3103
420.928	22.8897
422.698	21.9648
424.469	20.8576
426.238	19.5225
428.009	17.7478
429.777	16.8297
431.548	16.0802
433.315	15.1096
435.083	13.7549
436.852	12.1026
438.618	10.4397
440.387	10.4639
442.153	9.62647
443.919	8.83823
445.686	9.11814
447.451	8.32288
449.218	7.63278
450.982	7.77033
452.746	7.31964
454.512	5.49802
456.275	5.59741
458.038	6.16605
459.803	6.94559
461.565	5.91214
463.327	5.2402
465.091	5.25736
466.852	5.44378
468.613	4.69253
470.374	4.69886
472.136	5.29094
473.896	4.30447
475.655	4.37642
477.415	4.67181
479.176	6.36635
480.934	7.49989
482.692	8.57444
484.45	9.26868
486.21	10.1765
487.967	9.2659
489.724	10.4741
491.481	12.0817
493.237	13.2657
494.995	14.7012
496.75	16.228
498.506	17.2491
500.26	17.3624
502.015	18.2663
503.769	18.7136
505.525	19.3396
507.279	19.5186
509.032	20.0129
510.785	21.0163
512.537	21.958
514.289	21.1555
516.041	22.196
517.793	21.9105
519.546	22.3385
521.297	21.9231
523.047	22.9691
524.797	22.7207
526.547	22.4123
528.297	22.9217
530.046	21.8274
531.795	21.2332
533.543	21.9341
535.291	21.7693
537.039	21.7732
538.787	20.5502
540.534	19.4001
542.281	17.514
544.027	16.7414
545.773	16.878
547.519	15.4315
549.264	13.8173
551.01	13.046
552.754	11.8566
554.499	11.9454
556.243	11.1794
557.987	10.6263
559.73	9.48173
561.474	8.63935
563.216	8.73247
564.959	8.75502
566.701	8.01804
568.441	6.63439
570.182	6.46088
571.923	5.25441
573.664	4.47521
575.405	4.29562
577.145	3.96845
578.885	4.23727
580.624	2.70485
582.361	2.75368
584.1	1.38731
585.839	1.74205
587.577	1.82683
589.315	2.31146
591.052	2.75823
592.787	2.7414
594.524	2.78158
596.26	1.95911
597.997	1.45147
599.732	1.02085
601.466	0.152889
603.201	1.06008
604.936	0.445961
606.67	1.73434
608.403	1.86841
610.136	1.80823
611.87	1.98817
613.603	1.91022
615.334	2.75737
617.067	3.83583
618.799	5.25782
620.529	6.05312
622.26	6.43279
623.991	6.11911
625.72	7.03575
627.451	7.45734
629.181	7.45798
630.909	8.27047
632.638	9.43139
634.368	9.45057
636.095	9.68741
637.823	9.59946
639.551	9.96389
641.277	10.7301
643.005	10.4715
644.73	11.0108
646.457	11.9336
648.184	12.316
649.908	12.4955
651.634	12.3379
653.357	11.6831
655.083	10.709
656.806	10.4035
658.53	9.85444
660.253	10.2407
661.977	9.6041
663.7	9.36967
665.422	9.40048
667.145	8.51313
668.865	9.14585
670.588	7.85264
672.308	7.56196
674.027	7.82755
675.749	8.41354
677.468	8.9296
679.188	8.20746
680.907	7.93386
682.627	7.82807
684.345	8.2517
686.064	8.29365
687.781	8.94104
689.498	10.0434
691.216	10.3951
692.932	11.4713
694.65	11.576
696.366	11.5587
698.081	12.3882
699.797	13.3922
701.512	15.9198
703.228	16.6571
704.942	16.6323
706.655	16.875
708.371	18.0097
710.083	18.3244
711.796	19.3557
713.51	18.7193
715.222	20.4045
716.934	20.653
718.645	22.6078
720.358	23.2567
722.068	24.1154
723.779	25.1254
725.49	26.4776
727.2	27.5978
728.909	28.7429
730.618	30.1244
732.329	31.6161
734.037	31.8214
735.745	32.3532
737.453	32.572
739.16	32.4956
740.869	31.9319
742.576	33.1599
744.282	35.4549
745.988	35.7816
747.694	36.1635
749.401	37.9751
751.107	39.4509
752.811	41.2739
754.516	43.6838
756.22	44.9517
757.924	47.3014
759.627	49.0158
761.332	50.1735
763.035	51.4581
764.738	51.8359
766.44	52.3176
768.142	53.1443
769.843	54.1165
771.544	55.4344
773.245	56.9648
774.946	56.9866
776.646	58.3479
778.346	59.7388
780.046	60.6118
781.745	61.4722
783.444	62.9245
785.143	64.259
786.841	64.3972
788.539	64.2269
790.237	64.2474
791.934	64.8323
793.631	66.0009
795.328	66.617
797.024	67.0673
798.72	67.4035
800.416	67.9775
802.112	68.2442
803.807	68.8816
805.502	68.5904
807.196	68.8857
808.89	68.5926
810.584	68.5629
812.278	68.671
813.971	69.307
815.664	69.8858
817.354	69.5619
819.047	68.0705
820.739	67.6891
822.43	67.1615
824.122	66.9839
825.813	67.4965
827.503	69.0413
829.192	69.727
830.882	69.4051
832.571	70.3381
834.261	71.0465
835.95	69.8777
837.637	69.316
839.325	68.8733
841.013	66.8209
842.701	64.7939
844.389	63.1514
846.074	62.7234
847.761	61.0074
849.447	59.1563
851.131	58.298
852.817	57.5763
854.503	56.493
856.188	55.3609
857.871	53.6496
859.556	52.134
861.24	51.2277
862.922	49.8856
864.606	48.3033
866.289	46.6057
867.97	45.7413
869.653	44.3304
871.336	43.7746
873.016	43.2534
874.698	42.7078
876.379	42.8675
878.058	41.857
879.739	40.3811
881.418	39.1535
883.098	38.9902
884.778	39.0888
886.456	38.6731
888.135	37.3845
889.812	37.548
891.49	37.1778
893.167	36.4285
894.845	37.4575
896.523	38.1536
898.198	38.1104
899.875	37.5906
901.55	36.773
903.226	36.8852
904.901	37.5745
906.576	37.713
908.25	37.6531
909.925	38.7414
911.598	38.8164
913.271	38.3199
914.945	38.344
916.617	38.382
918.291	37.404
919.962	37.0795
921.635	37.493
923.306	36.9116
924.978	35.0725
926.648	35.2078
928.318	35.0407
929.989	34.6427
931.659	33.5398
933.328	33.9925
934.998	34.19
936.666	33.8783
938.336	33.3525
940.004	32.6351
941.671	32.3897
943.34	31.3671
945.007	30.3948
946.673	30.4055
948.339	29.865
950.007	30.1286
951.672	30.5662
953.337	30.9623
955.004	30.8254
956.669	30.1533
958.333	29.483
959.997	28.0593
961.662	27.9165
963.326	29.6388
964.989	31.1243
966.651	32.5891
968.315	32.9544
969.977	33.3436
971.639	34.1051
973.301	34.8
974.962	34.8478
976.624	34.4481
978.285	35.3378
979.945	35.2467
981.605	34.5843
983.264	35.3534
984.924	35.8404
986.583	35.182
988.243	35.0005
989.901	35.1212
991.56	35.3092
993.217	36.1114
994.875	35.3038
996.532	35.5106
998.188	35.6647
999.845	34.9892
1001.5	33.9657
1003.16	33.4568
1004.81	32.7799
1006.47	31.4043
1008.12	32.0484
1009.78	32.9778
1011.43	32.8407
1013.09	32.5966
1014.74	32.0862
1016.39	32.5917
1018.05	32.8465
1019.7	32.4549
1021.35	31.5999
1023	31.478
1024.65	31.4569
1026.31	30.4855
1027.96	30.5205
1029.61	30.3114
1031.26	29.2242
1032.91	28.9359
1034.56	28.3112
1036.21	28.1615
1037.86	27.3837
1039.51	27.096
1041.16	27.6112
1042.8	27.8925
1044.45	29.4474
1046.1	30.165
1047.75	29.9034
1049.39	29.8148
1051.04	28.6371
1052.69	27.8139
1054.33	26.1865
1055.98	25.0321
1057.62	23.4361
1059.27	22.596
1060.91	21.3974
1062.56	20.7873
1064.2	19.7965
1065.85	19.4004
1067.49	18.2392
1069.13	17.0273
1070.77	17.0795
1072.42	15.9818
1074.06	14.0313
1075.7	12.9919
1077.34	12.2218
1078.98	11.4511
1080.62	10.2266
1082.27	9.12144
1083.91	8.29982
1085.55	8.16172
1087.18	8.35006
1088.82	8.53074
1090.46	9.56869
1092.1	8.98385
1093.74	8.1058
1095.38	7.70476
1097.02	7.65911
1098.65	8.57881
1100.29	9.50788
1101.93	9.23012
1103.56	8.98359
1105.2	8.91872
1106.84	8.87884
1108.47	8.80315
1110.11	9.06128
1111.74	8.38793
1113.38	9.03235
1115.01	9.21866
1116.64	9.39118
1118.28	10.097
1119.91	10.3605
1121.54	10.0737
1123.18	10.1792
1124.81	9.40546
1126.44	9.53965
1128.07	8.54771
1129.7	8.22699
1131.33	7.11652
1132.97	6.5814
1134.6	6.54834
1136.23	6.25501
1137.86	5.60902
1139.49	4.92154
1141.11	5.82651
1142.74	4.66593
1144.37	6.02626
1146	6.79197
1147.63	6.47482
1149.26	6.29097
1150.88	4.83984
1152.51	3.51289
1154.14	3.32788
1155.76	2.83396
1157.39	3.53687
1159.01	3.68418
1160.64	2.56054
1162.27	2.72043
1163.89	2.37166
1165.51	2.68875
1167.14	3.45919
1168.76	3.85036
1170.39	4.56267
1172.01	4.9678
1173.63	5.24452
1175.25	4.78708
1176.88	5.61417
1178.5	5.80379
1180.12	6.71453
1181.74	7.26699
1183.36	6.48753
1184.98	6.99152
1186.6	7.90625
1188.22	9.87008
1189.84	10.542
1191.46	11.0363
1193.08	11.0396
1194.7	12.5402
1196.32	12.8239
1197.94	13.6839
1199.55	14.7174
1201.17	15.9072
1202.79	15.8138
1204.41	16.4742
1206.02	17.3994
1207.64	17.8917
1209.25	18.1458
1210.87	19.8384
1212.48	21.4682
1214.1	23.457
1215.71	23.418
1217.33	23.6949
1218.94	23.9825
1220.56	24.588
1222.17	26.4376
1223.79	26.6595
1225.4	28.3983
1227.01	28.7902
1228.62	28.6928
1230.23	29.7278
1231.85	29.9667
1233.46	30.8296
1235.07	32.6039
1236.68	33.4242
1238.29	34.932
1239.9	35.2141
1241.51	36.238
1243.12	38.5585
1244.73	39.1209
1246.34	40.656
1247.94	40.9607
1249.55	41.2546
1251.16	41.2315
1252.77	41.3215
1254.37	41.0162
1255.98	40.6891
1257.59	41.4298
1259.2	41.7211
1260.8	42.3848
1262.41	42.4523
1264.01	42.8239
1265.62	44.0782
1267.22	43.7842
1268.83	43.6512
1270.43	43.0877
1272.03	43.4113
1273.64	43.6787
1275.24	44.7988
1276.85	43.9251
1278.45	43.2806
1280.05	43.345
1281.65	43.0297
1283.25	43.0966
1284.85	42.7818
1286.46	42.5398
1288.06	42.3063
1289.66	42.9341
1291.26	43.2374
1292.86	43.4597
1294.46	43.3726
1296.06	42.2279
1297.66	43.1265
1299.25	43.5937
1300.85	44.4142
1302.45	44.9963
1304.05	45.0677
1305.65	45.3647
1307.24	46.3382
1308.84	47.5981
1310.43	48.1558
1312.03	49.5854
1313.63	51.2069
1315.22	52.2987
1316.82	53.4293
1318.41	53.6745
1320.01	54.0117
1321.6	55.7915
1323.2	56.9109
1324.79	56.3613
1326.38	56.7914
1327.98	56.828
1329.57	56.1975
1331.16	56.2691
1332.76	56.0311
1334.35	56.1568
1335.94	56.3361
1337.53	56.0447
1339.12	56.7104
1340.71	56.1984
1342.3	55.5124
1343.89	54.9165
1345.48	53.6949
1347.07	52.6618
1348.66	52.0857
1350.25	52.1476
1351.84	51.715
1353.43	51.2421
1355.01	49.524
1356.6	47.7349
1358.19	46.0099
1359.77	45.1639
1361.36	44.4107
1362.95	43.7593
1364.53	41.7999
1366.12	41.0141
1367.71	40.0438
1369.29	39.0681
1370.88	38.137
1372.46	37.7574
1374.04	37.4401
1375.63	37.0251
1377.21	36.9449
1378.8	36.2512
1380.38	35.6968
1381.96	34.8446
1383.54	35.8058
1385.13	35.7833
1386.71	36.6909
1388.29	36.6729
1389.87	36.9729
1391.45	38.3709
1393.03	37.7293
1394.61	37.2417
1396.19	37.8869
1397.77	37.7602
1399.35	38.4664
1400.93	38.3863
1402.51	38.294
1404.09	38.0272
1405.67	38.2155
1407.24	38.2318
1408.82	38.8454
1410.4	41.0381
1411.98	41.748
1413.55	42.9355
1415.13	44.0527
1416.71	45.8374
1418.28	47.9925
1419.86	49.4959
1421.43	51.5676
1423.01	53.7921
1424.58	55.6019
1426.16	58.3005
1427.73	60.644
1429.31	63.2777
1430.88	65.037
1432.45	66.2418
1434.02	66.4805
1435.6	68.3205
1437.17	69.2433
1438.74	70.572
1440.31	70.8695
1441.88	71.836
1443.45	71.6299
1445.03	72.571
1446.6	73.3607
1448.17	74.7305
1449.74	75.0533
1451.3	75.4438
1452.87	75.8606
1454.44	75.8283
1456.01	74.339
1457.58	73.9007
1459.15	73.7825
1460.72	73.1031
1462.28	72.9209
1463.85	71.9327
1465.42	71.1562
1466.98	69.9736
1468.55	68.7811
1470.12	66.8445
1471.68	64.6218
1473.25	62.6285
1474.81	60.6211
1476.38	58.2746
1477.94	56.1733
1479.51	53.7185
1481.07	52.1042
1482.63	50.4271
1484.2	48.6412
1485.76	47.6215
1487.32	45.9435
1488.88	44.2144
1490.45	42.5651
1492.01	41.9511
1493.57	42.4325
1495.13	42.4612
1496.69	41.8145
1498.25	41.5945
1499.81	41.2244
1501.37	40.6818
1502.93	39.3257
1504.49	38.9027
1506.05	37.8663
1507.61	36.696
1509.17	35.5953
1510.73	34.2768
1512.28	32.6089
1513.84	32.1815
1515.4	30.9682
1516.96	29.9473
1518.51	29.7933
1520.07	29.6352
1521.63	28.5506
1523.18	28.9416
1524.74	28.3162
1526.29	27.8331
1527.85	26.9345
1529.4	27.1675
1530.96	26.9665
1532.51	26.8282
1534.06	25.9739
1535.62	25.9098
1537.17	26.232
1538.72	25.9705
1540.28	26.6131
1541.83	26.8314
1543.38	27.4658
1544.93	28.1388
1546.48	27.6984
1548.03	27.6128
1549.59	28.4096
1551.14	28.79
1552.69	28.9249
1554.24	29.2318
1555.79	29.5289
1557.34	29.3291
1558.88	29.882
1560.43	30.4935
1561.98	30.3788
1563.53	31.1713
1565.08	32.2049
1566.62	34.0053
1568.17	35.098
1569.72	36.0941
1571.27	37.1378
1572.81	36.6942
1574.36	36.78
1575.9	37.188
1577.45	37.7563
1579	37.576
1580.54	38.2814
1582.09	39.6052
1583.63	40.068
1585.17	40.3288
1586.72	40.8853
1588.26	41.4104
1589.8	42.5471
1591.35	43.5057
1592.89	44.152
1594.43	45.2706
1595.97	45.8096
1597.52	45.3354
1599.06	45.4013
1600.6	45.481
1602.14	45.7349
1603.68	46.4164
1605.22	45.613
1606.76	45.5588
1608.3	45.06
1609.84	45.5302
1611.38	45.5731
1612.92	45.5961
1614.46	45.9665
1615.99	46.3211
1617.53	46.9408
1619.07	46.7683
1620.61	47.6598
1622.14	47.7765
1623.68	47.7884
1625.22	48.8219
1626.75	50.6563
1628.29	51.2923
1629.82	51.7393
1631.36	52.9459
1632.9	53.3516
1634.43	53.9872
1635.96	55.7032
1637.5	56.3751
1639.03	57.6644
1640.57	59.5714
1642.1	60.9701
1643.63	61.6927
1645.16	62.1416
1646.7	63.188
1648.23	63.5492
1649.76	64.0672
1651.29	65.103
1652.82	66.5099
1654.36	67.0413
1655.89	66.9955
1657.42	67.2125
1658.95	67.977
1660.48	67.6726
1662.01	68.2887
1663.53	68.4315
1665.06	68.7983
1666.59	68.0235
1668.12	66.1051
1669.65	65.1039
1671.18	64.1492
1672.7	62.8304
1674.23	61.255
1675.76	59.1412
1677.29	57.1896
1678.81	56.2041
1680.34	53.9118
1681.86	51.245
1683.39	49.5308
1684.91	47.8102
1686.44	45.4
1687.96	42.6041
1689.49	39.9784
1691.01	37.9893
1692.54	36.3648
1694.06	34.2293
1695.58	32.2283
1697.11	31.2118
1698.63	29.8584
1700.15	28.8387
1701.67	27.1597
1703.2	25.7674
1704.72	23.2464
1706.24	21.8415
1707.76	20.7292
1709.28	19.1414
1710.8	17.5396
1712.32	16.6338
1713.84	15.4016
1715.36	15.461
1716.88	14.7411
1718.4	13.9402
1719.91	13.4435
1721.43	13.3154
1722.95	13.3245
1724.47	12.3908
1725.99	11.9252
1727.5	11.805
1729.02	11.3081
1730.54	10.5393
1732.05	10.5734
1733.57	11.0231
1735.09	11.1276
1736.6	10.122
1738.12	10.3183
1739.63	9.43353
1741.15	9.51844
1742.66	9.15249
1744.18	9.4572
1745.69	9.97343
1747.2	10.5513
1748.72	10.3657
1750.23	10.1809
1751.74	9.50857
1753.25	10.4835
1754.77	10.8815
1756.28	10.2965
1757.79	10.2882
1759.3	10.2816
1760.81	10.1717
1762.32	9.85546
1763.83	10.0204
1765.34	9.79212
1766.85	9.5607
1768.36	9.68664
1769.87	9.98229
1771.38	10.7095
1772.89	10.8697
1774.4	11.0527
1775.91	10.9676
1777.41	10.6544
1778.92	10.6747
1780.43	10.7873
1781.94	10.7531
1783.44	10.0996
1784.95	9.41445
1786.45	9.26894
1787.96	9.41808
1789.47	9.44186
1790.97	9.28036
1792.47	8.74338
1793.98	8.79091
1795.48	8.512
1796.99	7.83386
1798.49	7.21551
1800	6.78783
1801.5	6.45781
1803	6.62498
1804.51	6.23047
1806.01	6.34936
1807.51	5.85821
1809.01	5.51639
1810.51	5.17841
1812.02	5.57314
1813.52	5.60138
1815.02	5.03494
1816.52	5.38931
1818.02	5.25648
1819.52	5.56704
1821.02	5.51013
1822.52	5.53668
1824.02	5.92446
1825.51	6.1211
1827.01	6.05207
1828.51	6.57232
1830.01	6.51211
1831.51	6.24123
1833	6.11703
1834.5	6.32155
1836	6.05406
1837.49	6.17628
1838.99	6.5554
1840.49	7.36979
1841.98	8.12245
1843.48	8.56184
1844.97	9.58947
1846.47	10.3612
1847.96	10.2347
1849.46	10.3265
1850.95	10.3459
1852.45	10.247
1853.94	9.40112
1855.43	8.89632
1856.92	8.3017
1858.42	8.2009
1859.91	7.83862
1861.4	7.31426
1862.89	6.90862
1864.39	6.6873
1865.88	7.05736
1867.37	7.23013
1868.86	7.16507
1870.35	6.48479
1871.84	7.03684
1873.33	7.75157
1874.82	7.59373
1876.31	7.88743
1877.8	7.80218
1879.29	7.44896
1880.77	7.05459
1882.26	7.37243
1882.52	8.00466
1884.02	7.62082
1885.51	7.6364
1887.01	7.30224
1888.5	7.16256
1889.99	7.05669
1891.49	6.76386
1892.98	7.11585
1894.47	6.4248
1895.96	6.09191
1897.46	5.85827
1898.95	5.39052
1900.44	4.86993
1901.93	4.20181
1903.42	3.81411
1904.91	3.16383
1906.4	2.93448
1907.89	3.4343
1909.38	2.97442
1910.87	3.66678
1912.36	3.71738
1913.85	4.02469
1915.34	3.33863
1916.83	3.37229
1918.32	3.55097
1919.8	2.74496
1921.29	1.72779
1922.78	1.45526
1924.27	1.33469
1925.75	1.36638
1927.24	1.10845
1928.73	1.12492
1930.21	1.49819
1931.7	2.04563
1933.18	2.16326
1934.67	2.54544
1936.15	3.48168
1937.64	3.93087
1939.12	4.68851
1940.61	4.31294
1942.09	4.48158
1943.57	4.75091
1945.06	5.16382
1946.54	4.89431
1948.02	4.45971
1949.51	4.69325
1950.99	4.52316
1952.47	4.31175
1953.95	4.84253
1955.43	5.25855
1956.91	4.94339
1958.39	4.50275
1959.87	4.23644
1961.36	4.40528
1962.84	3.87948
1964.32	4.00466
1965.79	4.20468
1967.27	4.07064
1968.75	3.85753
1970.23	3.87823
1971.71	3.85469
1973.19	3.83934
1974.66	3.64993
1976.14	3.38439
1977.62	4.15874
1979.1	4.33472
1980.57	5.08211
1982.05	5.91949
1983.53	5.89353
1985	5.95876
1986.48	5.59673
1987.95	5.29993
1989.43	4.63483
1990.9	5.04038
1992.38	4.74667
1993.85	4.6668
1995.33	5.24512
1996.8	5.5843
1998.27	5.67866
1999.75	5.75857
2001.22	6.24468
2002.69	6.1315
2004.16	6.2399
2005.64	5.72042
2007.11	5.56087
2008.58	5.06139
2010.05	5.02762
2011.52	4.98546
2012.99	4.61002
2014.46	4.03958
2015.93	3.89416
2017.4	3.43077
2018.87	3.44105
2020.34	4.04964
2021.81	3.84614
2023.28	4.10013
2024.75	4.353
2026.22	4.35456
2027.69	4.74714
2029.15	4.82728
2030.62	4.75653
2032.09	5.08066
2033.56	5.13656
2035.02	5.68869
2036.49	5.79381
2037.95	6.59595
2039.42	6.59694
2040.89	7.2074
2042.35	7.23672
2043.82	7.87653
2045.28	8.32342
2046.75	8.79916
2048.21	9.10758
2049.67	9.21078
2051.14	10.1497
2052.6	9.99482
2054.06	10.2109
2055.53	10.6665
2056.99	10.487
2058.45	9.90424
2059.92	9.64831
2061.38	8.9888
2062.84	9.17004
2064.3	9.08761
2065.76	8.41166
2067.22	8.45319
2068.68	8.49506
2070.14	8.69981
2071.6	8.35612
2073.06	7.90475
2074.52	8.11172
2075.98	6.44918
2077.44	6.13664
2078.9	5.8875
2080.36	6.03199
2081.82	5.78639
2083.27	6.41019
2084.73	6.80661
2086.19	6.2939
2087.65	7.02143
2089.1	7.34835
2090.56	7.70747
2092.01	8.2706
2093.47	8.79148
2094.93	8.43177
2096.38	9.2087
2097.84	9.3173
2099.29	9.6423
2100.75	9.38545
2102.2	9.63037
2103.66	9.62566
2105.11	10.117
2106.56	10.2673
2108.02	10.6063
2109.47	11.0365
2110.92	11.1944
2112.37	10.8737
2113.83	11.4795
2115.28	12.1815
2116.73	13.0459
2118.18	13.5584
2119.63	14.3063
2121.09	14.4552
2122.54	14.6068
2123.99	15.5016
2125.44	15.4061
2126.89	16.0082
2128.34	16.7767
2129.79	16.6909
2131.23	16.5577
2132.68	16.545
2134.13	17.1323
2135.58	17.4652
2137.03	17.626
