#Acq. time (s)=	45
#Accumulations=	2
#Range (cm-¹)=	200...3150
#Windows=	2
#Auto scanning=	Off
#Autofocus=	Off
#Macrospot=	Off
#AutoExposure=	Off
#Spike filter=	Multiple accum.
#Delay time (s)=	0
#Binning=	1
#Readout mode=	Signal
#DeNoise=	Off
#ICS correction=	On
#Dark correction=	Off
#Inst. Process=	Off
#Detector Gain=	Best Dynamic Range
#Detector ADC=	20 kHz       
#Detector temperature (°C)=	-69.85
#Instrument=	LabRAM HR Evol
#Detector=	Synapse
#Objective=	x100
#Grating=	600 gr/mm
#ND Filter=	100%
#Laser (nm)=	532 
#Hole=	100.021
#Range=	Auto
#Laser Pol.=	No
#Raman. Pol.=	No
#Laser Pol. (°)=	-0.0007625
#Raman Pol. (°)=	89.9995
#Collection=	Microscope
#StageXY=	Marzhauser
#StageZ=	Marzhauser
#X (µm)=	-638.6
#Y (µm)=	-1694.4
#Z (µm)=	88.9
#Full time(mm:ss)=	3:18
#Project=	
#Sample=	
#Site=	
#Title=	Mb_10_14_48_2x_45s_532 nm_x100_100%_600 gr_mm
#Remark=	
#Date=	11.07.2022 12:16
#Acquired=	11.07.2022 12:16:55
#Base:Fit=	10.08.2022 10:21:11
#Base:Sub=	10.08.2022 10:21:41
#Filter:Polynom=	16.08.2022 10:17:53
#AxisType[0]=Intens
#AxisUnit[0]=Cnt
#AxisType[1]=Spectr
#AxisUnit[1]=1/cm
200.388	16.4913
202.204	16.2003
204.019	15.259
205.832	13.2365
207.646	10.9654
209.459	8.86682
211.274	7.05152
213.087	5.47211
214.899	5.47558
216.711	5.61354
218.524	6.88314
220.335	7.30867
222.146	7.96017
223.956	9.45038
225.766	10.7043
227.576	10.8793
229.388	12.3783
231.197	14.0714
233.005	16.1227
234.813	16.4603
236.621	16.9615
238.429	18.8529
240.236	20.0459
242.045	20.7857
243.852	21.6347
245.658	23.275
247.464	24.4059
249.269	25.979
251.074	27.2218
252.879	27.3951
254.683	29.2346
256.487	29.4118
258.291	31.5151
260.094	33.1238
261.897	34.9236
263.702	35.5863
265.504	36.5511
267.306	37.1885
269.108	37.7285
270.909	36.8689
272.71	37.0815
274.511	38.1409
276.311	38.4562
278.111	38.6084
279.91	38.7598
281.709	36.9981
283.508	37.0645
285.306	36.1511
287.105	35.0821
288.9	34.6917
290.698	34.7355
292.495	33.8509
294.291	32.44
296.088	32.4428
297.884	32.7278
299.679	32.1655
301.475	31.9183
303.27	32.0591
305.064	33.2023
306.858	33.0467
308.652	32.965
310.444	32.456
312.237	31.7482
314.03	30.8634
315.822	30.0328
317.615	28.6074
319.406	28.3895
321.198	28.124
322.987	26.8098
324.778	25.612
326.568	25.6684
328.358	25.403
330.148	24.7594
331.935	23.763
333.724	23.6038
335.513	22.7983
337.301	22.1041
339.089	22.4113
340.875	21.9592
342.662	20.9952
344.449	22.1128
346.236	22.0323
348.02	22.7236
349.806	21.9102
351.592	23.1214
353.375	23.8526
355.16	25.1259
356.944	25.6602
358.728	26.7355
360.51	27.6984
362.294	29.2185
364.077	29.9459
365.858	29.8535
367.64	29.9744
369.422	30.6236
371.202	31.4282
372.983	33.9106
374.764	34.317
376.543	35.4139
378.324	36.9167
380.102	37.5853
381.881	38.3072
383.661	37.7008
385.438	39.363
387.216	40.59
388.993	40.4616
390.771	40.8223
392.548	41.7759
394.324	41.5394
396.101	40.8464
397.875	40.282
399.651	39.7999
401.425	38.9181
403.201	38.0704
404.974	37.7835
406.749	36.9999
408.524	36.1005
410.296	35.1322
412.07	33.9629
413.841	33.7838
415.614	33.8404
417.385	33.3934
419.156	32.9992
420.928	31.2641
422.698	30.8892
424.469	29.5821
426.238	29.0808
428.009	28.9623
429.777	27.488
431.548	26.8636
433.315	27.3034
435.083	25.9088
436.852	25.4404
438.618	25.1065
440.387	25.8545
442.153	24.6998
443.919	23.8606
445.686	23.4594
447.451	23.2965
449.218	23.1626
450.982	23.2227
452.746	22.6979
454.512	23.4994
456.275	24.4047
458.038	25.9515
459.803	26.3786
461.565	26.1791
463.327	25.9242
465.091	26.1172
466.852	26.6865
468.613	26.9444
470.374	25.8356
472.136	25.3001
473.896	26.3311
475.655	26.4815
477.415	25.7786
479.176	25.5395
480.934	25.6622
482.692	25.4268
484.45	25.1018
486.21	25.3346
487.967	25.9683
489.724	26.2371
491.481	25.8339
493.237	25.9955
494.995	25.6629
496.75	26.0408
498.506	26.913
500.26	27.6438
502.015	28.195
503.769	28.2789
505.525	27.9482
507.279	27.1566
509.032	26.3274
510.785	26.1215
512.537	25.4956
514.289	25.7179
516.041	25.1024
517.793	23.8214
519.546	23.8846
521.297	23.2149
523.047	22.9728
524.797	23.3599
526.547	23.8437
528.297	23.5061
530.046	22.8649
531.795	23.0638
533.543	22.4917
535.291	21.577
537.039	21.177
538.787	20.3085
540.534	19.4181
542.281	19.7464
544.027	18.7816
545.773	18.3102
547.519	16.5184
549.264	14.834
551.01	14.6015
552.754	13.9484
554.499	12.7655
556.243	11.2812
557.987	10.0744
559.73	9.34158
561.474	8.48248
563.216	7.40396
564.959	6.43944
566.701	5.85509
568.441	6.41882
570.182	6.23637
571.923	4.98352
573.664	6.05454
575.405	5.55194
577.145	5.71961
578.885	5.21726
580.624	5.76281
582.361	6.09535
584.1	6.82026
585.839	6.28959
587.577	6.41762
589.315	6.14628
591.052	5.91315
592.787	6.13886
594.524	6.42247
596.26	6.14631
597.997	5.49685
599.732	5.67942
601.466	6.25334
603.201	5.84434
604.936	7.1523
606.67	7.97836
608.403	8.36986
610.136	8.09527
611.87	7.75928
613.603	6.58152
615.334	6.31763
617.067	6.0303
618.799	6.13544
620.529	5.14435
622.26	4.3116
623.991	4.96703
625.72	4.86355
627.451	5.28128
629.181	5.21208
630.909	4.71643
632.638	5.26848
634.368	5.03092
636.095	5.04177
637.823	5.86767
639.551	5.49047
641.277	4.59008
643.005	4.4373
644.73	4.72014
646.457	4.57649
648.184	5.73262
649.908	6.84289
651.634	7.33323
653.357	7.76159
655.083	7.979
656.806	8.00547
658.53	8.37611
660.253	10.2905
661.977	10.0306
663.7	11.8285
665.422	11.4075
667.145	12.1484
668.865	11.9097
670.588	11.7728
672.308	11.6521
674.027	12.4494
675.749	13.1227
677.468	14.5869
679.188	14.9963
680.907	15.6022
682.627	15.5001
684.345	16.5781
686.064	17.6802
687.781	18.353
689.498	18.3727
691.216	18.974
692.932	19.1046
694.65	19.4864
696.366	19.055
698.081	20.0575
699.797	20.4317
701.512	21.2332
703.228	20.8542
704.942	21.4045
706.655	21.2737
708.371	22.2825
710.083	23.132
711.796	23.4235
713.51	23.7026
715.222	25.2367
716.934	26.2062
718.645	26.9953
720.358	27.0866
722.068	27.2384
723.779	27.2512
725.49	27.6013
727.2	27.6455
728.909	27.9533
730.618	28.694
732.329	29.0934
734.037	29.6922
735.745	29.6135
737.453	29.4014
739.16	30.2064
740.869	30.826
742.576	31.7512
744.282	32.4284
745.988	32.6909
747.694	32.5925
749.401	33.9411
751.107	34.2975
752.811	35.6977
754.516	36.2915
756.22	37.4441
757.924	39.4595
759.627	40.7664
761.332	41.4995
763.035	42.2563
764.738	43.1196
766.44	44.1362
768.142	45.9379
769.843	47.3105
771.544	47.9707
773.245	49.104
774.946	50.898
776.646	53.1607
778.346	54.6558
780.046	56.0034
781.745	56.5858
783.444	58.2369
785.143	59.0967
786.841	59.4918
788.539	60.7566
790.237	62.059
791.934	63.1298
793.631	63.6761
795.328	63.887
797.024	64.453
798.72	65.2456
800.416	65.8816
802.112	65.5532
803.807	65.9102
805.502	65.485
807.196	65.5275
808.89	64.6557
810.584	64.7542
812.278	64.0476
813.971	64.6626
815.664	65.3436
817.354	64.959
819.047	64.8858
820.739	63.9346
822.43	64.494
824.122	63.9862
825.813	62.7992
827.503	62.6637
829.192	62.792
830.882	61.6882
832.571	61.2769
834.261	61.2977
835.95	60.4713
837.637	59.5062
839.325	58.4854
841.013	57.7391
842.701	57.7024
844.389	56.6165
846.074	55.3094
847.761	55.0005
849.447	54.8673
851.131	54.0296
852.817	54.978
854.503	53.9415
856.188	53.6818
857.871	53.1456
859.556	52.3242
861.24	51.0756
862.922	50.0623
864.606	48.9219
866.289	47.576
867.97	46.3924
869.653	45.2716
871.336	43.1336
873.016	43.151
874.698	41.4065
876.379	40.5262
878.058	38.9887
879.739	38.8656
881.418	38.627
883.098	38.4767
884.778	37.4173
886.456	37.3367
888.135	36.7468
889.812	36.5703
891.49	36.1538
893.167	36.2688
894.845	36.8276
896.523	36.5434
898.198	37.414
899.875	36.5855
901.55	35.8558
903.226	35.9085
904.901	35.6671
906.576	35.9398
908.25	35.0381
909.925	35.4044
911.598	36.3897
913.271	36.0718
914.945	35.9803
916.617	37.4385
918.291	37.2194
919.962	36.9867
921.635	36.5646
923.306	37.4864
924.978	37.7869
926.648	38.1462
928.318	38.0188
929.989	38.2505
931.659	39.2825
933.328	40.0122
934.998	40.046
936.666	39.6285
938.336	38.0075
940.004	37.1872
941.671	35.4637
943.34	34.4137
945.007	33.6986
946.673	32.9026
948.339	31.6119
950.007	30.7879
951.672	30.0203
953.337	29.6203
955.004	29
956.669	29.7598
958.333	28.0566
959.997	27.8526
961.662	27.8848
963.326	28.133
964.989	27.7509
966.651	27.7617
968.315	27.921
969.977	28.5086
971.639	28.1772
973.301	28.5582
974.962	28.0905
976.624	28.7748
978.285	28.9021
979.945	28.3902
981.605	28.2272
983.264	27.4462
984.924	28.0882
986.583	28.0087
988.243	28.6854
989.901	28.8614
991.56	28.7009
993.217	29.1139
994.875	28.8502
996.532	28.2166
998.188	28.2863
999.845	27.2742
1001.5	26.1457
1003.16	26.1791
1004.81	25.9911
1006.47	25.7196
1008.12	24.3934
1009.78	24.2665
1011.43	24.4889
1013.09	24.2425
1014.74	23.6904
1016.39	23.2106
1018.05	21.7322
1019.7	20.1502
1021.35	19.4189
1023	19.5428
1024.65	19.4148
1026.31	19.4457
1027.96	18.9798
1029.61	19.2735
1031.26	19.5259
1032.91	19.7089
1034.56	19.9455
1036.21	20.4411
1037.86	21.1545
1039.51	21.1731
1041.16	20.4863
1042.8	21.0625
1044.45	21.3387
1046.1	20.8792
1047.75	20.3374
1049.39	20.7761
1051.04	20.4252
1052.69	19.6014
1054.33	19.328
1055.98	19.6455
1057.62	19.7273
1059.27	19.6851
1060.91	18.9916
1062.56	17.1469
1064.2	16.1752
1065.85	16.4649
1067.49	16.4676
1069.13	14.723
1070.77	14.5803
1072.42	13.3918
1074.06	11.4862
1075.7	10.9015
1077.34	10.17
1078.98	8.70816
1080.62	8.17832
1082.27	7.02988
1083.91	6.77347
1085.55	5.74649
1087.18	5.2976
1088.82	4.73197
1090.46	4.35712
1092.1	4.39646
1093.74	4.93898
1095.38	3.88984
1097.02	3.21727
1098.65	3.7407
1100.29	4.27132
1101.93	4.96722
1103.56	5.14432
1105.2	5.48818
1106.84	5.52003
1108.47	5.47766
1110.11	5.6161
1111.74	6.36487
1113.38	6.30972
1115.01	6.90152
1116.64	7.29659
1118.28	7.18543
1119.91	6.55753
1121.54	5.39817
1123.18	4.93164
1124.81	5.17315
1126.44	5.49049
1128.07	5.85345
1129.7	5.92236
1131.33	6.38655
1132.97	6.03624
1134.6	6.29182
1136.23	6.37494
1137.86	6.34933
1139.49	5.19791
1141.11	5.01154
1142.74	4.6123
1144.37	4.24402
1146	3.5093
1147.63	3.96001
1149.26	3.00089
1150.88	2.84154
1152.51	3.53732
1154.14	3.13833
1155.76	4.17308
1157.39	4.56353
1159.01	3.67092
1160.64	3.01255
1162.27	3.42438
1163.89	3.02916
1165.51	3.27074
1167.14	3.08985
1168.76	3.09134
1170.39	2.75477
1172.01	2.15107
1173.63	3.09204
1175.25	3.43281
1176.88	3.14331
1178.5	4.08779
1180.12	4.98462
1181.74	5.37497
1183.36	4.94325
1184.98	4.84232
1186.6	5.23818
1188.22	5.82737
1189.84	5.73433
1191.46	6.77588
1193.08	7.04846
1194.7	7.15732
1196.32	7.11913
1197.94	6.88944
1199.55	6.71159
1201.17	6.56889
1202.79	7.71577
1204.41	9.62035
1206.02	10.1064
1207.64	10.1939
1209.25	10.8564
1210.87	11.534
1212.48	11.4242
1214.1	11.1009
1215.71	10.8956
1217.33	10.7357
1218.94	11.8371
1220.56	13.0374
1222.17	14.6014
1223.79	14.9128
1225.4	15.616
1227.01	16.6717
1228.62	18.2856
1230.23	19.2118
1231.85	20.1174
1233.46	20.2143
1235.07	20.8993
1236.68	20.1569
1238.29	19.2148
1239.9	18.5871
1241.51	19.1684
1243.12	19.4454
1244.73	19.7318
1246.34	19.756
1247.94	18.6697
1249.55	19.3596
1251.16	19.9308
1252.77	20.3836
1254.37	20.5866
1255.98	20.4281
1257.59	20.3922
1259.2	19.5689
1260.8	18.8055
1262.41	18.6845
1264.01	17.7595
1265.62	17.4434
1267.22	17.001
1268.83	16.9023
1270.43	17.5376
1272.03	18.0483
1273.64	18.2628
1275.24	18.7978
1276.85	18.78
1278.45	20.3593
1280.05	21.5079
1281.65	22.3132
1283.25	23.4808
1284.85	24.4702
1286.46	23.9568
1288.06	24.5989
1289.66	25.8485
1291.26	26.4985
1292.86	26.8818
1294.46	27.2221
1296.06	28.9713
1297.66	30.3567
1299.25	32.6756
1300.85	33.4484
1302.45	33.6658
1304.05	34.5398
1305.65	35.3695
1307.24	35.2722
1308.84	35.2174
1310.43	35.8899
1312.03	35.0763
1313.63	35.1859
1315.22	34.6533
1316.82	34.3514
1318.41	34.7843
1320.01	34.5305
1321.6	34.7874
1323.2	34.4612
1324.79	34.2428
1326.38	33.6702
1327.98	32.8035
1329.57	32.533
1331.16	31.4997
1332.76	30.2554
1334.35	29.3261
1335.94	29.203
1337.53	27.8186
1339.12	27.2754
1340.71	27.7538
1342.3	27.7262
1343.89	28.155
1345.48	28.5351
1347.07	28.7956
1348.66	29.3662
1350.25	29.9076
1351.84	29.4616
1353.43	29.9049
1355.01	29.4423
1356.6	28.7919
1358.19	28.7586
1359.77	29.0055
1361.36	28.0093
1362.95	27.7763
1364.53	28.0606
1366.12	27.353
1367.71	27.1047
1369.29	27.1028
1370.88	26.6796
1372.46	26.2834
1374.04	26.0247
1375.63	26.8787
1377.21	26.4183
1378.8	26.6981
1380.38	25.7194
1381.96	25.0328
1383.54	25.2751
1385.13	24.6805
1386.71	24.0336
1388.29	24.3789
1389.87	24.345
1391.45	23.531
1393.03	24.0164
1394.61	22.8817
1396.19	23.3078
1397.77	23.1495
1399.35	23.359
1400.93	23.1297
1402.51	22.5143
1404.09	22.7742
1405.67	21.8507
1407.24	21.6509
1408.82	22.9606
1410.4	24.7902
1411.98	26.2746
1413.55	27.6127
1415.13	28.5578
1416.71	29.7851
1418.28	31.2657
1419.86	32.8247
1421.43	33.6285
1423.01	35.4809
1424.58	36.2324
1426.16	37.1962
1427.73	38.4865
1429.31	39.2387
1430.88	41.0047
1432.45	41.9602
1434.02	42.8361
1435.6	43.8952
1437.17	45.6115
1438.74	46.4568
1440.31	46.332
1441.88	48.3869
1443.45	49.3937
1445.03	49.522
1446.6	49.1896
1448.17	49.9591
1449.74	50.3474
1451.3	51.0639
1452.87	50.4877
1454.44	49.9654
1456.01	49.5497
1457.58	48.3847
1459.15	48.2339
1460.72	48.0638
1462.28	48.0994
1463.85	47.5935
1465.42	47.103
1466.98	46.8216
1468.55	45.3141
1470.12	44.1584
1471.68	43.175
1473.25	41.7335
1474.81	41.2526
1476.38	39.5151
1477.94	37.7943
1479.51	36.0268
1481.07	34.8902
1482.63	34.3316
1484.2	33.4306
1485.76	33.1994
1487.32	33.6447
1488.88	32.4575
1490.45	31.2035
1492.01	30.1549
1493.57	29.6793
1495.13	28.3424
1496.69	27.2209
1498.25	26.7438
1499.81	25.446
1501.37	24.8507
1502.93	23.7553
1504.49	22.8978
1506.05	21.9001
1507.61	20.961
1509.17	20.9352
1510.73	20.836
1512.28	20.7594
1513.84	20.677
1515.4	20.9383
1516.96	20.8921
1518.51	21.6103
1520.07	21.5165
1521.63	20.6062
1523.18	19.9402
1524.74	19.4333
1526.29	19.8856
1527.85	19.3769
1529.4	19.0883
1530.96	19.1727
1532.51	19.538
1534.06	19.5743
1535.62	19.5
1537.17	20.9698
1538.72	20.4622
1540.28	20.283
1541.83	20.4605
1543.38	20.6718
1544.93	20.3706
1546.48	20.4806
1548.03	20.7419
1549.59	20.9101
1551.14	20.2486
1552.69	20.3764
1554.24	20.5914
1555.79	21.2726
1557.34	22.2747
1558.88	22.0162
1560.43	22.2187
1561.98	22.0084
1563.53	22.6215
1565.08	23.0881
1566.62	22.0728
1568.17	21.692
1569.72	22.2598
1571.27	22.0203
1572.81	21.3395
1574.36	22.0607
1575.9	22.6936
1577.45	22.5777
1579	23.7506
1580.54	23.7126
1582.09	24.0772
1583.63	24.8627
1585.17	26.3521
1586.72	27.0915
1588.26	27.7571
1589.8	28.1813
1591.35	29.5305
1592.89	30.6269
1594.43	30.9482
1595.97	31.3572
1597.52	31.1837
1599.06	31.7299
1600.6	32.0782
1602.14	31.7002
1603.68	31.8457
1605.22	32.2665
1606.76	32.2452
1608.3	31.8866
1609.84	31.5718
1611.38	31.3735
1612.92	31.3205
1614.46	31.1698
1615.99	30.2553
1617.53	30.25
1619.07	30.1006
1620.61	29.9976
1622.14	28.8214
1623.68	28.5314
1625.22	27.358
1626.75	27.3825
1628.29	26.416
1629.82	26.4186
1631.36	25.8424
1632.9	25.1662
1634.43	24.8925
1635.96	23.4035
1637.5	23.9455
1639.03	23.5786
1640.57	24.6651
1642.1	24.7495
1643.63	24.7536
1645.16	25.5139
1646.7	26.4847
1648.23	25.9382
1649.76	26.8275
1651.29	27.6869
1652.82	28.3352
1654.36	27.482
1655.89	27.7997
1657.42	28.4302
1658.95	28.7336
1660.48	29.3193
1662.01	29.6299
1663.53	28.9081
1665.06	29.8244
1666.59	30.5994
1668.12	30.6101
1669.65	30.5194
1671.18	29.8281
1672.7	29.8441
1674.23	29.219
1675.76	28.6551
1677.29	28.3039
1678.81	27.2447
1680.34	26.7785
1681.86	25.1914
1683.39	23.0267
1684.91	22.667
1686.44	22.0467
1687.96	21.0295
1689.49	20.7703
1691.01	19.9445
1692.54	19.1397
1694.06	18.2287
1695.58	17.5316
1697.11	16.7913
1698.63	16.139
1700.15	15.5085
1701.67	15.2715
1703.2	14.1194
1704.72	13.1768
1706.24	13.031
1707.76	12.5072
1709.28	11.4083
1710.8	11.4812
1712.32	10.939
1713.84	11.8452
1715.36	11.9304
1716.88	12.664
1718.4	12.1197
1719.91	11.6616
1721.43	11.6352
1722.95	11.418
1724.47	10.9707
1725.99	11.956
1727.5	11.4727
1729.02	10.9454
1730.54	9.81459
1732.05	9.6289
1733.57	9.62729
1735.09	7.96744
1736.6	7.81795
1738.12	7.38433
1739.63	7.15282
1741.15	7.10348
1742.66	6.42075
1744.18	6.10991
1745.69	5.77974
1747.2	5.2954
1748.72	5.57526
1750.23	4.86239
1751.74	4.42515
1753.25	3.96987
1754.77	2.86873
1756.28	2.59586
1757.79	2.50554
1759.3	3.15472
1760.81	4.29679
1762.32	3.83717
1763.83	4.33922
1765.34	4.47471
1766.85	4.00135
1768.36	4.81174
1769.87	4.72445
1771.38	5.29982
1772.89	5.48359
1774.4	5.80154
1775.91	5.11225
1777.41	5.42892
1778.92	4.90599
1780.43	4.95335
1781.94	5.28338
1783.44	4.90797
1784.95	5.58658
1786.45	6.36962
1787.96	6.45595
1789.47	6.8116
1790.97	6.2222
1792.47	6.35162
1793.98	5.77522
1795.48	5.94933
1796.99	5.9296
1798.49	5.6228
1800	5.21418
1801.5	5.03917
1803	4.26976
1804.51	3.22213
1806.01	2.41534
1807.51	2.3856
1809.01	2.30952
1810.51	2.13779
1812.02	2.49234
1813.52	2.02974
1815.02	1.86205
1816.52	1.82319
1818.02	2.31424
1819.52	2.48487
1821.02	2.41755
1822.52	2.57099
1824.02	2.64694
1825.51	2.06349
1827.01	2.27023
1828.51	2.53359
1830.01	3.16624
1831.51	3.91206
1833	3.76134
1834.5	3.81735
1836	4.20664
1837.49	4.14174
1838.99	4.56478
1840.49	4.68631
1841.98	4.97055
1843.48	5.23918
1844.97	4.37302
1846.47	4.41148
1847.96	4.61482
1849.46	4.69915
1850.95	4.64032
1852.45	5.35005
1853.94	5.21587
1855.43	5.28213
1856.92	5.89638
1858.42	5.95166
1859.91	6.24566
1861.4	5.30271
1862.89	5.0801
1864.39	5.19842
1865.88	5.23163
1867.37	5.69735
1868.86	5.59103
1870.35	5.83083
1871.84	5.70307
1873.33	5.42234
1874.82	5.30721
1876.31	5.6775
1877.8	5.26693
1879.29	4.52763
1880.77	4.59368
1882.26	3.97026
1882.52	3.62784
1884.02	3.81636
1885.51	3.06707
1887.01	3.09366
1888.5	3.97074
1889.99	4.49227
1891.49	4.36997
1892.98	4.55464
1894.47	4.89139
1895.96	5.2216
1897.46	5.27155
1898.95	5.84644
1900.44	6.06798
1901.93	5.65186
1903.42	5.70099
1904.91	5.5094
1906.4	5.1942
1907.89	5.1788
1909.38	5.35441
1910.87	5.13096
1912.36	4.93272
1913.85	4.59449
1915.34	4.2665
1916.83	4.07867
1918.32	4.37495
1919.8	4.59946
1921.29	5.01165
1922.78	4.99988
1924.27	5.3961
1925.75	5.16833
1927.24	4.93703
1928.73	4.87338
1930.21	5.18424
1931.7	4.81237
1933.18	4.21479
1934.67	3.81099
1936.15	4.36299
1937.64	4.15638
1939.12	4.15365
1940.61	4.37794
1942.09	4.29203
1943.57	4.37885
1945.06	4.14244
1946.54	3.85125
1948.02	4.13674
1949.51	4.36384
1950.99	3.66649
1952.47	3.79835
1953.95	4.23148
1955.43	4.34304
1956.91	4.36775
1958.39	5.03588
1959.87	5.14931
1961.36	5.65885
1962.84	6.08721
1964.32	5.10907
1965.79	5.32282
1967.27	5.54405
1968.75	5.38692
1970.23	5.46135
1971.71	5.51273
1973.19	5.7326
1974.66	5.5881
1976.14	5.83966
1977.62	6.33543
1979.1	6.26603
1980.57	6.10461
1982.05	5.96744
1983.53	6.02105
1985	6.03559
1986.48	6.24185
1987.95	6.12758
1989.43	6.51697
1990.9	6.67813
1992.38	7.07849
1993.85	6.8182
1995.33	6.93679
1996.8	7.03242
1998.27	7.75819
1999.75	6.90611
2001.22	6.95103
2002.69	7.36983
2004.16	7.37082
2005.64	7.04913
2007.11	7.16867
2008.58	7.52753
2010.05	8.35456
2011.52	8.56802
2012.99	9.50217
2014.46	9.65554
2015.93	9.71731
2017.4	9.5614
2018.87	9.70013
2020.34	10.0667
2021.81	10.2199
2023.28	10.3065
2024.75	10.2579
2026.22	10.5773
2027.69	10.3856
2029.15	10.0051
2030.62	9.58712
2032.09	10.127
2033.56	9.76488
2035.02	8.99085
2036.49	9.43126
2037.95	9.75334
2039.42	10.5864
2040.89	10.8119
2042.35	11.4889
2043.82	12.5629
2045.28	12.3148
2046.75	12.5614
2048.21	12.1155
2049.67	11.3936
2051.14	10.9456
2052.6	10.7448
2054.06	10.8368
2055.53	10.3977
2056.99	10.3329
2058.45	10.4031
2059.92	10.714
2061.38	10.5167
2062.84	10.8523
2064.3	10.9305
2065.76	10.9497
2067.22	11.4581
2068.68	11.7522
2070.14	12.437
2071.6	12.6965
2073.06	12.1315
2074.52	12.9279
2075.98	12.9256
2077.44	12.4239
2078.9	12.4396
2080.36	11.9125
2081.82	11.3603
2083.27	11.1678
2084.73	10.6247
2086.19	9.80695
2087.65	8.73733
2089.1	8.67755
2090.56	8.10962
2092.01	8.20161
2093.47	8.59867
2094.93	8.75911
2096.38	8.83812
2097.84	8.60847
2099.29	8.08129
2100.75	7.87408
2102.2	7.6216
2103.66	7.43627
2105.11	7.25435
2106.56	7.41697
2108.02	7.30868
2109.47	8.25038
2110.92	7.588
2112.37	7.35512
2113.83	7.53579
2115.28	7.78757
2116.73	6.79998
2118.18	5.81557
2119.63	5.24794
2121.09	4.30571
2122.54	4.74581
2123.99	4.37085
2125.44	4.74528
2126.89	4.7393
2128.34	4.49163
2129.79	4.63543
2131.23	5.13394
2132.68	6.09233
2134.13	6.03445
2135.58	6.67648
2137.03	7.47702
