#Acq. time (s)=	45
#Accumulations=	2
#Range (cm-¹)=	200...3150
#Windows=	2
#Auto scanning=	Off
#Autofocus=	Off
#Macrospot=	Off
#AutoExposure=	Off
#Spike filter=	Multiple accum.
#Delay time (s)=	0
#Binning=	1
#Readout mode=	Signal
#DeNoise=	Off
#ICS correction=	On
#Dark correction=	Off
#Inst. Process=	Off
#Detector Gain=	Best Dynamic Range
#Detector ADC=	20 kHz       
#Detector temperature (°C)=	-69.85
#Instrument=	LabRAM HR Evol
#Detector=	Synapse
#Objective=	x100
#Grating=	600 gr/mm
#ND Filter=	100%
#Laser (nm)=	532 
#Hole=	100.021
#Range=	Auto
#Laser Pol.=	No
#Raman. Pol.=	No
#Laser Pol. (°)=	-0.0007625
#Raman Pol. (°)=	89.9995
#Collection=	Microscope
#StageXY=	Marzhauser
#StageZ=	Marzhauser
#X (µm)=	-639
#Y (µm)=	-1589.6
#Z (µm)=	89
#Full time(mm:ss)=	3:18
#Project=	
#Sample=	
#Site=	
#Title=	Mb_10_14_12_2x_45s_532 nm_x100_100%_600 gr_mm
#Remark=	
#Date=	11.07.2022 09:25
#Acquired=	11.07.2022 09:25:14
#Base:Fit=	10.08.2022 10:21:11
#Base:Sub=	10.08.2022 10:21:41
#Filter:Polynom=	16.08.2022 10:17:53
#AxisType[0]=Intens
#AxisUnit[0]=Cnt
#AxisType[1]=Spectr
#AxisUnit[1]=1/cm
200.388	15.4926
202.204	15.1419
204.019	14.4191
205.832	11.953
207.646	9.53668
209.459	7.69287
211.274	6.57178
213.087	5.72037
214.899	4.99049
216.711	4.71547
218.524	5.21165
220.335	6.70673
222.146	7.41036
223.956	9.24127
225.766	8.9789
227.576	10.3405
229.388	12.5655
231.197	14.2057
233.005	14.9522
234.813	15.7547
236.621	16.2236
238.429	17.738
240.236	18.9823
242.045	19.7991
243.852	21.1368
245.658	21.5443
247.464	22.5564
249.269	24.1764
251.074	24.6277
252.879	24.7812
254.683	26.4972
256.487	27.0362
258.291	26.427
260.094	26.8082
261.897	27.1731
263.702	27.2232
265.504	28.157
267.306	28.4144
269.108	28.2471
270.909	27.4905
272.71	26.6616
274.511	24.8322
276.311	23.5632
278.111	21.8428
279.91	20.1687
281.709	18.8597
283.508	18.5961
285.306	16.7113
287.105	16.4517
288.9	15.6261
290.698	13.9024
292.495	12.7583
294.291	11.9334
296.088	12.0927
297.884	11.4288
299.679	11.5448
301.475	11.1908
303.27	10.9636
305.064	11.6256
306.858	12.5882
308.652	12.4099
310.444	12.4788
312.237	11.7759
314.03	12.3212
315.822	12.2788
317.615	13.5119
319.406	13.8488
321.198	14.1651
322.987	13.8488
324.778	13.8738
326.568	13.2849
328.358	13.5054
330.148	12.816
331.935	12.6674
333.724	13.4791
335.513	13.1373
337.301	13.3055
339.089	13.9718
340.875	13.1296
342.662	13.9214
344.449	13.1278
346.236	12.7729
348.02	13.663
349.806	14.9049
351.592	15.223
353.375	15.4027
355.16	16.5795
356.944	16.4953
358.728	17.5912
360.51	17.2906
362.294	18.6088
364.077	19.9698
365.858	21.295
367.64	21.7335
369.422	22.4108
371.202	24.1059
372.983	25.0333
374.764	26.2062
376.543	26.4954
378.324	26.8734
380.102	27.8936
381.881	29.1727
383.661	29.6526
385.438	31.128
387.216	31.6128
388.993	33.1293
390.771	34.6289
392.548	34.9871
394.324	35.3076
396.101	35.265
397.875	34.6963
399.651	34.987
401.425	35.1819
403.201	34.4827
404.974	33.6378
406.749	32.6652
408.524	32.1602
410.296	30.8394
412.07	29.0475
413.841	27.5027
415.614	25.6503
417.385	25.3572
419.156	24.2579
420.928	23.9604
422.698	22.445
424.469	20.6201
426.238	19.2125
428.009	17.9248
429.777	15.7306
431.548	14.5317
433.315	13.0669
435.083	13.3343
436.852	12.5822
438.618	10.907
440.387	9.7632
442.153	8.94141
443.919	6.93745
445.686	5.48757
447.451	5.15742
449.218	4.7007
450.982	4.42046
452.746	2.60515
454.512	1.22148
456.275	0.557804
458.038	1.02469
459.803	0.757164
461.565	0.408458
463.327	0.933568
465.091	1.15142
466.852	2.64712
468.613	3.80232
470.374	5.08343
472.136	5.63727
473.896	5.81046
475.655	6.7491
477.415	8.02582
479.176	9.51464
480.934	9.97676
482.692	11.5873
484.45	12.9077
486.21	14.2959
487.967	15.7911
489.724	16.7393
491.481	17.336
493.237	19.535
494.995	20.3703
496.75	21.7349
498.506	22.8025
500.26	23.7032
502.015	24.6174
503.769	24.9371
505.525	26.0193
507.279	26.6237
509.032	27.4893
510.785	26.8998
512.537	27.6007
514.289	26.791
516.041	26.2488
517.793	26.5693
519.546	27.1451
521.297	26.3922
523.047	26.4856
524.797	25.4251
526.547	24.5556
528.297	24.1439
530.046	22.1484
531.795	21.3644
533.543	21.6374
535.291	20.7105
537.039	19.0327
538.787	17.8355
540.534	16.9901
542.281	17.362
544.027	16.3145
545.773	15.5948
547.519	14.5847
549.264	13.6226
551.01	12.1747
552.754	11.3243
554.499	11.3178
556.243	10.8166
557.987	9.74351
559.73	9.12687
561.474	8.38978
563.216	8.39475
564.959	7.80382
566.701	7.21965
568.441	6.94203
570.182	6.56514
571.923	6.08787
573.664	6.19455
575.405	5.15973
577.145	4.85448
578.885	4.53463
580.624	4.28848
582.361	3.62705
584.1	4.12646
585.839	3.71584
587.577	2.74205
589.315	2.34798
591.052	1.466
592.787	1.86378
594.524	1.62376
596.26	1.16967
597.997	-0.143411
599.732	0.534751
601.466	-0.0799783
603.201	1.9174
604.936	3.60023
606.67	4.42415
608.403	4.72126
610.136	4.92287
611.87	3.41596
613.603	2.98387
615.334	4.05725
617.067	3.98404
618.799	4.32093
620.529	4.08888
622.26	3.86957
623.991	4.53342
625.72	5.82827
627.451	6.49033
629.181	7.13469
630.909	6.85828
632.638	8.20773
634.368	9.35135
636.095	8.86973
637.823	10.2283
639.551	11.6853
641.277	12.946
643.005	13.484
644.73	14.1853
646.457	15.43
648.184	15.7211
649.908	16.0548
651.634	16.8706
653.357	17.1703
655.083	17.3194
656.806	17.8894
658.53	17.9143
660.253	18.5859
661.977	17.848
663.7	18.3178
665.422	18.2324
667.145	18.8643
668.865	18.926
670.588	18.8598
672.308	19.3981
674.027	19.0324
675.749	18.2601
677.468	18.6403
679.188	19.3694
680.907	19.3355
682.627	20.2641
684.345	20.6173
686.064	22.058
687.781	22.4298
689.498	23.8122
691.216	23.7047
692.932	24.1681
694.65	23.577
696.366	23.6165
698.081	24.6245
699.797	25.1048
701.512	25.7802
703.228	26.0456
704.942	26.8247
706.655	27.8633
708.371	29.0899
710.083	30.4394
711.796	30.6168
713.51	31.3
715.222	32.7388
716.934	34.0417
718.645	34.4513
720.358	34.986
722.068	34.4426
723.779	36.2445
725.49	36.9575
727.2	38.5602
728.909	40.16
730.618	40.303
732.329	40.9205
734.037	41.6786
735.745	42.3255
737.453	42.7247
739.16	43.0317
740.869	43.1994
742.576	44.4034
744.282	44.6808
745.988	46.3504
747.694	46.8981
749.401	48.8988
751.107	50.0909
752.811	50.5591
754.516	51.3209
756.22	52.8355
757.924	53.995
759.627	53.7287
761.332	55.484
763.035	56.9231
764.738	58.7018
766.44	59.8981
768.142	61.4133
769.843	63.1023
771.544	64.825
773.245	66.7831
774.946	68.54
776.646	69.651
778.346	71.8867
780.046	72.7625
781.745	73.8018
783.444	74.8757
785.143	75.3546
786.841	76.8226
788.539	77.8778
790.237	78.7789
791.934	79.1021
793.631	80.5653
795.328	81.632
797.024	81.9359
798.72	83.3607
800.416	84.2784
802.112	83.9177
803.807	84.0977
805.502	84.6479
807.196	85.2737
808.89	85.6384
810.584	86.3816
812.278	85.7251
813.971	85.268
815.664	84.0304
817.354	84.5042
819.047	84.2596
820.739	82.684
822.43	81.2151
824.122	80.6183
825.813	79.9513
827.503	79.2694
829.192	77.9988
830.882	77.3866
832.571	76.1666
834.261	75.3403
835.95	74.0507
837.637	72.4614
839.325	72.5138
841.013	71.8845
842.701	70.6622
844.389	70.3048
846.074	69.655
847.761	67.1099
849.447	67.7184
851.131	66.5168
852.817	65.4248
854.503	63.8903
856.188	62.8359
857.871	61.4255
859.556	60.3029
861.24	58.9007
862.922	58.1687
864.606	56.2369
866.289	55.5167
867.97	54.9144
869.653	53.8966
871.336	53.1516
873.016	52.9311
874.698	53.2601
876.379	52.8219
878.058	52.9511
879.739	52.3965
881.418	52.2658
883.098	52.9061
884.778	51.9787
886.456	51.8608
888.135	51.7893
889.812	51.5109
891.49	51.6011
893.167	50.7042
894.845	50.6945
896.523	50.179
898.198	51.3524
899.875	51.7471
901.55	52.2279
903.226	52.6021
904.901	53.6659
906.576	53.9247
908.25	54.3204
909.925	54.7542
911.598	55.089
913.271	55.7653
914.945	56.8789
916.617	56.5174
918.291	57.036
919.962	56.9504
921.635	56.7857
923.306	57.7557
924.978	57.0691
926.648	56.5669
928.318	55.5354
929.989	54.5962
931.659	54.4016
933.328	54.9275
934.998	52.2425
936.666	51.0168
938.336	50.2897
940.004	50.5342
941.671	50.3565
943.34	50.7073
945.007	49.5016
946.673	48.8664
948.339	48.0474
950.007	48.2443
951.672	47.3656
953.337	46.2358
955.004	46.9151
956.669	46.541
958.333	45.0988
959.997	43.6234
961.662	43.7791
963.326	43.5038
964.989	44.5914
966.651	44.4875
968.315	44.3234
969.977	45.6703
971.639	46.5366
973.301	46.7395
974.962	45.9873
976.624	46.0831
978.285	47.0716
979.945	48.6315
981.605	48.2474
983.264	47.2708
984.924	47.8045
986.583	48.5049
988.243	47.6768
989.901	46.1589
991.56	46.5143
993.217	46.3269
994.875	46.2001
996.532	45.6216
998.188	44.7932
999.845	43.1199
1001.5	42.7296
1003.16	41.0673
1004.81	40.2558
1006.47	39.6798
1008.12	38.5696
1009.78	39.1998
1011.43	39.0179
1013.09	39.8643
1014.74	39.2014
1016.39	38.8758
1018.05	38.8523
1019.7	40.4766
1021.35	41.0671
1023	42.1046
1024.65	42.2474
1026.31	42.6748
1027.96	41.6388
1029.61	41.0969
1031.26	41.4209
1032.91	41.8093
1034.56	41.7943
1036.21	41.2132
1037.86	41.4635
1039.51	39.7037
1041.16	39.4618
1042.8	39.7029
1044.45	40.2382
1046.1	40.4113
1047.75	41.0871
1049.39	39.9633
1051.04	39.3602
1052.69	38.207
1054.33	37.3415
1055.98	34.7223
1057.62	33.8934
1059.27	34.0614
1060.91	32.489
1062.56	31.2317
1064.2	28.8754
1065.85	27.9554
1067.49	27.1618
1069.13	25.441
1070.77	24.2814
1072.42	23.9897
1074.06	23.1156
1075.7	21.1541
1077.34	19.714
1078.98	17.0474
1080.62	14.7897
1082.27	13.1456
1083.91	12.111
1085.55	11.0904
1087.18	11.1687
1088.82	11.0864
1090.46	10.6075
1092.1	11.0755
1093.74	10.354
1095.38	10.4033
1097.02	9.97525
1098.65	10.5424
1100.29	10.9691
1101.93	11.5689
1103.56	11.2336
1105.2	11.6122
1106.84	11.5665
1108.47	12.1179
1110.11	12.1377
1111.74	12.0228
1113.38	13.4394
1115.01	12.9873
1116.64	12.5244
1118.28	11.7312
1119.91	10.9769
1121.54	11.1172
1123.18	11.1728
1124.81	11.0211
1126.44	11.3599
1128.07	11.0646
1129.7	11.2628
1131.33	10.5142
1132.97	10.1816
1134.6	10.8199
1136.23	11.0788
1137.86	11.0372
1139.49	12.301
1141.11	12.1499
1142.74	10.9112
1144.37	11.2133
1146	10.4451
1147.63	9.99746
1149.26	9.7025
1150.88	9.3979
1152.51	9.02601
1154.14	7.3653
1155.76	6.12751
1157.39	4.54586
1159.01	3.5949
1160.64	2.14537
1162.27	1.82221
1163.89	2.43693
1165.51	1.84662
1167.14	1.26834
1168.76	1.63759
1170.39	1.36633
1172.01	1.49476
1173.63	2.52781
1175.25	2.32507
1176.88	3.34583
1178.5	3.43545
1180.12	4.32613
1181.74	5.37066
1183.36	6.44095
1184.98	6.47651
1186.6	7.07122
1188.22	7.26164
1189.84	7.14206
1191.46	7.95507
1193.08	7.45487
1194.7	8.0288
1196.32	7.90742
1197.94	9.48002
1199.55	10.2933
1201.17	10.7073
1202.79	12.8598
1204.41	14.1159
1206.02	16.1412
1207.64	16.8987
1209.25	17.7195
1210.87	20.3259
1212.48	21.2159
1214.1	22.3874
1215.71	25.0793
1217.33	27.1595
1218.94	28.8538
1220.56	29.2504
1222.17	30.2746
1223.79	31.4695
1225.4	33.9645
1227.01	34.7246
1228.62	36.6322
1230.23	37.4236
1231.85	38.8254
1233.46	40.2648
1235.07	41.4924
1236.68	42.6226
1238.29	42.9744
1239.9	44.8611
1241.51	46.2163
1243.12	48.5357
1244.73	50.6085
1246.34	51.1161
1247.94	51.0373
1249.55	52.8117
1251.16	53.7896
1252.77	54.6293
1254.37	54.5658
1255.98	54.1786
1257.59	54.2255
1259.2	53.5567
1260.8	53.5817
1262.41	52.81
1264.01	52.2076
1265.62	50.3218
1267.22	50.5596
1268.83	50.3768
1270.43	50.132
1272.03	50.4913
1273.64	50.2093
1275.24	49.6811
1276.85	50.0922
1278.45	50.2259
1280.05	49.0296
1281.65	49.2142
1283.25	49.2021
1284.85	49.0222
1286.46	49.814
1288.06	48.954
1289.66	49.8231
1291.26	51.2568
1292.86	51.5132
1294.46	52.5487
1296.06	54.0235
1297.66	54.4934
1299.25	53.712
1300.85	55.1586
1302.45	56.7108
1304.05	57.9483
1305.65	58.8831
1307.24	58.3274
1308.84	59.0838
1310.43	59.5539
1312.03	61.0531
1313.63	61.4938
1315.22	62.7406
1316.82	63.3203
1318.41	64.9351
1320.01	66.1596
1321.6	67.2319
1323.2	67.5607
1324.79	67.5678
1326.38	67.4817
1327.98	67.3466
1329.57	67.5755
1331.16	67.6062
1332.76	66.031
1334.35	65.4365
1335.94	64.9052
1337.53	63.7979
1339.12	63.383
1340.71	62.2253
1342.3	61.2456
1343.89	60.741
1345.48	60.3684
1347.07	60.9034
1348.66	60.0915
1350.25	58.4203
1351.84	57.1775
1353.43	54.925
1355.01	52.5478
1356.6	51.5138
1358.19	49.888
1359.77	47.1865
1361.36	46.3281
1362.95	45.6021
1364.53	44.7143
1366.12	44.0786
1367.71	42.6958
1369.29	42.6298
1370.88	41.5193
1372.46	40.1004
1374.04	38.7279
1375.63	37.7682
1377.21	37.1841
1378.8	37.0262
1380.38	37.8187
1381.96	36.8177
1383.54	35.6574
1385.13	34.6845
1386.71	34.0742
1388.29	34.1442
1389.87	35.1619
1391.45	35.7343
1393.03	35.4418
1394.61	36.1332
1396.19	36.3371
1397.77	36.6183
1399.35	36.9591
1400.93	38.4778
1402.51	38.1879
1404.09	38.7392
1405.67	39.56
1407.24	39.4794
1408.82	40.2472
1410.4	42.1346
1411.98	42.1884
1413.55	44.1173
1415.13	45.6212
1416.71	47.5
1418.28	48.9605
1419.86	51.7802
1421.43	53.3773
1423.01	54.9807
1424.58	57.1091
1426.16	58.9577
1427.73	60.0769
1429.31	61.4224
1430.88	63.0973
1432.45	64.8471
1434.02	67.5534
1435.6	70.0064
1437.17	71.3248
1438.74	72.5696
1440.31	75.2292
1441.88	76.2734
1443.45	75.7874
1445.03	77.2348
1446.6	77.3693
1448.17	78.0378
1449.74	78.0342
1451.3	77.9572
1452.87	78.1459
1454.44	77.812
1456.01	77.6256
1457.58	75.9903
1459.15	74.2226
1460.72	71.4963
1462.28	69.3581
1463.85	67.6206
1465.42	65.8762
1466.98	63.874
1468.55	61.5225
1470.12	58.653
1471.68	55.543
1473.25	53.4245
1474.81	51.0188
1476.38	48.3814
1477.94	45.5783
1479.51	43.2217
1481.07	39.6737
1482.63	37.5571
1484.2	35.5264
1485.76	32.5725
1487.32	31.6131
1488.88	29.9628
1490.45	28.4786
1492.01	28.3673
1493.57	27.9603
1495.13	26.6887
1496.69	25.3821
1498.25	25.8406
1499.81	24.1283
1501.37	23.8516
1502.93	25.2403
1504.49	25.2594
1506.05	25.302
1507.61	26.196
1509.17	26.7371
1510.73	27.8328
1512.28	27.7101
1513.84	27.3847
1515.4	27.8088
1516.96	28.0172
1518.51	28.3631
1520.07	28.6916
1521.63	29.7802
1523.18	31.6983
1524.74	31.5482
1526.29	31.8812
1527.85	32.3278
1529.4	32.5076
1530.96	33.202
1532.51	33.8933
1534.06	34.5693
1535.62	34.3032
1537.17	34.7129
1538.72	34.6172
1540.28	35.5593
1541.83	35.9602
1543.38	36.3512
1544.93	36.5011
1546.48	36.0826
1548.03	36.212
1549.59	36.3953
1551.14	36.9939
1552.69	36.9666
1554.24	37.5045
1555.79	37.1062
1557.34	37.0368
1558.88	37.0405
1560.43	37.8477
1561.98	39.0946
1563.53	40.1118
1565.08	41.3212
1566.62	41.9363
1568.17	42.3303
1569.72	42.9001
1571.27	43.1784
1572.81	43.6683
1574.36	44.1273
1575.9	44.3744
1577.45	45.1203
1579	46.4257
1580.54	47.3524
1582.09	47.0738
1583.63	48.63
1585.17	49.5973
1586.72	50.4846
1588.26	50.6605
1589.8	50.7189
1591.35	52.0835
1592.89	52.922
1594.43	53.1674
1595.97	54.3726
1597.52	55.187
1599.06	55.5649
1600.6	55.5548
1602.14	55.5292
1603.68	55.3376
1605.22	55.7174
1606.76	56.9473
1608.3	57.9336
1609.84	58.1923
1611.38	57.3696
1612.92	56.7235
1614.46	56.4392
1615.99	57.1458
1617.53	57.5633
1619.07	57.7231
1620.61	57.4466
1622.14	57.8499
1623.68	58.9553
1625.22	60.1059
1626.75	60.4908
1628.29	60.9402
1629.82	61.6889
1631.36	63.5008
1632.9	63.3041
1634.43	64.8831
1635.96	66.731
1637.5	68.448
1639.03	69.5041
1640.57	69.3795
1642.1	69.9268
1643.63	70.9611
1645.16	71.4683
1646.7	72.913
1648.23	73.1562
1649.76	73.9991
1651.29	74.2045
1652.82	75.6211
1654.36	77.5335
1655.89	76.8167
1657.42	76.0908
1658.95	76.3452
1660.48	77.0048
1662.01	76.5197
1663.53	75.6089
1665.06	74.171
1666.59	73.6565
1668.12	72.635
1669.65	70.8684
1671.18	69.5339
1672.7	67.7587
1674.23	65.1181
1675.76	62.5239
1677.29	60.0518
1678.81	57.3177
1680.34	54.9197
1681.86	52.9214
1683.39	50.8295
1684.91	47.6068
1686.44	44.7571
1687.96	42.2662
1689.49	40.4965
1691.01	38.5887
1692.54	36.7308
1694.06	33.8534
1695.58	32.1416
1697.11	29.6901
1698.63	28.1238
1700.15	26.2348
1701.67	23.5038
1703.2	21.5177
1704.72	21.375
1706.24	19.7804
1707.76	18.8406
1709.28	17.8312
1710.8	17.0797
1712.32	16.5157
1713.84	16.204
1715.36	14.5204
1716.88	13.7816
1718.4	13.2102
1719.91	12.5759
1721.43	11.8115
1722.95	10.9834
1724.47	10.1803
1725.99	11.0573
1727.5	10.9933
1729.02	11.5049
1730.54	10.9996
1732.05	10.0513
1733.57	10.538
1735.09	11.0647
1736.6	11.2159
1738.12	11.2125
1739.63	10.2048
1741.15	10.0975
1742.66	10.6751
1744.18	10.4973
1745.69	10.847
1747.2	10.7747
1748.72	10.3784
1750.23	10.2337
1751.74	10.1929
1753.25	10.5375
1754.77	10.9582
1756.28	11.5632
1757.79	11.4357
1759.3	12.0381
1760.81	12.4725
1762.32	12.2664
1763.83	11.7752
1765.34	11.8503
1766.85	10.9596
1768.36	10.6529
1769.87	9.91703
1771.38	9.87274
1772.89	9.58746
1774.4	9.82917
1775.91	9.97612
1777.41	9.84426
1778.92	10.3301
1780.43	10.46
1781.94	9.82448
1783.44	10.1214
1784.95	9.32922
1786.45	7.92712
1787.96	7.43632
1789.47	6.81585
1790.97	5.55904
1792.47	5.27491
1793.98	4.52499
1795.48	3.95982
1796.99	3.5028
1798.49	3.61183
1800	4.00164
1801.5	4.39567
1803	3.86262
1804.51	3.81422
1806.01	3.668
1807.51	3.88715
1809.01	3.56698
1810.51	3.80368
1812.02	4.15626
1813.52	4.75302
1815.02	4.41709
1816.52	5.04317
1818.02	5.21492
1819.52	5.72818
1821.02	6.25834
1822.52	5.91513
1824.02	6.26564
1825.51	6.82507
1827.01	7.43505
1828.51	8.10321
1830.01	8.14169
1831.51	8.42334
1833	8.98455
1834.5	9.56833
1836	9.46202
1837.49	9.35331
1838.99	9.04753
1840.49	9.20439
1841.98	8.63483
1843.48	9.39572
1844.97	9.2585
1846.47	9.34558
1847.96	9.45677
1849.46	9.61471
1850.95	9.03992
1852.45	8.89931
1853.94	8.68023
1855.43	8.20745
1856.92	7.47458
1858.42	6.43352
1859.91	6.25302
1861.4	5.93951
1862.89	6.35211
1864.39	6.76819
1865.88	6.5267
1867.37	6.64791
1868.86	6.03828
1870.35	6.19852
1871.84	6.73731
1873.33	6.84127
1874.82	7.28909
1876.31	7.32654
1877.8	7.07043
1879.29	7.70892
1880.77	7.97075
1882.26	8.35174
1882.52	8.78429
1884.02	8.98825
1885.51	9.24222
1887.01	9.15832
1888.5	8.85631
1889.99	9.2208
1891.49	9.39068
1892.98	9.82226
1894.47	9.96951
1895.96	10.0073
1897.46	9.96953
1898.95	10.4544
1900.44	11.4222
1901.93	11.023
1903.42	11.2201
1904.91	11.774
1906.4	12.0037
1907.89	11.9122
1909.38	10.6588
1910.87	10.6093
1912.36	10.2378
1913.85	10.5945
1915.34	10.5206
1916.83	10.1481
1918.32	8.73658
1919.8	8.08792
1921.29	8.14395
1922.78	7.54987
1924.27	6.61553
1925.75	6.74546
1927.24	5.53091
1928.73	5.45201
1930.21	5.09148
1931.7	4.31915
1933.18	4.63991
1934.67	3.65382
1936.15	3.29279
1937.64	3.2131
1939.12	2.71718
1940.61	2.22767
1942.09	2.05073
1943.57	1.95504
1945.06	2.22863
1946.54	1.86427
1948.02	1.53152
1949.51	1.18273
1950.99	1.4223
1952.47	1.92668
1953.95	1.48962
1955.43	1.03204
1956.91	1.19583
1958.39	1.21073
1959.87	2.05487
1961.36	2.37075
1962.84	3.17659
1964.32	3.73323
1965.79	4.38723
1967.27	4.60073
1968.75	4.77616
1970.23	4.68572
1971.71	4.73327
1973.19	5.71968
1974.66	5.69597
1976.14	5.35737
1977.62	5.75564
1979.1	5.30124
1980.57	5.91705
1982.05	6.27177
1983.53	6.0866
1985	6.75571
1986.48	6.80065
1987.95	6.73526
1989.43	5.6779
1990.9	4.855
1992.38	4.73387
1993.85	5.20039
1995.33	5.11364
1996.8	4.60175
1998.27	4.84465
1999.75	3.90837
2001.22	3.66126
2002.69	4.2875
2004.16	3.72126
2005.64	3.43562
2007.11	3.86301
2008.58	2.97468
2010.05	3.37905
2011.52	3.80036
2012.99	3.23898
2014.46	2.55568
2015.93	1.83827
2017.4	1.59479
2018.87	1.90024
2020.34	1.66259
2021.81	2.27803
2023.28	3.48695
2024.75	3.50107
2026.22	3.7005
2027.69	3.39085
2029.15	3.47248
2030.62	4.57323
2032.09	5.20212
2033.56	5.26412
2035.02	5.34927
2036.49	5.98649
2037.95	6.3819
2039.42	6.201
2040.89	5.93571
2042.35	5.73288
2043.82	5.80293
2045.28	6.56659
2046.75	6.6567
2048.21	6.95046
2049.67	7.90639
2051.14	7.92993
2052.6	8.17448
2054.06	8.63608
2055.53	7.49273
2056.99	7.02943
2058.45	7.52418
2059.92	7.61281
2061.38	7.25016
2062.84	6.73419
2064.3	7.41948
2065.76	7.39958
2067.22	6.84106
2068.68	6.14858
2070.14	6.04983
2071.6	6.12688
2073.06	5.88388
2074.52	6.78009
2075.98	7.06994
2077.44	7.25759
2078.9	6.80497
2080.36	7.32117
2081.82	7.02669
2083.27	7.15056
2084.73	6.69819
2086.19	6.84642
2087.65	6.97196
2089.1	7.98625
2090.56	8.57581
2092.01	8.65843
2093.47	8.46485
2094.93	9.00295
2096.38	8.06875
2097.84	7.31338
2099.29	7.835
2100.75	7.6115
2102.2	8.76684
2103.66	9.3739
2105.11	9.49803
2106.56	9.57623
2108.02	9.41536
2109.47	9.71337
2110.92	9.28947
2112.37	9.01805
2113.83	9.33779
2115.28	8.96278
2116.73	9.11847
2118.18	9.86975
2119.63	9.67946
2121.09	9.84704
2122.54	10.3179
2123.99	10.5687
2125.44	11.0087
2126.89	11.1468
2128.34	11.2571
2129.79	11.7341
2131.23	12.1704
2132.68	11.3289
2134.13	11.3723
2135.58	11.5632
