#Acq. time (s)=	45
#Accumulations=	2
#Range (cm-¹)=	200...3150
#Windows=	2
#Auto scanning=	Off
#Autofocus=	Off
#Macrospot=	Off
#AutoExposure=	Off
#Spike filter=	Multiple accum.
#Delay time (s)=	0
#Binning=	1
#Readout mode=	Signal
#DeNoise=	Off
#ICS correction=	On
#Dark correction=	Off
#Inst. Process=	Off
#Detector Gain=	Best Dynamic Range
#Detector ADC=	20 kHz       
#Detector temperature (°C)=	-69.85
#Instrument=	LabRAM HR Evol
#Detector=	Synapse
#Objective=	x100
#Grating=	600 gr/mm
#ND Filter=	100%
#Laser (nm)=	532 
#Hole=	100.021
#Range=	Auto
#Laser Pol.=	No
#Raman. Pol.=	No
#Laser Pol. (°)=	-0.0007625
#Raman Pol. (°)=	89.9995
#Collection=	Microscope
#StageXY=	Marzhauser
#StageZ=	Marzhauser
#X (µm)=	-636.3
#Y (µm)=	-1595.4
#Z (µm)=	89.55
#Full time(mm:ss)=	3:18
#Project=	
#Sample=	
#Site=	
#Title=	Mb_10_14_16_2x_45s_532 nm_x100_100%_600 gr_mm
#Remark=	
#Date=	11.07.2022 09:41
#Acquired=	11.07.2022 09:41:37
#Base:Fit=	10.08.2022 10:21:11
#Base:Sub=	10.08.2022 10:21:41
#Filter:Polynom=	16.08.2022 10:17:53
#AxisType[0]=Intens
#AxisUnit[0]=Cnt
#AxisType[1]=Spectr
#AxisUnit[1]=1/cm
200.388	16.0776
202.204	15.1436
204.019	12.3595
205.832	11.7917
207.646	11.4207
209.459	11.0501
211.274	10.6464
213.087	10.3424
214.899	10.4632
216.711	10.5553
218.524	10.8873
220.335	11.2279
222.146	11.2222
223.956	12.3154
225.766	12.8885
227.576	13.7596
229.388	14.2676
231.197	15.3208
233.005	15.6957
234.813	16.4601
236.621	16.7691
238.429	18.1842
240.236	19.0419
242.045	19.261
243.852	20.6261
245.658	22.4258
247.464	23.774
249.269	24.2503
251.074	24.6545
252.879	24.7886
254.683	25.4742
256.487	26.7519
258.291	27.3605
260.094	26.9446
261.897	27.6038
263.702	28.2193
265.504	29.5599
267.306	29.1681
269.108	28.6904
270.909	28.1953
272.71	28.4073
274.511	27.3766
276.311	25.2808
278.111	24.5829
279.91	23.676
281.709	23.3103
283.508	23.3895
285.306	22.4973
287.105	22.2133
288.9	21.4696
290.698	19.9631
292.495	18.5498
294.291	17.9544
296.088	15.4424
297.884	13.8582
299.679	13.3043
301.475	12.3488
303.27	12.0587
305.064	10.9246
306.858	10.5129
308.652	10.0607
310.444	9.22202
312.237	8.39796
314.03	8.6027
315.822	7.78143
317.615	7.35064
319.406	6.47718
321.198	6.68363
322.987	5.96108
324.778	6.12958
326.568	5.88312
328.358	5.59991
330.148	4.47156
331.935	4.32585
333.724	5.39082
335.513	4.77706
337.301	4.43602
339.089	3.76236
340.875	3.58912
342.662	4.29037
344.449	4.86113
346.236	5.57345
348.02	4.7623
349.806	5.4614
351.592	6.77063
353.375	6.79043
355.16	7.05993
356.944	6.01866
358.728	6.54992
360.51	7.55489
362.294	7.88602
364.077	8.28235
365.858	9.20563
367.64	10.3775
369.422	11.1923
371.202	11.997
372.983	12.2269
374.764	12.5548
376.543	12.5206
378.324	11.9623
380.102	11.7175
381.881	12.6388
383.661	13.621
385.438	14.2737
387.216	15.3216
388.993	16.4263
390.771	16.5976
392.548	16.4366
394.324	16.6937
396.101	18.2021
397.875	17.6639
399.651	16.6644
401.425	16.8287
403.201	16.7198
404.974	15.7322
406.749	15.7749
408.524	15.0629
410.296	14.8796
412.07	14.2783
413.841	13.452
415.614	11.9419
417.385	11.3469
419.156	10.5821
420.928	9.95285
422.698	9.80156
424.469	8.86554
426.238	8.69583
428.009	6.83037
429.777	6.20809
431.548	6.08734
433.315	5.33068
435.083	4.36063
436.852	3.1886
438.618	3.70293
440.387	2.46222
442.153	2.44813
443.919	2.61424
445.686	3.1778
447.451	4.3394
449.218	4.21925
450.982	4.52841
452.746	5.67254
454.512	6.03487
456.275	6.56402
458.038	7.57579
459.803	8.05701
461.565	8.68411
463.327	9.3311
465.091	10.0079
466.852	11.8009
468.613	12.4247
470.374	13.0229
472.136	13.3525
473.896	13.7864
475.655	13.7981
477.415	14.5559
479.176	14.6245
480.934	14.9769
482.692	15.4552
484.45	15.3839
486.21	15.4844
487.967	16.4168
489.724	17.1492
491.481	16.9379
493.237	16.7356
494.995	17.4184
496.75	16.953
498.506	16.7375
500.26	16.4909
502.015	15.3321
503.769	14.7203
505.525	14.5446
507.279	14.1211
509.032	14.0365
510.785	14.7429
512.537	14.8391
514.289	14.51
516.041	13.8891
517.793	14.2049
519.546	13.7272
521.297	13.4993
523.047	12.6794
524.797	12.952
526.547	13.3878
528.297	13.2211
530.046	13.6784
531.795	12.9268
533.543	13.0839
535.291	12.1551
537.039	12.0698
538.787	12.0629
540.534	11.8297
542.281	11.9138
544.027	11.9086
545.773	11.8776
547.519	11.4636
549.264	10.5697
551.01	10.3297
552.754	9.64619
554.499	9.66304
556.243	8.48069
557.987	8.32292
559.73	7.87657
561.474	8.10498
563.216	7.24439
564.959	7.36416
566.701	6.37342
568.441	5.84013
570.182	5.83675
571.923	6.07597
573.664	5.66386
575.405	4.94098
577.145	3.80221
578.885	3.93447
580.624	4.51531
582.361	5.2962
584.1	4.61648
585.839	4.46786
587.577	4.80252
589.315	4.90809
591.052	5.29473
592.787	5.48735
594.524	5.93951
596.26	5.4689
597.997	5.22282
599.732	5.55597
601.466	4.82168
603.201	3.96371
604.936	4.33772
606.67	4.32297
608.403	4.68624
610.136	5.21976
611.87	5.94756
613.603	5.7348
615.334	5.73019
617.067	6.08023
618.799	6.08656
620.529	6.44627
622.26	6.49926
623.991	7.78136
625.72	8.2167
627.451	9.56744
629.181	10.0321
630.909	9.88894
632.638	10.9829
634.368	11.4898
636.095	11.5491
637.823	12.0314
639.551	12.0779
641.277	13.2983
643.005	12.9917
644.73	13.6201
646.457	13.9734
648.184	14.4015
649.908	14.4086
651.634	15.3545
653.357	15.3856
655.083	15.5063
656.806	15.4526
658.53	15.518
660.253	15.5834
661.977	16.5141
663.7	16.9741
665.422	17.9505
667.145	18.6552
668.865	18.9659
670.588	18.9174
672.308	19.4573
674.027	19.2431
675.749	19.4896
677.468	19.9186
679.188	19.3743
680.907	19.6374
682.627	19.4592
684.345	19.5587
686.064	20.9134
687.781	20.3469
689.498	20.4332
691.216	21.4259
692.932	21.6135
694.65	22.23
696.366	22.5548
698.081	22.111
699.797	22.3096
701.512	22.6032
703.228	23.0047
704.942	23.5277
706.655	24.4787
708.371	25.6771
710.083	26.6374
711.796	27.8092
713.51	28.2885
715.222	27.8717
716.934	28.1797
718.645	28.94
720.358	28.2742
722.068	28.7677
723.779	29.5726
725.49	30.8336
727.2	31.3121
728.909	31.4067
730.618	32.9277
732.329	33.5475
734.037	34.4751
735.745	35.6068
737.453	36.6213
739.16	37.2683
740.869	38.0748
742.576	38.8634
744.282	40.5104
745.988	42.6698
747.694	44.6469
749.401	46.4495
751.107	48.4584
752.811	49.4397
754.516	51.5618
756.22	52.7382
757.924	53.7168
759.627	55.1443
761.332	56.4832
763.035	58.15
764.738	58.6642
766.44	60.0322
768.142	61.2204
769.843	62.8505
771.544	64.4187
773.245	64.8505
774.946	65.6799
776.646	66.9169
778.346	68.0264
780.046	68.3808
781.745	68.8501
783.444	69.3266
785.143	70.8838
786.841	71.7024
788.539	73.3555
790.237	75.6744
791.934	76.7635
793.631	77.43
795.328	77.7507
797.024	78.2357
798.72	77.1529
800.416	77.3941
802.112	77.4572
803.807	77.8337
805.502	78.0864
807.196	78.5826
808.89	78.1063
810.584	78.441
812.278	77.5018
813.971	78.3426
815.664	78.7043
817.354	77.8614
819.047	77.5477
820.739	77.7579
822.43	77.1483
824.122	76.2536
825.813	75.9227
827.503	75.0785
829.192	75.4264
830.882	75.8792
832.571	75.0353
834.261	74.0528
835.95	73.501
837.637	72.4487
839.325	71.9218
841.013	70.4098
842.701	69.0687
844.389	68.1326
846.074	67.2275
847.761	66.2349
849.447	64.1514
851.131	63.3817
852.817	62.3707
854.503	61.3114
856.188	59.6164
857.871	58.5844
859.556	57.1958
861.24	56.3975
862.922	55.1992
864.606	54.8001
866.289	54.5315
867.97	53.891
869.653	53.6001
871.336	52.5398
873.016	52.1998
874.698	51.452
876.379	49.9557
878.058	49.2119
879.739	48.4508
881.418	48.0686
883.098	47.7673
884.778	48.2923
886.456	47.5916
888.135	47.1449
889.812	46.4954
891.49	44.9789
893.167	44.7218
894.845	44.3909
896.523	43.6338
898.198	44.3023
899.875	44.1044
901.55	43.7915
903.226	45.0559
904.901	45.5321
906.576	45.6303
908.25	46.2132
909.925	46.5202
911.598	47.2521
913.271	48.2067
914.945	48.0011
916.617	47.6655
918.291	47.8393
919.962	47.6252
921.635	47.4741
923.306	47.7328
924.978	47.8683
926.648	48.2315
928.318	48.2658
929.989	47.8916
931.659	47.2847
933.328	47.714
934.998	48.1855
936.666	48.2476
938.336	48.4422
940.004	48.2973
941.671	48.3994
943.34	47.5707
945.007	47.5791
946.673	47.3711
948.339	46.7129
950.007	45.0517
951.672	43.9873
953.337	43.5716
955.004	42.7771
956.669	41.7487
958.333	41.133
959.997	40.2816
961.662	40.0862
963.326	39.4094
964.989	39.1102
966.651	39.3882
968.315	38.5682
969.977	38.3028
971.639	37.1896
973.301	37.4532
974.962	36.8633
976.624	37.1758
978.285	36.9988
979.945	36.8742
981.605	36.6955
983.264	36.6248
984.924	36.4254
986.583	36.8088
988.243	35.7343
989.901	35.3037
991.56	34.0779
993.217	32.9726
994.875	33.0677
996.532	32.6092
998.188	32.4699
999.845	32.9166
1001.5	32.9474
1003.16	32.0676
1004.81	32.7423
1006.47	32.8678
1008.12	32.3554
1009.78	32.9542
1011.43	32.9664
1013.09	33.8607
1014.74	34.439
1016.39	35.6188
1018.05	36.7068
1019.7	37.8641
1021.35	38.8846
1023	39.3645
1024.65	39.497
1026.31	39.3499
1027.96	40.4046
1029.61	40.0523
1031.26	40.0294
1032.91	41.2627
1034.56	41.9173
1036.21	41.86
1037.86	41.7683
1039.51	41.945
1041.16	42.3136
1042.8	42.6024
1044.45	42.4759
1046.1	42.5359
1047.75	42.3312
1049.39	41.8003
1051.04	40.0509
1052.69	38.9897
1054.33	37.0877
1055.98	35.8214
1057.62	33.7236
1059.27	31.7994
1060.91	30.8472
1062.56	29.1765
1064.2	27.3461
1065.85	25.7765
1067.49	23.2892
1069.13	21.2559
1070.77	19.6605
1072.42	17.789
1074.06	16.2201
1075.7	14.8572
1077.34	13.6901
1078.98	13.0695
1080.62	11.7104
1082.27	10.7981
1083.91	10.132
1085.55	8.6205
1087.18	8.42246
1088.82	8.41314
1090.46	8.17869
1092.1	9.41276
1093.74	10.1142
1095.38	10.3979
1097.02	10.4958
1098.65	11.9848
1100.29	12.1069
1101.93	12.3271
1103.56	11.8894
1105.2	11.217
1106.84	10.7503
1108.47	11.1585
1110.11	11.1284
1111.74	11.1634
1113.38	11.4525
1115.01	12.0443
1116.64	11.7858
1118.28	10.8895
1119.91	10.7666
1121.54	10.5242
1123.18	9.7397
1124.81	9.82788
1126.44	9.61243
1128.07	9.414
1129.7	8.4982
1131.33	8.2603
1132.97	7.20914
1134.6	7.43121
1136.23	7.28477
1137.86	7.41172
1139.49	7.553
1141.11	6.44008
1142.74	6.47394
1144.37	5.47551
1146	4.80062
1147.63	4.19174
1149.26	3.96636
1150.88	4.22113
1152.51	4.17192
1154.14	3.54592
1155.76	2.95898
1157.39	3.05015
1159.01	3.07062
1160.64	3.32674
1162.27	2.70624
1163.89	3.05092
1165.51	3.16599
1167.14	3.07651
1168.76	4.22785
1170.39	5.45413
1172.01	5.24149
1173.63	5.49776
1175.25	5.14037
1176.88	5.27177
1178.5	5.65457
1180.12	5.42103
1181.74	4.8558
1183.36	5.17321
1184.98	4.91421
1186.6	4.99602
1188.22	5.78375
1189.84	5.88795
1191.46	5.18073
1193.08	5.72858
1194.7	5.47517
1196.32	5.90171
1197.94	6.57314
1199.55	6.67081
1201.17	7.28171
1202.79	8.27149
1204.41	9.06259
1206.02	10.091
1207.64	10.8325
1209.25	11.5732
1210.87	12.792
1212.48	13.6521
1214.1	13.9863
1215.71	15.0529
1217.33	16.0102
1218.94	16.8954
1220.56	17.2606
1222.17	18.119
1223.79	19.6911
1225.4	20.9697
1227.01	22.0864
1228.62	23.3469
1230.23	25.1851
1231.85	26.3405
1233.46	26.7185
1235.07	27.0059
1236.68	27.2543
1238.29	27.9924
1239.9	28.5189
1241.51	29.0727
1243.12	30.1222
1244.73	31.5669
1246.34	32.104
1247.94	32.0917
1249.55	32.842
1251.16	32.9082
1252.77	32.5762
1254.37	32.74
1255.98	32.5545
1257.59	32.0305
1259.2	31.0239
1260.8	30.0627
1262.41	29.9612
1264.01	29.9167
1265.62	29.5051
1267.22	29.0386
1268.83	29.494
1270.43	28.4088
1272.03	28.5325
1273.64	28.9714
1275.24	29.1234
1276.85	28.91
1278.45	29.7338
1280.05	30.0891
1281.65	30.591
1283.25	31.1028
1284.85	31.7096
1286.46	31.7118
1288.06	32.5833
1289.66	32.8735
1291.26	33.1573
1292.86	33.793
1294.46	34.7726
1296.06	35.3387
1297.66	36.4688
1299.25	37.0767
1300.85	37.7284
1302.45	38.9669
1304.05	39.8612
1305.65	40.7603
1307.24	41.3902
1308.84	42.1532
1310.43	42.5915
1312.03	41.7182
1313.63	41.8147
1315.22	42.1422
1316.82	42.5306
1318.41	43.3285
1320.01	44.2236
1321.6	44.2421
1323.2	44.1299
1324.79	44.1988
1326.38	43.0636
1327.98	42.9825
1329.57	43.1958
1331.16	41.6634
1332.76	40.4279
1334.35	39.5831
1335.94	38.5883
1337.53	37.4199
1339.12	36.9776
1340.71	37.0268
1342.3	36.4623
1343.89	36.3384
1345.48	35.4724
1347.07	34.7776
1348.66	34.4103
1350.25	32.9314
1351.84	32.2953
1353.43	31.3254
1355.01	30.4558
1356.6	30.0676
1358.19	29.3463
1359.77	28.8628
1361.36	28.1133
1362.95	26.7353
1364.53	26.5751
1366.12	25.8459
1367.71	25.4962
1369.29	24.8638
1370.88	24.4401
1372.46	24.2816
1374.04	23.3712
1375.63	22.7969
1377.21	22.6061
1378.8	21.9321
1380.38	21.3309
1381.96	20.9456
1383.54	20.4236
1385.13	19.7159
1386.71	19.4414
1388.29	19.3262
1389.87	19.1013
1391.45	19.1192
1393.03	20.1454
1394.61	20.3333
1396.19	20.4581
1397.77	21.0704
1399.35	22.0744
1400.93	21.3688
1402.51	20.7
1404.09	20.6908
1405.67	19.8531
1407.24	20.0195
1408.82	20.202
1410.4	20.0991
1411.98	20.9195
1413.55	22.1405
1415.13	23.0717
1416.71	24.3614
1418.28	25.7547
1419.86	27.4377
1421.43	28.6459
1423.01	30.3441
1424.58	31.9537
1426.16	33.7923
1427.73	35.5742
1429.31	37.3268
1430.88	39.262
1432.45	40.8339
1434.02	42.7186
1435.6	43.9364
1437.17	45.3843
1438.74	47.5097
1440.31	48.635
1441.88	49.1531
1443.45	50.9017
1445.03	50.8909
1446.6	51.6912
1448.17	52.1514
1449.74	52.7724
1451.3	53.2533
1452.87	53.3302
1454.44	52.7725
1456.01	52.0729
1457.58	51.0918
1459.15	50.06
1460.72	49.1689
1462.28	47.6828
1463.85	46.4595
1465.42	45.3301
1466.98	44.5111
1468.55	43.2807
1470.12	42.5451
1471.68	41.0067
1473.25	39.2115
1474.81	36.8636
1476.38	35.4326
1477.94	33.3043
1479.51	30.5052
1481.07	28.1739
1482.63	26.4035
1484.2	24.3035
1485.76	22.7698
1487.32	21.9152
1488.88	20.5453
1490.45	19.6838
1492.01	18.5778
1493.57	17.4508
1495.13	16.9136
1496.69	15.5953
1498.25	15.5992
1499.81	15.2822
1501.37	15.3244
1502.93	15.3748
1504.49	14.9603
1506.05	14.8442
1507.61	14.5644
1509.17	13.8906
1510.73	14.0494
1512.28	14.1151
1513.84	14.1077
1515.4	14.7835
1516.96	14.658
1518.51	14.0816
1520.07	14.3468
1521.63	14.8981
1523.18	14.1268
1524.74	14.8292
1526.29	15.1255
1527.85	14.9777
1529.4	14.1273
1530.96	13.9697
1532.51	13.2892
1534.06	13.1529
1535.62	12.8497
1537.17	12.4613
1538.72	12.5463
1540.28	12.5457
1541.83	13.3623
1543.38	14.1581
1544.93	14.7871
1546.48	14.6271
1548.03	15.3172
1549.59	15.1997
1551.14	15.0003
1552.69	15.1777
1554.24	15.9879
1555.79	15.2666
1557.34	15.3699
1558.88	14.2879
1560.43	14.4967
1561.98	15.2121
1563.53	15.9485
1565.08	17.2371
1566.62	17.2381
1568.17	17.2467
1569.72	17.7405
1571.27	18.4681
1572.81	19.5589
1574.36	19.7649
1575.9	20.923
1577.45	21.6132
1579	22.5343
1580.54	23.5663
1582.09	24.5798
1583.63	25.6339
1585.17	26.1081
1586.72	27.2554
1588.26	28.5373
1589.8	28.9324
1591.35	29.743
1592.89	30.0298
1594.43	29.8438
1595.97	29.4043
1597.52	30.2899
1599.06	29.8793
1600.6	29.2323
1602.14	29.651
1603.68	29.5054
1605.22	28.7576
1606.76	28.2936
1608.3	28.0822
1609.84	27.8793
1611.38	27.989
1612.92	29.1174
1614.46	28.8718
1615.99	29.6893
1617.53	29.9853
1619.07	30.4636
1620.61	30.5488
1622.14	30.5518
1623.68	29.6467
1625.22	29.9172
1626.75	29.8151
1628.29	30.1045
1629.82	29.9167
1631.36	30.0126
1632.9	29.5358
1634.43	30.4524
1635.96	30.8947
1637.5	31.9586
1639.03	32.759
1640.57	32.8923
1642.1	33.199
1643.63	33.0323
1645.16	33.638
1646.7	34.6506
1648.23	35.5353
1649.76	36.1041
1651.29	36.2064
1652.82	36.7768
1654.36	37.7335
1655.89	38.9121
1657.42	39.246
1658.95	39.2064
1660.48	39.3228
1662.01	39.3282
1663.53	39.3365
1665.06	38.7374
1666.59	37.6584
1668.12	36.4835
1669.65	35.6378
1671.18	33.6026
1672.7	32.6173
1674.23	31.8032
1675.76	30.2522
1677.29	29.0983
1678.81	28.6593
1680.34	27.2322
1681.86	25.8508
1683.39	24.6944
1684.91	23.8894
1686.44	23.812
1687.96	23.214
1689.49	22.0123
1691.01	19.9827
1692.54	18.9333
1694.06	17.1698
1695.58	15.8675
1697.11	14.2021
1698.63	12.4461
1700.15	10.8521
1701.67	10.2213
1703.2	9.18048
1704.72	8.42922
1706.24	7.19785
1707.76	6.83121
1709.28	6.33994
1710.8	6.69258
1712.32	6.64288
1713.84	6.32118
1715.36	5.72778
1716.88	5.17308
1718.4	4.88048
1719.91	4.76977
1721.43	4.92977
1722.95	5.17826
1724.47	5.29016
1725.99	4.80249
1727.5	4.51488
1729.02	4.90744
1730.54	5.27981
1732.05	5.30648
1733.57	5.3194
1735.09	5.11649
1736.6	5.17475
1738.12	5.07589
1739.63	4.76909
1741.15	4.28756
1742.66	3.76906
1744.18	3.47521
1745.69	3.66831
1747.2	2.99869
1748.72	3.29834
1750.23	3.41862
1751.74	3.63609
1753.25	3.72518
1754.77	3.57727
1756.28	3.20752
1757.79	3.25915
1759.3	3.21512
1760.81	3.40634
1762.32	3.2863
1763.83	2.98866
1765.34	2.48039
1766.85	2.258
1768.36	1.78877
1769.87	1.5029
1771.38	1.38346
1772.89	1.33218
1774.4	1.31848
1775.91	1.80911
1777.41	1.78325
1778.92	2.10733
1780.43	2.78259
1781.94	2.5831
1783.44	2.78524
1784.95	3.23685
1786.45	3.42393
1787.96	3.01968
1789.47	2.58843
1790.97	2.57512
1792.47	2.85293
1793.98	3.50095
1795.48	3.67009
1796.99	4.24651
1798.49	4.1045
1800	4.24162
1801.5	4.14059
1803	4.10126
1804.51	4.22242
1806.01	4.39403
1807.51	4.4219
1809.01	4.33167
1810.51	4.25751
1812.02	4.49943
1813.52	4.08333
1815.02	3.35788
1816.52	2.90942
1818.02	3.06581
1819.52	3.02951
1821.02	3.07308
1822.52	2.71496
1824.02	2.71194
1825.51	3.17012
1827.01	2.90231
1828.51	2.70805
1830.01	2.91598
1831.51	3.50384
1833	3.72346
1834.5	3.82024
1836	3.70856
1837.49	3.41567
1838.99	3.94504
1840.49	3.83969
1841.98	4.33311
1843.48	4.21473
1844.97	4.49178
1846.47	4.9826
1847.96	5.65718
1849.46	5.37587
1850.95	5.49214
1852.45	5.22898
1853.94	5.27202
1855.43	5.23616
1856.92	4.70872
1858.42	5.02551
1859.91	4.85514
1861.4	4.82588
1862.89	4.97333
1864.39	5.06201
1865.88	4.99238
1867.37	4.93775
1868.86	4.82662
1870.35	4.20063
1871.84	4.26646
1873.33	4.08772
1874.82	4.45109
1876.31	4.15629
1877.8	3.55633
1879.29	3.42794
1880.77	2.90855
1882.26	2.53484
1882.52	2.61366
1884.02	2.68129
1885.51	2.31438
1887.01	2.33253
1888.5	2.82103
1889.99	3.19112
1891.49	3.52531
1892.98	3.74394
1894.47	3.82337
1895.96	4.5896
1897.46	5.3358
1898.95	5.85855
1900.44	6.19386
1901.93	6.45039
1903.42	6.82924
1904.91	6.51547
1906.4	6.58345
1907.89	6.44892
1909.38	6.10158
1910.87	6.64754
1912.36	7.03095
1913.85	6.98153
1915.34	6.95929
1916.83	6.68096
1918.32	7.06868
1919.8	7.63346
1921.29	7.79508
1922.78	7.62672
1924.27	7.9594
1925.75	8.09501
1927.24	8.05597
1928.73	8.0188
1930.21	7.43015
1931.7	7.20474
1933.18	6.78805
1934.67	6.87088
1936.15	6.27302
1937.64	5.83904
1939.12	5.0588
1940.61	4.73849
1942.09	4.29072
1943.57	4.03923
1945.06	3.84016
1946.54	4.0378
1948.02	3.49294
1949.51	2.40946
1950.99	1.79716
1952.47	1.77293
1953.95	1.56942
1955.43	2.05644
1956.91	1.95392
1958.39	2.00873
1959.87	1.85262
1961.36	2.19892
1962.84	2.32932
1964.32	2.04798
1965.79	2.92975
1967.27	3.18705
1968.75	3.47348
1970.23	3.29523
1971.71	2.85559
1973.19	2.85365
1974.66	2.28457
1976.14	1.73227
1977.62	2.21776
1979.1	1.93033
1980.57	2.42762
1982.05	2.45619
1983.53	2.42428
1985	2.98047
1986.48	3.63797
1987.95	3.88214
1989.43	4.12565
1990.9	4.06556
1992.38	4.21861
1993.85	4.45303
1995.33	4.22412
1996.8	3.8823
1998.27	3.67467
1999.75	3.85884
2001.22	3.55976
2002.69	3.6807
2004.16	3.48086
2005.64	3.79165
2007.11	3.56414
2008.58	3.13823
2010.05	2.78388
2011.52	2.60575
2012.99	2.84865
2014.46	2.92722
2015.93	3.11305
2017.4	3.35011
2018.87	3.03515
2020.34	2.85994
2021.81	2.16845
2023.28	1.8375
2024.75	1.91193
2026.22	1.59051
2027.69	2.31928
2029.15	2.2614
2030.62	2.0137
2032.09	2.37985
2033.56	2.12313
2035.02	2.52544
2036.49	3.25002
2037.95	3.45943
2039.42	3.75423
2040.89	3.68011
2042.35	3.51304
2043.82	3.03142
2045.28	3.4063
2046.75	3.7838
2048.21	3.69079
2049.67	3.8975
2051.14	4.76924
2052.6	4.26731
2054.06	5.03599
2055.53	5.29734
2056.99	5.38842
2058.45	5.59292
2059.92	5.90648
2061.38	4.86906
2062.84	4.39074
2064.3	4.28208
2065.76	4.76064
2067.22	4.84361
2068.68	4.92694
2070.14	5.39318
2071.6	6.05191
2073.06	6.18462
2074.52	6.08259
2075.98	6.11465
2077.44	5.9863
2078.9	5.77924
2080.36	5.88043
2081.82	5.86262
2083.27	6.34131
2084.73	6.06227
2086.19	6.38494
2087.65	6.13698
2089.1	6.17103
2090.56	5.8283
2092.01	5.56975
2093.47	5.41662
2094.93	5.9777
2096.38	5.31703
2097.84	5.60567
2099.29	5.47007
2100.75	6.06281
2102.2	5.54597
2103.66	5.79406
2105.11	5.92085
2106.56	6.12776
2108.02	6.46741
2109.47	6.27552
2110.92	5.86485
2112.37	6.12324
2113.83	6.1143
2115.28	5.99553
2116.73	6.03303
2118.18	6.36464
2119.63	6.89518
2121.09	6.7151
2122.54	6.96491
2123.99	8.1414
2125.44	7.80378
2126.89	8.43253
2128.34	8.44771
2129.79	8.41322
2131.23	8.61869
2132.68	9.13225
2134.13	9.00396
2135.58	9.98735
