#Acq. time (s)=	45
#Accumulations=	2
#Range (cm-¹)=	200...3150
#Windows=	2
#Auto scanning=	Off
#Autofocus=	Off
#Macrospot=	Off
#AutoExposure=	Off
#Spike filter=	Multiple accum.
#Delay time (s)=	0
#Binning=	1
#Readout mode=	Signal
#DeNoise=	Off
#ICS correction=	On
#Dark correction=	Off
#Inst. Process=	Off
#Detector Gain=	Best Dynamic Range
#Detector ADC=	20 kHz       
#Detector temperature (°C)=	-69.85
#Instrument=	LabRAM HR Evol
#Detector=	Synapse
#Objective=	x100
#Grating=	600 gr/mm
#ND Filter=	100%
#Laser (nm)=	532 
#Hole=	100.021
#Range=	Auto
#Laser Pol.=	No
#Raman. Pol.=	No
#Laser Pol. (°)=	-0.0007625
#Raman Pol. (°)=	89.9995
#Collection=	Microscope
#StageXY=	Marzhauser
#StageZ=	Marzhauser
#X (µm)=	-607.2
#Y (µm)=	-1587.1
#Z (µm)=	90.15
#Full time(mm:ss)=	3:18
#Project=	
#Sample=	
#Site=	
#Title=	Mb_10_14_32_2x_45s_532 nm_x100_100%_600 gr_mm
#Remark=	
#Date=	11.07.2022 10:54
#Acquired=	11.07.2022 10:54:20
#Base:Fit=	10.08.2022 10:21:11
#Base:Sub=	10.08.2022 10:21:41
#Filter:Polynom=	16.08.2022 10:17:53
#AxisType[0]=Intens
#AxisUnit[0]=Cnt
#AxisType[1]=Spectr
#AxisUnit[1]=1/cm
200.388	72.9758
202.204	70.35
204.019	66.6712
205.832	61.7651
207.646	57.0109
209.459	52.2379
211.274	47.984
213.087	44.2689
214.899	41.8485
216.711	38.9551
218.524	36.9589
220.335	37.1304
222.146	36.5936
223.956	36.4928
225.766	36.8997
227.576	36.4762
229.388	35.5142
231.197	36.4392
233.005	36.3708
234.813	36.286
236.621	36.7882
238.429	37.0568
240.236	38.0849
242.045	38.2722
243.852	38.2304
245.658	38.1217
247.464	38.7228
249.269	39.1208
251.074	39.9364
252.879	40.9158
254.683	39.4722
256.487	40.3819
258.291	41.3942
260.094	42.2002
261.897	41.4905
263.702	41.0079
265.504	40.3991
267.306	38.9455
269.108	38.1767
270.909	35.7237
272.71	35.6253
274.511	34.8531
276.311	32.1886
278.111	30.8694
279.91	29.7042
281.709	26.2454
283.508	23.8329
285.306	21.9747
287.105	19.8724
288.9	18.7837
290.698	16.2788
292.495	15.0109
294.291	13.3526
296.088	12.3924
297.884	10.9841
299.679	9.93937
301.475	10.848
303.27	10.6493
305.064	10.7945
306.858	10.4328
308.652	10.2012
310.444	10.8846
312.237	10.649
314.03	10.45
315.822	10.2787
317.615	10.0273
319.406	9.4254
321.198	10.254
322.987	10.3764
324.778	11.0922
326.568	11.595
328.358	11.6034
330.148	12.45
331.935	11.9947
333.724	12.794
335.513	12.5331
337.301	12.3835
339.089	11.3801
340.875	10.5218
342.662	9.49117
344.449	9.16506
346.236	8.93977
348.02	8.5582
349.806	7.72018
351.592	7.39859
353.375	6.96476
355.16	6.86771
356.944	7.05237
358.728	6.77287
360.51	7.52268
362.294	8.33333
364.077	7.76278
365.858	6.97515
367.64	7.47791
369.422	8.21015
371.202	8.93749
372.983	9.29105
374.764	10.8799
376.543	12.0629
378.324	14.2147
380.102	13.899
381.881	14.4773
383.661	15.2008
385.438	16.8514
387.216	17.4403
388.993	19.1998
390.771	20.0284
392.548	20.6902
394.324	21.5809
396.101	21.7803
397.875	21.9245
399.651	23.1038
401.425	23.3411
403.201	22.8405
404.974	22.6936
406.749	22.1216
408.524	21.2573
410.296	21.1984
412.07	20.6846
413.841	20.3188
415.614	19.3375
417.385	18.382
419.156	18.1029
420.928	16.062
422.698	14.4971
424.469	12.8057
426.238	10.9955
428.009	9.25652
429.777	8.6263
431.548	8.4525
433.315	8.80923
435.083	8.01173
436.852	7.82102
438.618	7.55932
440.387	7.00546
442.153	6.17717
443.919	5.24611
445.686	4.0045
447.451	2.54454
449.218	2.36956
450.982	1.65016
452.746	1.46903
454.512	2.26925
456.275	2.91502
458.038	3.64064
459.803	3.95005
461.565	2.82556
463.327	3.86883
465.091	4.31608
466.852	5.69281
468.613	5.21173
470.374	7.19517
472.136	8.40494
473.896	9.08352
475.655	9.94746
477.415	11.7524
479.176	12.4052
480.934	13.0983
482.692	13.669
484.45	13.2333
486.21	14.3878
487.967	16.0045
489.724	16.2117
491.481	16.7811
493.237	16.6052
494.995	17.2263
496.75	17.1241
498.506	18.53
500.26	18.8117
502.015	18.8964
503.769	19.5124
505.525	19.9677
507.279	21.9925
509.032	22.2362
510.785	22.9797
512.537	23.574
514.289	22.7132
516.041	23.3531
517.793	24.4334
519.546	24.4492
521.297	23.6804
523.047	22.5894
524.797	22.5889
526.547	22.3348
528.297	21.3865
530.046	20.8507
531.795	20.2525
533.543	19.4176
535.291	19.9489
537.039	19.8719
538.787	19.3087
540.534	18.7774
542.281	17.9717
544.027	16.5214
545.773	16.0281
547.519	15.7624
549.264	15.2036
551.01	15.8077
552.754	15.2264
554.499	13.9882
556.243	11.3537
557.987	12.1664
559.73	11.2659
561.474	11.015
563.216	10.5763
564.959	10.2665
566.701	9.87098
568.441	8.94226
570.182	9.11877
571.923	8.2525
573.664	9.10738
575.405	8.84493
577.145	7.14724
578.885	6.98304
580.624	6.5251
582.361	6.94616
584.1	6.59128
585.839	6.9994
587.577	5.68448
589.315	6.3432
591.052	6.55597
592.787	6.12199
594.524	6.32706
596.26	4.62623
597.997	3.80076
599.732	3.35836
601.466	3.15342
603.201	2.40904
604.936	1.73519
606.67	2.49594
608.403	2.45206
610.136	3.54307
611.87	4.77739
613.603	4.15135
615.334	4.81899
617.067	5.07763
618.799	5.23832
620.529	5.64544
622.26	6.55818
623.991	5.13177
625.72	5.60679
627.451	5.33606
629.181	5.23404
630.909	5.45059
632.638	6.77163
634.368	7.70069
636.095	7.54875
637.823	7.61735
639.551	7.81763
641.277	7.09163
643.005	9.17977
644.73	10.8606
646.457	11.3215
648.184	11.9784
649.908	12.9331
651.634	13.8458
653.357	15.4
655.083	16.0167
656.806	17.666
658.53	17.3628
660.253	18.0262
661.977	18.8525
663.7	18.7404
665.422	18.6041
667.145	19.4042
668.865	18.3683
670.588	18.7268
672.308	19.4076
674.027	20.4366
675.749	21.6529
677.468	22.1175
679.188	23.8889
680.907	24.386
682.627	25.18
684.345	25.9033
686.064	26.9096
687.781	27.6845
689.498	28.5797
691.216	29.6776
692.932	32.593
694.65	32.4658
696.366	33.2606
698.081	33.7137
699.797	34.6747
701.512	36.3244
703.228	36.6249
704.942	38.2845
706.655	38.8498
708.371	39.7572
710.083	40.2539
711.796	41.8268
713.51	42.0864
715.222	43.276
716.934	44.1953
718.645	45.2715
720.358	45.0453
722.068	44.1016
723.779	44.9079
725.49	44.8902
727.2	45.095
728.909	47.0227
730.618	47.0905
732.329	48.4308
734.037	48.5939
735.745	49.405
737.453	50.9701
739.16	51.4597
740.869	51.4942
742.576	51.9173
744.282	51.8308
745.988	53.8343
747.694	55.8637
749.401	56.4513
751.107	56.6666
752.811	58.4854
754.516	59.2982
756.22	61.952
757.924	63.75
759.627	64.9855
761.332	66.1038
763.035	68.0592
764.738	69.2882
766.44	69.7966
768.142	70.6948
769.843	72.5764
771.544	73.7472
773.245	74.5034
774.946	76.2852
776.646	77.3992
778.346	79.9232
780.046	80.4443
781.745	81.7249
783.444	83.5784
785.143	85.6983
786.841	86.1205
788.539	86.113
790.237	87.2454
791.934	87.3722
793.631	87.424
795.328	88.1915
797.024	88.6991
798.72	88.0294
800.416	88.2532
802.112	87.137
803.807	87.1565
805.502	85.6371
807.196	85.5589
808.89	86.1971
810.584	86.105
812.278	87.1785
813.971	86.8571
815.664	86.1653
817.354	86.0784
819.047	85.0608
820.739	85.2464
822.43	85.9787
824.122	85.8763
825.813	86.2143
827.503	86.6399
829.192	87.0915
830.882	87.6832
832.571	87.5832
834.261	87.7697
835.95	87.48
837.637	87.3895
839.325	87.9153
841.013	88.6293
842.701	88.5173
844.389	89.1107
846.074	89.1003
847.761	89.0301
849.447	88.4432
851.131	88.1958
852.817	88.4671
854.503	88.2654
856.188	86.9297
857.871	86.1931
859.556	86.4534
861.24	85.7549
862.922	85.1614
864.606	85.0976
866.289	84.3787
867.97	84.0176
869.653	83.5309
871.336	82.2843
873.016	81.0621
874.698	80.5898
876.379	79.46
878.058	78.8959
879.739	79.144
881.418	78.0478
883.098	76.9125
884.778	76.4897
886.456	76.1768
888.135	76.508
889.812	75.249
891.49	75.5702
893.167	75.9289
894.845	75.7699
896.523	75.136
898.198	73.8597
899.875	73.5812
901.55	73.5566
903.226	73.4182
904.901	74.5047
906.576	74.0884
908.25	74.7371
909.925	74.9799
911.598	76.4592
913.271	76.2932
914.945	76.2428
916.617	76.5303
918.291	77.9764
919.962	77.3829
921.635	77.5385
923.306	79.3022
924.978	79.5073
926.648	79.5294
928.318	81.0017
929.989	80.0955
931.659	79.2616
933.328	79.1697
934.998	78.428
936.666	78.1911
938.336	77.6746
940.004	78.2439
941.671	78.3268
943.34	78.1845
945.007	78.8219
946.673	78.2579
948.339	78.1823
950.007	77.6985
951.672	77.0744
953.337	76.9338
955.004	76.0657
956.669	75.2074
958.333	75.3092
959.997	74.9027
961.662	75.3862
963.326	75.5783
964.989	76.4028
966.651	77.0126
968.315	78.3934
969.977	78.9319
971.639	79.3797
973.301	79.7258
974.962	81.8275
976.624	83.2202
978.285	82.9597
979.945	82.283
981.605	83.4672
983.264	84.2771
984.924	84.5686
986.583	85.099
988.243	85.9688
989.901	86.6968
991.56	86.9881
993.217	86.8658
994.875	87.271
996.532	87.3973
998.188	88.0513
999.845	88.4358
1001.5	89.096
1003.16	88.0779
1004.81	88.3916
1006.47	88.5537
1008.12	88.656
1009.78	87.9886
1011.43	87.5952
1013.09	86.8852
1014.74	86.7974
1016.39	88.1474
1018.05	89.0861
1019.7	90.0235
1021.35	90.766
1023	91.1073
1024.65	90.5692
1026.31	90.2468
1027.96	91.2418
1029.61	89.6481
1031.26	90.626
1032.91	90.5765
1034.56	89.6939
1036.21	89.9339
1037.86	88.9332
1039.51	88.7077
1041.16	88.0139
1042.8	87.3016
1044.45	87.1796
1046.1	88.094
1047.75	88.2146
1049.39	87.2154
1051.04	86.6244
1052.69	85.5511
1054.33	84.6577
1055.98	83.9446
1057.62	82.6008
1059.27	80.6195
1060.91	78.2261
1062.56	76.356
1064.2	75.4339
1065.85	73.461
1067.49	71.5779
1069.13	69.8663
1070.77	68.4052
1072.42	65.9953
1074.06	64.5249
1075.7	64.5321
1077.34	63.6004
1078.98	61.9029
1080.62	59.7866
1082.27	58.0103
1083.91	58.237
1085.55	57.3168
1087.18	56.6898
1088.82	57.5012
1090.46	57.6208
1092.1	57.4183
1093.74	58.7204
1095.38	60.2981
1097.02	60.6209
1098.65	62.362
1100.29	63.4038
1101.93	63.6618
1103.56	64.1939
1105.2	64.4382
1106.84	64.5842
1108.47	65.5649
1110.11	65.9093
1111.74	65.7048
1113.38	66.7109
1115.01	66.1027
1116.64	65.7035
1118.28	65.0661
1119.91	64.0794
1121.54	63.9019
1123.18	62.7418
1124.81	62.796
1126.44	62.6479
1128.07	62.3162
1129.7	62.3503
1131.33	61.7585
1132.97	61.0347
1134.6	59.9486
1136.23	59.7084
1137.86	60.4226
1139.49	59.1693
1141.11	57.9902
1142.74	56.4029
1144.37	54.8732
1146	52.5916
1147.63	51.3106
1149.26	49.8297
1150.88	48.6144
1152.51	47.8287
1154.14	46.7065
1155.76	46.2869
1157.39	44.1796
1159.01	41.3011
1160.64	39.3716
1162.27	38.5971
1163.89	38.1562
1165.51	38.2624
1167.14	36.4966
1168.76	36.8976
1170.39	38.475
1172.01	37.2421
1173.63	36.6072
1175.25	37.0336
1176.88	36.897
1178.5	36.5318
1180.12	37.3532
1181.74	37.5868
1183.36	36.5008
1184.98	36.8386
1186.6	36.9924
1188.22	37.4192
1189.84	37.3283
1191.46	36.8593
1193.08	36.8435
1194.7	37.9651
1196.32	38.3701
1197.94	38.862
1199.55	39.1602
1201.17	40.5956
1202.79	41.5877
1204.41	42.2573
1206.02	44.1339
1207.64	45.8161
1209.25	47.5528
1210.87	49.4425
1212.48	49.3637
1214.1	50.2003
1215.71	51.6546
1217.33	53.8786
1218.94	55.259
1220.56	55.0105
1222.17	55.6785
1223.79	55.6538
1225.4	55.4584
1227.01	55.5335
1228.62	58.4627
1230.23	60.0431
1231.85	60.804
1233.46	60.6928
1235.07	61.7979
1236.68	63.1447
1238.29	62.8754
1239.9	63.7768
1241.51	65.8782
1243.12	67.3743
1244.73	68.3741
1246.34	68.8352
1247.94	69.6683
1249.55	71.3654
1251.16	71.863
1252.77	71.6704
1254.37	71.9249
1255.98	72.9728
1257.59	72.8226
1259.2	73.5465
1260.8	73.1196
1262.41	72.785
1264.01	72.2315
1265.62	73.4376
1267.22	73.6341
1268.83	75.1953
1270.43	74.8
1272.03	75.7377
1273.64	76.4321
1275.24	77.5647
1276.85	77.84
1278.45	78.0476
1280.05	78.7293
1281.65	79.5649
1283.25	80.6394
1284.85	81.251
1286.46	82.3815
1288.06	82.0539
1289.66	82.5502
1291.26	82.2449
1292.86	83.2534
1294.46	84.3661
1296.06	84.6976
1297.66	85.2416
1299.25	84.7303
1300.85	84.3808
1302.45	85.0802
1304.05	86.1526
1305.65	87.3258
1307.24	89.1865
1308.84	91.2204
1310.43	91.8194
1312.03	92.387
1313.63	92.827
1315.22	95.3342
1316.82	96.4812
1318.41	96.0848
1320.01	98.0899
1321.6	98.3022
1323.2	99.1044
1324.79	99.684
1326.38	99.3092
1327.98	100.101
1329.57	100.738
1331.16	100.002
1332.76	100.237
1334.35	100.061
1335.94	100.171
1337.53	100.405
1339.12	99.673
1340.71	99.3414
1342.3	99.2658
1343.89	99.5356
1345.48	99.7765
1347.07	98.86
1348.66	98.5212
1350.25	96.762
1351.84	96.2312
1353.43	95.0812
1355.01	94.5083
1356.6	92.9072
1358.19	91.4531
1359.77	91.1184
1361.36	89.8465
1362.95	87.6921
1364.53	84.8442
1366.12	82.9345
1367.71	80.4963
1369.29	79.5624
1370.88	77.7623
1372.46	77.0325
1374.04	75.0712
1375.63	72.6102
1377.21	71.0101
1378.8	69.8425
1380.38	69.1625
1381.96	68.6436
1383.54	67.3281
1385.13	65.4059
1386.71	64.5573
1388.29	64.1677
1389.87	63.2338
1391.45	62.7369
1393.03	62.34
1394.61	62.3675
1396.19	61.6045
1397.77	59.8363
1399.35	60.0419
1400.93	59.905
1402.51	60.7028
1404.09	60.5484
1405.67	60.9323
1407.24	61.9685
1408.82	63.9384
1410.4	64.1855
1411.98	66.1707
1413.55	67.3561
1415.13	69.0308
1416.71	71.1439
1418.28	72.717
1419.86	75.7991
1421.43	78.7822
1423.01	83.0174
1424.58	86.3569
1426.16	89.4748
1427.73	92.9883
1429.31	97.0582
1430.88	101.328
1432.45	103.63
1434.02	106.828
1435.6	109.649
1437.17	112.794
1438.74	115.164
1440.31	116.604
1441.88	117.672
1443.45	119.27
1445.03	119.797
1446.6	121.153
1448.17	122.017
1449.74	121.91
1451.3	121.988
1452.87	120.944
1454.44	119.251
1456.01	118.251
1457.58	117.462
1459.15	115.41
1460.72	113.981
1462.28	111.904
1463.85	108.977
1465.42	105.74
1466.98	102.648
1468.55	98.5209
1470.12	95.6361
1471.68	92.0021
1473.25	88.1229
1474.81	84.4812
1476.38	80.767
1477.94	78.0815
1479.51	74.8756
1481.07	70.7118
1482.63	67.7046
1484.2	64.55
1485.76	60.8932
1487.32	58.9404
1488.88	54.7315
1490.45	52.7566
1492.01	50.6262
1493.57	49.4278
1495.13	47.5969
1496.69	46.22
1498.25	45.0309
1499.81	44.0496
1501.37	43.6539
1502.93	42.269
1504.49	41.2567
1506.05	39.8248
1507.61	39.3007
1509.17	38.3563
1510.73	36.018
1512.28	36.0529
1513.84	34.4871
1515.4	33.1836
1516.96	33.2042
1518.51	32.9467
1520.07	32.8789
1521.63	32.5211
1523.18	32.868
1524.74	33.4337
1526.29	32.9454
1527.85	32.876
1529.4	33.0931
1530.96	32.5882
1532.51	32.641
1534.06	32.911
1535.62	33.8413
1537.17	34.4916
1538.72	34.4737
1540.28	34.8929
1541.83	34.3654
1543.38	34.7551
1544.93	34.7844
1546.48	35.537
1548.03	36.5604
1549.59	36.6239
1551.14	37.2233
1552.69	37.6073
1554.24	37.3576
1555.79	37.1474
1557.34	37.1346
1558.88	36.5065
1560.43	36.2625
1561.98	36.0647
1563.53	36.4857
1565.08	37.3766
1566.62	36.8795
1568.17	37.3072
1569.72	38.0391
1571.27	38.8947
1572.81	39.4808
1574.36	39.9525
1575.9	40.4567
1577.45	41.0266
1579	41.8632
1580.54	41.9781
1582.09	42.7478
1583.63	42.8895
1585.17	43.3847
1586.72	44.5386
1588.26	44.5534
1589.8	45.1264
1591.35	45.6395
1592.89	46.578
1594.43	48.4565
1595.97	48.9279
1597.52	49.9608
1599.06	49.8304
1600.6	50.0799
1602.14	49.8786
1603.68	50.8195
1605.22	51.1011
1606.76	51.6991
1608.3	52.7602
1609.84	53.6223
1611.38	53.8106
1612.92	55.3708
1614.46	55.8089
1615.99	55.8297
1617.53	56.055
1619.07	56.3865
1620.61	56.8279
1622.14	57.3682
1623.68	57.9783
1625.22	58.5182
1626.75	58.66
1628.29	59.6529
1629.82	60.6539
1631.36	61.091
1632.9	62.0037
1634.43	63.6419
1635.96	64.8108
1637.5	67.2889
1639.03	69.7384
1640.57	71.6225
1642.1	73.4286
1643.63	74.5677
1645.16	75.8352
1646.7	77.78
1648.23	78.6272
1649.76	79.5789
1651.29	79.9868
1652.82	81.1069
1654.36	80.3144
1655.89	80.6642
1657.42	81.4219
1658.95	80.9701
1660.48	80.2579
1662.01	80.1015
1663.53	80.0728
1665.06	78.7628
1666.59	77.2916
1668.12	76.7908
1669.65	75.1915
1671.18	74.1756
1672.7	71.1673
1674.23	69.2125
1675.76	66.1623
1677.29	64.6257
1678.81	62.0531
1680.34	60.0128
1681.86	57.8654
1683.39	55.778
1684.91	52.9978
1686.44	49.8605
1687.96	47.1829
1689.49	45.1571
1691.01	42.0509
1692.54	40.0292
1694.06	37.5155
1695.58	36.1756
1697.11	34.0822
1698.63	31.8143
1700.15	29.3615
1701.67	28.2763
1703.2	27.1552
1704.72	26.2562
1706.24	26.1043
1707.76	24.7687
1709.28	24.3314
1710.8	24.1714
1712.32	23.4736
1713.84	23.1947
1715.36	22.3445
1716.88	21.2119
1718.4	20.5209
1719.91	19.7657
1721.43	19.3258
1722.95	19.7488
1724.47	19.1561
1725.99	18.9927
1727.5	18.5698
1729.02	18.2499
1730.54	16.6058
1732.05	17.2599
1733.57	16.9677
1735.09	15.6874
1736.6	15.1273
1738.12	14.4603
1739.63	14.0352
1741.15	13.4446
1742.66	12.5185
1744.18	12.7103
1745.69	11.2629
1747.2	10.2528
1748.72	9.72122
1750.23	9.50158
1751.74	8.47737
1753.25	8.11182
1754.77	6.92556
1756.28	6.73036
1757.79	6.15521
1759.3	4.83548
1760.81	3.88555
1762.32	3.75267
1763.83	3.1628
1765.34	2.11814
1766.85	1.27688
1768.36	1.52599
1769.87	0.632495
1771.38	0.454667
1772.89	0.505174
1774.4	0.0283455
1775.91	-0.408613
1777.41	0.165567
1778.92	0.630954
1780.43	0.545514
1781.94	1.0939
1783.44	0.690429
1784.95	1.18385
1786.45	1.04214
1787.96	1.46144
1789.47	2.67188
1790.97	3.6287
1792.47	3.9263
1793.98	5.13022
1795.48	5.47159
1796.99	5.79996
1798.49	7.00803
1800	7.27589
1801.5	8.25387
1803	7.94663
1804.51	7.70745
1806.01	7.92368
1807.51	8.31598
1809.01	8.18436
1810.51	8.27878
1812.02	8.93142
1813.52	9.24574
1815.02	9.30532
1816.52	8.76282
1818.02	8.61092
1819.52	8.50268
1821.02	8.38354
1822.52	8.41497
1824.02	8.73701
1825.51	8.23987
1827.01	8.13206
1828.51	7.63602
1830.01	7.38695
1831.51	7.319
1833	7.42463
1834.5	7.78806
1836	7.09361
1837.49	6.93289
1838.99	6.40988
1840.49	6.10666
1841.98	6.75309
1843.48	7.01088
1844.97	6.49304
1846.47	6.44408
1847.96	6.47683
1849.46	6.38118
1850.95	6.50582
1852.45	7.37211
1853.94	7.26105
1855.43	6.36472
1856.92	6.77234
1858.42	8.00612
1859.91	8.37361
1861.4	8.9073
1862.89	9.83624
1864.39	10.3802
1865.88	10.5099
1867.37	9.87442
1868.86	10.4986
1870.35	10.123
1871.84	11.0029
1873.33	11.2304
1874.82	11.0607
1876.31	10.4688
1877.8	9.15532
1879.29	9.08698
1880.77	9.67024
1882.26	9.44762
1882.52	9.45271
1884.02	9.02453
1885.51	8.81192
1887.01	7.54283
1888.5	7.27477
1889.99	7.1791
1891.49	7.73804
1892.98	8.41514
1894.47	9.08741
1895.96	8.97956
1897.46	9.03509
1898.95	9.75611
1900.44	9.19022
1901.93	9.54936
1903.42	10.4381
1904.91	10.7449
1906.4	10.9309
1907.89	10.5697
1909.38	9.49092
1910.87	9.88352
1912.36	9.85997
1913.85	9.6373
1915.34	9.41205
1916.83	8.81395
1918.32	8.65477
1919.8	8.95194
1921.29	9.07884
1922.78	9.65989
1924.27	9.77445
1925.75	9.55422
1927.24	9.28639
1928.73	9.51685
1930.21	10.6596
1931.7	11.5175
1933.18	10.9556
1934.67	10.4813
1936.15	10.0322
1937.64	9.07209
1939.12	8.64125
1940.61	8.26446
1942.09	8.82811
1943.57	8.91059
1945.06	9.08321
1946.54	8.49528
1948.02	7.89065
1949.51	7.70802
1950.99	7.39188
1952.47	8.37778
1953.95	8.24856
1955.43	8.11266
1956.91	7.1353
1958.39	6.36478
1959.87	6.6199
1961.36	6.40826
1962.84	7.27575
1964.32	7.90992
1965.79	8.15669
1967.27	8.20319
1968.75	8.40571
1970.23	8.26691
1971.71	8.712
1973.19	9.0493
1974.66	8.60235
1976.14	8.72651
1977.62	8.25204
1979.1	7.82185
1980.57	6.87056
1982.05	6.37605
1983.53	5.48407
1985	5.69248
1986.48	5.20107
1987.95	4.39653
1989.43	4.62592
1990.9	5.16909
1992.38	4.7102
1993.85	4.65465
1995.33	4.9651
1996.8	5.94849
1998.27	5.37728
1999.75	4.87956
2001.22	4.78144
2002.69	4.62638
2004.16	4.67445
2005.64	4.41459
2007.11	3.81971
2008.58	3.3884
2010.05	3.52941
2011.52	3.04684
2012.99	3.75816
2014.46	4.87953
2015.93	5.19608
2017.4	4.99371
2018.87	4.37265
2020.34	4.87104
2021.81	4.99557
2023.28	5.32594
2024.75	5.63863
2026.22	6.70226
2027.69	6.4653
2029.15	7.64841
2030.62	7.31885
2032.09	7.82328
2033.56	8.70735
2035.02	8.90496
2036.49	9.34639
2037.95	8.40844
2039.42	8.53756
2040.89	8.65259
2042.35	9.15169
2043.82	9.44744
2045.28	9.4296
2046.75	9.23366
2048.21	8.71043
2049.67	7.99532
2051.14	8.14932
2052.6	7.87011
2054.06	7.24681
2055.53	7.07878
2056.99	6.6615
2058.45	7.14008
2059.92	7.12523
2061.38	6.83564
2062.84	7.17816
2064.3	7.58672
2065.76	7.50409
2067.22	7.98919
2068.68	8.2649
2070.14	8.1949
2071.6	7.65642
2073.06	7.53641
2074.52	7.7263
2075.98	8.5035
2077.44	8.48887
2078.9	8.46469
2080.36	8.85039
2081.82	8.44021
2083.27	8.38445
2084.73	9.10969
2086.19	9.89296
2087.65	10.2311
2089.1	10.3996
2090.56	9.74843
2092.01	10.0648
2093.47	10.3908
2094.93	10.4799
2096.38	11.3764
2097.84	12.7104
2099.29	12.7064
2100.75	12.1668
2102.2	12.5799
2103.66	11.9152
2105.11	12.6492
2106.56	12.9044
2108.02	12.7244
2109.47	12.0012
2110.92	11.4235
2112.37	12.9329
2113.83	13.0025
2115.28	13.7143
2116.73	14.0512
2118.18	13.2124
2119.63	13.3795
2121.09	13.4486
2122.54	13.4927
2123.99	13.4625
2125.44	13.361
2126.89	13.4346
2128.34	12.6546
2129.79	13.2939
2131.23	13.2092
2132.68	13.7731
2134.13	14.013
2135.58	14.7079
2137.03	15.7713
