#Acq. time (s)=	45
#Accumulations=	2
#Range (cm-¹)=	200...3150
#Windows=	2
#Auto scanning=	Off
#Autofocus=	Off
#Macrospot=	Off
#AutoExposure=	Off
#Spike filter=	Multiple accum.
#Delay time (s)=	0
#Binning=	1
#Readout mode=	Signal
#DeNoise=	Off
#ICS correction=	On
#Dark correction=	Off
#Inst. Process=	Off
#Detector Gain=	Best Dynamic Range
#Detector ADC=	20 kHz       
#Detector temperature (°C)=	-69.85
#Instrument=	LabRAM HR Evol
#Detector=	Synapse
#Objective=	x100
#Grating=	600 gr/mm
#ND Filter=	100%
#Laser (nm)=	532 
#Hole=	100.021
#Range=	Auto
#Laser Pol.=	No
#Raman. Pol.=	No
#Laser Pol. (°)=	-0.0007625
#Raman Pol. (°)=	89.9995
#Collection=	Microscope
#StageXY=	Marzhauser
#StageZ=	Marzhauser
#X (µm)=	-616.4
#Y (µm)=	-1582.2
#Z (µm)=	89.85
#Full time(mm:ss)=	3:19
#Project=	
#Sample=	
#Site=	
#Title=	Mb_10_14_24_2x_45s_532 nm_x100_100%_600 gr_mm
#Remark=	
#Date=	11.07.2022 10:20
#Acquired=	11.07.2022 10:20:36
#Base:Fit=	10.08.2022 10:21:11
#Base:Sub=	10.08.2022 10:21:41
#Filter:Polynom=	16.08.2022 10:17:53
#AxisType[0]=Intens
#AxisUnit[0]=Cnt
#AxisType[1]=Spectr
#AxisUnit[1]=1/cm
200.388	0.715208
202.204	6.45788
204.019	9.68224
205.832	12.1295
207.646	14.6148
209.459	16.9055
211.274	18.8204
213.087	21.2014
214.899	22.3588
216.711	24.0567
218.524	26.352
220.335	28.5658
222.146	29.9961
223.956	30.4473
225.766	31.8687
227.576	34.4117
229.388	36.2025
231.197	37.2065
233.005	38.0039
234.813	39.1073
236.621	39.7789
238.429	39.8634
240.236	39.8586
242.045	38.5631
243.852	37.8136
245.658	37.6472
247.464	35.8654
249.269	33.5042
251.074	31.076
252.879	30.5582
254.683	30.7204
256.487	29.935
258.291	29.1757
260.094	29.0679
261.897	27.504
263.702	26.7408
265.504	26.2441
267.306	24.9471
269.108	23.6627
270.909	23.2543
272.71	23.0331
274.511	21.6598
276.311	20.2155
278.111	19.2785
279.91	18.5309
281.709	17.6675
283.508	16.6868
285.306	15.1847
287.105	13.4747
288.9	13.0887
290.698	12.3845
292.495	10.6304
294.291	9.86549
296.088	8.91001
297.884	8.13386
299.679	8.07
301.475	8.46325
303.27	8.32911
305.064	7.80897
306.858	9.04262
308.652	10.1464
310.444	9.72175
312.237	9.55299
314.03	9.07791
315.822	10.2579
317.615	11.1524
319.406	11.1359
321.198	10.1559
322.987	10.2351
324.778	9.93011
326.568	9.08165
328.358	8.2707
330.148	7.12449
331.935	6.04115
333.724	5.74365
335.513	5.10788
337.301	3.36336
339.089	2.91615
340.875	3.17352
342.662	4.24099
344.449	4.47644
346.236	4.92125
348.02	5.38361
349.806	4.97904
351.592	4.81245
353.375	5.06164
355.16	6.56451
356.944	5.66303
358.728	5.94261
360.51	6.97186
362.294	8.08164
364.077	7.94878
365.858	10.1398
367.64	11.5775
369.422	12.0201
371.202	11.9763
372.983	13.4482
374.764	13.9474
376.543	15.3087
378.324	16.5311
380.102	16.6244
381.881	17.558
383.661	18.1787
385.438	19.4349
387.216	21.3242
388.993	22.0385
390.771	22.9322
392.548	22.5603
394.324	23.312
396.101	23.4516
397.875	24.1991
399.651	23.8643
401.425	24.4206
403.201	24.1917
404.974	24.4129
406.749	24.3355
408.524	23.7625
410.296	21.981
412.07	22.1982
413.841	20.928
415.614	19.1931
417.385	18.8047
419.156	17.5908
420.928	16.1143
422.698	15.3326
424.469	14.3287
426.238	13.7559
428.009	13.13
429.777	12.1769
431.548	10.5234
433.315	8.76312
435.083	7.43871
436.852	5.89953
438.618	5.1174
440.387	5.37007
442.153	4.60833
443.919	4.04261
445.686	2.82202
447.451	3.31128
449.218	3.91516
450.982	3.50175
452.746	3.59342
454.512	4.41953
456.275	3.74386
458.038	3.51315
459.803	4.51123
461.565	5.61761
463.327	6.15857
465.091	7.4116
466.852	7.60985
468.613	8.07295
470.374	8.56896
472.136	8.72625
473.896	8.85997
475.655	9.6936
477.415	10.5284
479.176	11.7052
480.934	12.4151
482.692	14.3795
484.45	15.6094
486.21	17.4485
487.967	17.112
489.724	17.8844
491.481	18.5773
493.237	19.7102
494.995	21.7126
496.75	22.1522
498.506	22.8099
500.26	24.8686
502.015	25.4792
503.769	26.3641
505.525	27.9558
507.279	27.715
509.032	27.0426
510.785	27.7664
512.537	27.075
514.289	27.0065
516.041	27.2284
517.793	27.3566
519.546	27.3273
521.297	27.4344
523.047	27.373
524.797	27.6186
526.547	27.6445
528.297	26.8033
530.046	25.0428
531.795	24.6305
533.543	24.3014
535.291	24.3375
537.039	24.2137
538.787	23.8745
540.534	23.6443
542.281	22.4431
544.027	21.9427
545.773	21.5968
547.519	21.1519
549.264	21.0833
551.01	20.582
552.754	20.14
554.499	19.4193
556.243	18.3099
557.987	16.9052
559.73	16.1502
561.474	14.4903
563.216	14.7345
564.959	14.2541
566.701	13.0478
568.441	13.2279
570.182	12.3103
571.923	11.3292
573.664	10.2446
575.405	8.66207
577.145	8.88091
578.885	9.02875
580.624	8.96508
582.361	9.57415
584.1	9.16461
585.839	9.09318
587.577	9.24448
589.315	8.49889
591.052	7.89864
592.787	6.63855
594.524	6.72637
596.26	5.92221
597.997	6.97532
599.732	8.17535
601.466	9.41565
603.201	10.4485
604.936	10.269
606.67	10.4491
608.403	10.2082
610.136	11.3457
611.87	11.5053
613.603	12.4555
615.334	13.3776
617.067	14.7774
618.799	16.0414
620.529	17.1749
622.26	18.5019
623.991	19.3029
625.72	20.354
627.451	21.108
629.181	20.9799
630.909	22.3807
632.638	23.4416
634.368	25.1212
636.095	26.5402
637.823	27.4249
639.551	27.9565
641.277	27.5142
643.005	27.7862
644.73	27.1254
646.457	27.6178
648.184	27.3184
649.908	27.7226
651.634	28.1831
653.357	28.8505
655.083	30.2698
656.806	30.0052
658.53	30.1748
660.253	29.8106
661.977	30.0478
663.7	30.7966
665.422	31.8091
667.145	31.2438
668.865	31.2985
670.588	30.2617
672.308	29.73
674.027	30.0085
675.749	29.7735
677.468	30.1566
679.188	29.9871
680.907	31.243
682.627	30.944
684.345	31.7605
686.064	33.0243
687.781	33.3675
689.498	32.9596
691.216	32.8509
692.932	33.2037
694.65	33.1439
696.366	34.1602
698.081	33.8056
699.797	34.6504
701.512	35.2489
703.228	35.2667
704.942	34.7972
706.655	35.5458
708.371	36.0522
710.083	37.0716
711.796	36.965
713.51	36.6949
715.222	37.3864
716.934	38.8106
718.645	39.4576
720.358	40.2999
722.068	40.2895
723.779	41.1653
725.49	41.2105
727.2	40.975
728.909	42.2938
730.618	42.3024
732.329	43.9097
734.037	43.5348
735.745	43.9469
737.453	45.7514
739.16	47.3319
740.869	48.3799
742.576	48.0664
744.282	48.677
745.988	50.3925
747.694	51.7168
749.401	52.5204
751.107	53.8905
752.811	54.5837
754.516	55.66
756.22	57.2044
757.924	58.6449
759.627	59.4905
761.332	60.6027
763.035	61.8133
764.738	63.2393
766.44	64.679
768.142	66.0995
769.843	68.0698
771.544	69.7087
773.245	70.2714
774.946	70.8286
776.646	71.6218
778.346	72.4715
780.046	73.1772
781.745	74.6897
783.444	74.9664
785.143	77.4074
786.841	77.922
788.539	78.3933
790.237	79.5433
791.934	81.0028
793.631	82.6515
795.328	83.3692
797.024	83.5321
798.72	85.6509
800.416	85.698
802.112	86.3641
803.807	85.9458
805.502	85.3322
807.196	85.1954
808.89	84.8198
810.584	84.7577
812.278	83.5156
813.971	84.6148
815.664	83.4485
817.354	83.4671
819.047	82.659
820.739	83.4222
822.43	84.8265
824.122	85.4722
825.813	85.1998
827.503	85.0275
829.192	85.7381
830.882	84.9498
832.571	83.787
834.261	82.4578
835.95	81.847
837.637	80.7402
839.325	78.5547
841.013	77.9943
842.701	76.5152
844.389	75.5845
846.074	75.2739
847.761	74.642
849.447	74.2946
851.131	72.8849
852.817	70.7284
854.503	69.3935
856.188	67.9488
857.871	67.369
859.556	66.8081
861.24	65.369
862.922	65.3721
864.606	64.8808
866.289	64.7749
867.97	64.5102
869.653	65.0332
871.336	62.5929
873.016	62.7144
874.698	61.8299
876.379	61.0758
878.058	59.9044
879.739	59.121
881.418	57.3453
883.098	56.2515
884.778	54.3624
886.456	54.4584
888.135	52.7664
889.812	52.5689
891.49	52.5395
893.167	51.8998
894.845	51.9869
896.523	51.4786
898.198	51.8088
899.875	51.1689
901.55	51.5021
903.226	51.0247
904.901	51.5012
906.576	50.8574
908.25	50.3404
909.925	49.8945
911.598	49.6032
913.271	48.7769
914.945	48.2682
916.617	48.4299
918.291	47.1282
919.962	47.4255
921.635	47.5433
923.306	47.3859
924.978	47.7917
926.648	48.3623
928.318	49.0605
929.989	49.4373
931.659	49.3835
933.328	49.4542
934.998	49.2007
936.666	48.879
938.336	49.7504
940.004	49.4356
941.671	49.0693
943.34	48.9504
945.007	48.4754
946.673	49.0484
948.339	48.5551
950.007	48.7232
951.672	48.851
953.337	47.6011
955.004	46.7981
956.669	46.7778
958.333	45.0824
959.997	44.5118
961.662	44.1436
963.326	45.3565
964.989	45.5107
966.651	47.243
968.315	48.8973
969.977	48.785
971.639	48.2761
973.301	49.4565
974.962	49.8242
976.624	51.2321
978.285	51.3358
979.945	51.0956
981.605	51.0202
983.264	51.2647
984.924	51.085
986.583	51.2235
988.243	51.0014
989.901	50.9715
991.56	50.7738
993.217	50.9154
994.875	50.5055
996.532	50.4573
998.188	50.2787
999.845	49.8885
1001.5	49.216
1003.16	49.8783
1004.81	49.7296
1006.47	48.8395
1008.12	49.0123
1009.78	50.9804
1011.43	50.6202
1013.09	50.7646
1014.74	51.0385
1016.39	51.3234
1018.05	51.9601
1019.7	51.7824
1021.35	52
1023	52.1362
1024.65	53.0464
1026.31	53.4587
1027.96	52.7618
1029.61	52.3434
1031.26	51.4411
1032.91	51.2034
1034.56	50.4144
1036.21	49.0572
1037.86	47.8514
1039.51	47.656
1041.16	47.528
1042.8	48.8522
1044.45	50.051
1046.1	50.6375
1047.75	50.0781
1049.39	49.0924
1051.04	48.1116
1052.69	47.0794
1054.33	45.5073
1055.98	45.5168
1057.62	43.3429
1059.27	42.2528
1060.91	39.4318
1062.56	38.0205
1064.2	36.2277
1065.85	34.1345
1067.49	32.5693
1069.13	29.9441
1070.77	26.8001
1072.42	24.8867
1074.06	22.2142
1075.7	21.3687
1077.34	19.1904
1078.98	17.1832
1080.62	15.3065
1082.27	14.2834
1083.91	12.6591
1085.55	12.8597
1087.18	12.403
1088.82	11.3236
1090.46	12.3661
1092.1	12.632
1093.74	11.2828
1095.38	11.5115
1097.02	12.1581
1098.65	12.0539
1100.29	12.5702
1101.93	11.5787
1103.56	11.2664
1105.2	10.6933
1106.84	11.0825
1108.47	11.0514
1110.11	10.8397
1111.74	10.9841
1113.38	10.2624
1115.01	10.4148
1116.64	10.8477
1118.28	11.1212
1119.91	12.0715
1121.54	13.2077
1123.18	12.2149
1124.81	12.1843
1126.44	11.615
1128.07	12.1067
1129.7	11.524
1131.33	10.7533
1132.97	11.2699
1134.6	10.9645
1136.23	9.68274
1137.86	10.0013
1139.49	9.23236
1141.11	9.39191
1142.74	8.17484
1144.37	7.76496
1146	7.00189
1147.63	6.31688
1149.26	5.93253
1150.88	4.55731
1152.51	4.29318
1154.14	3.95318
1155.76	3.66864
1157.39	3.73871
1159.01	1.50143
1160.64	1.73961
1162.27	0.965031
1163.89	0.587745
1165.51	0.261835
1167.14	0.04998
1168.76	-1.594
1170.39	-1.40968
1172.01	-1.10272
1173.63	-1.17644
1175.25	-0.826378
1176.88	-0.427964
1178.5	0.296333
1180.12	0.518391
1181.74	0.727058
1183.36	0.99499
1184.98	2.10874
1186.6	3.38201
1188.22	4.3619
1189.84	4.4932
1191.46	4.40354
1193.08	5.41611
1194.7	6.08023
1196.32	7.23539
1197.94	7.97084
1199.55	8.94015
1201.17	9.58874
1202.79	10.4281
1204.41	12.1181
1206.02	14.4888
1207.64	15.5273
1209.25	16.6234
1210.87	16.8796
1212.48	18.4894
1214.1	20.4879
1215.71	21.636
1217.33	23.0017
1218.94	24.309
1220.56	26.4534
1222.17	28.5029
1223.79	31.104
1225.4	32.3018
1227.01	33.157
1228.62	34.3794
1230.23	36.3352
1231.85	37.9173
1233.46	39.6115
1235.07	40.3079
1236.68	42.2318
1238.29	42.7117
1239.9	42.8236
1241.51	44.0535
1243.12	43.5803
1244.73	44.7349
1246.34	44.6096
1247.94	43.8757
1249.55	43.8062
1251.16	45.373
1252.77	45.1565
1254.37	45.6903
1255.98	46.5008
1257.59	46.0305
1259.2	46.5342
1260.8	46.5684
1262.41	46.736
1264.01	47.0215
1265.62	47.5655
1267.22	48.5887
1268.83	48.4735
1270.43	48.4886
1272.03	48.4538
1273.64	48.9056
1275.24	48.9276
1276.85	48.7977
1278.45	49.6157
1280.05	49.8651
1281.65	49.9934
1283.25	51.695
1284.85	51.7445
1286.46	50.6529
1288.06	50.0922
1289.66	51.1092
1291.26	51.5445
1292.86	52.3017
1294.46	52.7137
1296.06	53.4267
1297.66	54.2171
1299.25	55.5991
1300.85	57.1364
1302.45	57.7497
1304.05	58.5069
1305.65	58.1203
1307.24	58.6146
1308.84	59.8938
1310.43	60.2021
1312.03	61.1977
1313.63	61.4388
1315.22	62.385
1316.82	62.8435
1318.41	62.158
1320.01	61.85
1321.6	60.4141
1323.2	59.6659
1324.79	59.3234
1326.38	57.6537
1327.98	56.9337
1329.57	57.5378
1331.16	58.0028
1332.76	56.4465
1334.35	56.6956
1335.94	56.4436
1337.53	55.0676
1339.12	54.683
1340.71	54.3724
1342.3	54.1333
1343.89	53.2367
1345.48	52.7927
1347.07	51.604
1348.66	50.0494
1350.25	48.3915
1351.84	46.5761
1353.43	45.8492
1355.01	44.6887
1356.6	43.2992
1358.19	43.0389
1359.77	41.497
1361.36	40.7453
1362.95	39.9683
1364.53	37.4814
1366.12	36.7321
1367.71	36.6368
1369.29	36.4128
1370.88	35.2902
1372.46	35.2511
1374.04	35.1742
1375.63	35.1364
1377.21	34.6221
1378.8	34.4304
1380.38	34.6635
1381.96	34.2376
1383.54	34.2815
1385.13	34.1979
1386.71	34.5786
1388.29	34.2875
1389.87	34.1453
1391.45	34.3739
1393.03	33.5726
1394.61	33.7094
1396.19	32.8866
1397.77	31.7259
1399.35	31.286
1400.93	30.9426
1402.51	31.809
1404.09	31.3407
1405.67	31.618
1407.24	33.1275
1408.82	34.2714
1410.4	35.681
1411.98	36.1151
1413.55	38.554
1415.13	40.0503
1416.71	42.1392
1418.28	44.3099
1419.86	46.2806
1421.43	48.9452
1423.01	51.9967
1424.58	54.1403
1426.16	56.5138
1427.73	58.5504
1429.31	61.2318
1430.88	63.844
1432.45	66.7669
1434.02	69.7992
1435.6	72.5439
1437.17	74.7945
1438.74	76.4128
1440.31	77.8157
1441.88	79.9852
1443.45	81.5993
1445.03	83.5932
1446.6	84.4702
1448.17	84.9724
1449.74	85.586
1451.3	85.628
1452.87	85.1207
1454.44	83.8393
1456.01	82.6439
1457.58	82.1045
1459.15	80.851
1460.72	78.9039
1462.28	77.2674
1463.85	74.87
1465.42	72.454
1466.98	69.114
1468.55	67.296
1470.12	64.1488
1471.68	61.5862
1473.25	58.7448
1474.81	55.2437
1476.38	52.2
1477.94	49.3649
1479.51	46.5584
1481.07	43.8426
1482.63	40.3821
1484.2	39.2112
1485.76	37.1259
1487.32	34.8389
1488.88	33.941
1490.45	32.3491
1492.01	32.2744
1493.57	30.5897
1495.13	29.3747
1496.69	27.9996
1498.25	27.666
1499.81	28.0716
1501.37	27.169
1502.93	25.7734
1504.49	25.4137
1506.05	25.3425
1507.61	26.0146
1509.17	25.5978
1510.73	24.6173
1512.28	24.498
1513.84	23.8252
1515.4	23.771
1516.96	23.4864
1518.51	24.4017
1520.07	25.406
1521.63	24.9666
1523.18	24.3565
1524.74	24.2261
1526.29	23.9985
1527.85	24.666
1529.4	23.57
1530.96	23.5299
1532.51	22.8839
1534.06	23.5693
1535.62	23.6198
1537.17	23.0775
1538.72	23.235
1540.28	23.298
1541.83	23.1762
1543.38	23.6214
1544.93	23.3905
1546.48	23.2534
1548.03	22.2488
1549.59	21.621
1551.14	21.9358
1552.69	22.7438
1554.24	23.4774
1555.79	24.1926
1557.34	24.8174
1558.88	25.2777
1560.43	26.0607
1561.98	27.4872
1563.53	27.9893
1565.08	29.576
1566.62	30.4716
1568.17	31.2939
1569.72	32.5896
1571.27	33.8662
1572.81	36.2314
1574.36	38.4555
1575.9	39.7403
1577.45	41.0763
1579	42.4715
1580.54	43.2607
1582.09	44.0433
1583.63	45.0437
1585.17	45.2332
1586.72	46.012
1588.26	47.1895
1589.8	48.4841
1591.35	49.2442
1592.89	50.2531
1594.43	51.4437
1595.97	52.0196
1597.52	51.3663
1599.06	51.8539
1600.6	52.4341
1602.14	52.2339
1603.68	52.2704
1605.22	52.6448
1606.76	52.3821
1608.3	51.486
1609.84	51.1171
1611.38	51.3417
1612.92	50.2629
1614.46	49.9189
1615.99	50.6688
1617.53	50.5447
1619.07	49.7665
1620.61	50.1427
1622.14	49.5368
1623.68	50.3628
1625.22	51.6242
1626.75	52.4862
1628.29	53.7577
1629.82	54.7188
1631.36	56.102
1632.9	57.6281
1634.43	57.8429
1635.96	59.3722
1637.5	60.5916
1639.03	61.9627
1640.57	63.3287
1642.1	65.122
1643.63	66.0993
1645.16	67.7003
1646.7	69.4347
1648.23	70.6403
1649.76	70.9995
1651.29	70.9441
1652.82	70.8428
1654.36	71.604
1655.89	71.7724
1657.42	71.2333
1658.95	71.4527
1660.48	70.934
1662.01	71.0163
1663.53	71.3994
1665.06	70.3929
1666.59	68.3338
1668.12	66.9292
1669.65	66.0383
1671.18	64.6173
1672.7	62.1066
1674.23	61.3279
1675.76	59.0612
1677.29	56.037
1678.81	53.7957
1680.34	51.896
1681.86	49.5261
1683.39	45.5719
1684.91	42.4591
1686.44	40.7239
1687.96	37.673
1689.49	34.4558
1691.01	32.2123
1692.54	30.6231
1694.06	28.0021
1695.58	26.3017
1697.11	24.7689
1698.63	22.6892
1700.15	21.827
1701.67	20.7092
1703.2	19.1365
1704.72	18.0918
1706.24	17.5485
1707.76	16.9865
1709.28	15.6467
1710.8	14.1927
1712.32	13.0047
1713.84	12.8913
1715.36	12.8127
1716.88	11.8083
1718.4	11.5503
1719.91	11.1424
1721.43	10.9216
1722.95	10.5957
1724.47	10.4011
1725.99	10.0935
1727.5	10.3104
1729.02	9.90377
1730.54	9.83454
1732.05	10.1127
1733.57	9.72834
1735.09	9.20765
1736.6	8.69178
1738.12	8.62477
1739.63	8.08712
1741.15	7.90034
1742.66	7.29208
1744.18	6.96488
1745.69	6.88648
1747.2	6.55757
1748.72	6.20918
1750.23	6.15172
1751.74	4.67683
1753.25	3.99777
1754.77	4.09515
1756.28	3.50377
1757.79	3.05469
1759.3	2.40259
1760.81	3.01113
1762.32	2.1429
1763.83	1.73146
1765.34	2.02679
1766.85	2.71088
1768.36	3.50005
1769.87	3.34316
1771.38	3.80945
1772.89	4.08933
1774.4	5.11571
1775.91	5.78457
1777.41	6.42747
1778.92	6.14342
1780.43	6.3177
1781.94	6.61849
1783.44	6.34278
1784.95	6.67585
1786.45	6.73221
1787.96	6.86921
1789.47	7.2782
1790.97	6.70492
1792.47	6.32472
1793.98	6.54669
1795.48	6.36313
1796.99	6.26243
1798.49	6.1546
1800	6.79125
1801.5	5.9105
1803	5.52897
1804.51	5.41208
1806.01	5.5925
1807.51	5.16122
1809.01	4.41172
1810.51	4.13255
1812.02	4.22433
1813.52	3.98131
1815.02	4.32292
1816.52	4.13708
1818.02	3.32318
1819.52	3.11512
1821.02	2.85917
1822.52	2.62632
1824.02	2.23756
1825.51	1.47281
1827.01	1.09694
1828.51	1.31459
1830.01	2.10659
1831.51	2.53269
1833	2.52793
1834.5	2.04565
1836	2.209
1837.49	2.11258
1838.99	2.9705
1840.49	3.69757
1841.98	4.06793
1843.48	4.58334
1844.97	4.73793
1846.47	5.20968
1847.96	5.28268
1849.46	5.06378
1850.95	4.81837
1852.45	4.65961
1853.94	4.8872
1855.43	5.3684
1856.92	4.80103
1858.42	4.26049
1859.91	4.77966
1861.4	4.45306
1862.89	4.81499
1864.39	4.43928
1865.88	4.70899
1867.37	4.55036
1868.86	4.34266
1870.35	4.06699
1871.84	4.58236
1873.33	4.01295
1874.82	3.75107
1876.31	3.43451
1877.8	3.70954
1879.29	3.74802
1880.77	3.14822
1882.26	3.18639
1882.52	3.72386
1884.02	4.15396
1885.51	3.83338
1887.01	3.66573
1888.5	4.29709
1889.99	4.1849
1891.49	3.66499
1892.98	4.14698
1894.47	4.04059
1895.96	3.57242
1897.46	3.75906
1898.95	3.40966
1900.44	3.61153
1901.93	4.42004
1903.42	4.64028
1904.91	4.89266
1906.4	5.25757
1907.89	4.69466
1909.38	5.54944
1910.87	5.59358
1912.36	6.1566
1913.85	6.07277
1915.34	6.13823
1916.83	6.37262
1918.32	6.13042
1919.8	6.18934
1921.29	5.57379
1922.78	5.06173
1924.27	5.56977
1925.75	4.81843
1927.24	5.01043
1928.73	5.38704
1930.21	4.39554
1931.7	4.55995
1933.18	4.45393
1934.67	3.76672
1936.15	3.42543
1937.64	1.85118
1939.12	1.38207
1940.61	0.817073
1942.09	1.06708
1943.57	1.36125
1945.06	1.87295
1946.54	0.985791
1948.02	1.52219
1949.51	1.96853
1950.99	1.88824
1952.47	1.56991
1953.95	1.34221
1955.43	1.81018
1956.91	1.72184
1958.39	1.22376
1959.87	0.877299
1961.36	0.937342
1962.84	1.15202
1964.32	0.456095
1965.79	0.367917
1967.27	1.04318
1968.75	1.08888
1970.23	0.838317
1971.71	1.27119
1973.19	1.19621
1974.66	2.00891
1976.14	3.16241
1977.62	3.14644
1979.1	3.46494
1980.57	3.1216
1982.05	2.91415
1983.53	3.21409
1985	2.9867
1986.48	3.51216
1987.95	3.80571
1989.43	3.66773
1990.9	3.1034
1992.38	2.83639
1993.85	2.31858
1995.33	2.29972
1996.8	2.88834
1998.27	2.98017
1999.75	3.00157
2001.22	3.61032
2002.69	3.51545
2004.16	3.00189
2005.64	3.42043
2007.11	3.44305
2008.58	3.49068
2010.05	3.18972
2011.52	3.47627
2012.99	3.85597
2014.46	4.35725
2015.93	4.89037
2017.4	4.31272
2018.87	4.49133
2020.34	4.86074
2021.81	5.55632
2023.28	6.0038
2024.75	5.83118
2026.22	5.64106
2027.69	6.40157
2029.15	6.23583
2030.62	6.0548
2032.09	6.09011
2033.56	6.42173
2035.02	6.47678
2036.49	7.06139
2037.95	7.75485
2039.42	8.51434
2040.89	8.29548
2042.35	8.2398
2043.82	7.37735
2045.28	7.83787
2046.75	8.29631
2048.21	8.8941
2049.67	8.96023
2051.14	8.64774
2052.6	9.11172
2054.06	9.14592
2055.53	9.54947
2056.99	9.36945
2058.45	9.59527
2059.92	9.98179
2061.38	10.2659
2062.84	9.71109
2064.3	9.6726
2065.76	10.0732
2067.22	10.697
2068.68	11.3386
2070.14	10.9953
2071.6	10.6548
2073.06	10.9968
2074.52	10.8432
2075.98	11.1357
2077.44	11.241
2078.9	11.3729
2080.36	11.4228
2081.82	11.0526
2083.27	11.8191
2084.73	11.8718
2086.19	11.1308
2087.65	11.7328
2089.1	12.0582
2090.56	11.844
2092.01	12.703
2093.47	12.8193
2094.93	12.7879
2096.38	12.5496
2097.84	12.2717
2099.29	11.9371
2100.75	11.5742
2102.2	11.3683
2103.66	12.0097
2105.11	12.2061
2106.56	12.1062
2108.02	11.7215
2109.47	12.0631
2110.92	11.9837
2112.37	11.641
2113.83	11.1108
2115.28	11.8334
2116.73	11.5543
2118.18	12.3464
2119.63	12.6719
2121.09	12.9242
2122.54	13.7769
2123.99	14.4576
2125.44	14.8903
2126.89	14.7213
2128.34	15.1291
2129.79	15.4958
2131.23	15.5336
2132.68	16.0142
2134.13	16.1912
2135.58	15.9061
