#Acq. time (s)=	45
#Accumulations=	2
#Range (cm-¹)=	200...3150
#Windows=	2
#Auto scanning=	Off
#Autofocus=	Off
#Macrospot=	Off
#AutoExposure=	Off
#Spike filter=	Multiple accum.
#Delay time (s)=	0
#Binning=	1
#Readout mode=	Signal
#DeNoise=	Off
#ICS correction=	On
#Dark correction=	Off
#Inst. Process=	Off
#Detector Gain=	Best Dynamic Range
#Detector ADC=	20 kHz       
#Detector temperature (°C)=	-70.08
#Instrument=	LabRAM HR Evol
#Detector=	Synapse
#Objective=	x100
#Grating=	600 gr/mm
#ND Filter=	100%
#Laser (nm)=	532 
#Hole=	100.021
#Range=	Auto
#Laser Pol.=	No
#Raman. Pol.=	No
#Laser Pol. (°)=	-0.0007625
#Raman Pol. (°)=	89.9995
#Collection=	Microscope
#StageXY=	Marzhauser
#StageZ=	Marzhauser
#X (µm)=	494.2
#Y (µm)=	2964.3
#Z (µm)=	-9.25
#Full time(mm:ss)=	3:18
#Project=	
#Sample=	
#Site=	
#Title=	Mb_20_23_48_2x_45s_532 nm_x100_100%_600 gr_mm
#Remark=	
#Date=	14.07.2022 10:00
#Acquired=	14.07.2022 10:00:26
#Base:Fit=	10.08.2022 10:29:37
#Base:Sub=	10.08.2022 10:35:48
#Filter:Polynom=	16.08.2022 10:13:29
#AxisType[0]=Intens
#AxisUnit[0]=Cnt
#AxisType[1]=Spectr
#AxisUnit[1]=1/cm
200.554	31.0781
202.369	30.4631
204.183	28.5704
205.999	27.3164
207.813	25.4318
209.626	22.9577
211.439	20.223
213.253	18.8352
215.065	16.5367
216.877	14.5732
218.688	14.5654
220.5	14.2921
222.312	14.5294
224.123	13.7568
225.933	11.2381
227.742	10.2853
229.552	8.16386
231.361	8.25725
233.171	6.83756
234.98	5.99384
236.787	6.28617
238.595	5.54989
240.402	6.23617
242.209	6.26288
244.015	5.81386
245.822	5.59609
247.627	5.96791
249.435	5.68306
251.24	5.96991
253.045	6.74641
254.849	7.12375
256.653	6.85636
258.457	7.6103
260.26	6.26656
262.063	6.25629
263.866	6.51484
265.668	7.05283
267.47	8.17033
269.271	7.72215
271.073	8.44866
272.873	8.5558
274.674	8.59251
276.474	8.7302
278.274	8.08673
280.073	7.39394
281.872	7.03991
283.671	6.70134
285.47	6.91263
287.268	6.40822
289.065	6.45776
290.863	5.40208
292.66	4.87662
294.456	3.86467
296.253	3.80414
298.049	4.40716
299.844	4.69232
301.637	6.02711
303.432	7.57942
305.227	7.45891
307.021	9.31074
308.815	10.9082
310.609	10.1416
312.402	9.0012
314.195	8.7307
315.987	8.52043
317.777	9.50331
319.569	9.84254
321.36	10.4107
323.151	10.4822
324.942	12.0436
326.733	12.8282
328.521	14.0257
330.31	15.0812
332.1	14.8747
333.889	15.3944
335.677	16.1106
337.464	16.5645
339.252	15.7058
341.039	16.2855
342.826	16.9336
344.611	16.747
346.398	16.8295
348.184	18.0712
349.97	16.5545
351.754	15.1351
353.539	14.7564
355.324	13.5388
357.106	12.6013
358.89	10.6697
360.674	11.0645
362.455	10.5876
364.239	9.84743
366.021	8.53672
367.804	7.64611
369.584	6.95878
371.366	6.51346
373.145	6.09942
374.926	5.88767
376.707	4.96644
378.485	4.08295
380.265	3.57495
382.045	3.79624
383.822	3.63399
385.601	4.43263
387.378	3.68957
389.156	2.81124
390.934	3.31998
392.71	3.54053
394.487	2.38472
396.262	3.02219
398.038	1.96989
399.813	1.23384
401.588	1.15705
403.362	2.02596
405.137	1.76811
406.912	1.94962
408.685	1.96432
410.459	1.42109
412.23	2.78706
414.004	3.47666
415.775	3.17223
417.548	4.36714
419.318	4.23934
421.089	3.60084
422.86	3.94227
424.63	4.25291
426.401	3.68236
428.17	3.29384
429.94	3.85768
431.708	5.05699
433.478	5.66162
435.245	5.71063
437.012	5.25563
438.781	4.39189
440.547	5.06371
442.315	6.49139
444.081	6.22027
445.846	7.30135
447.613	7.96119
449.378	9.89424
451.142	10.6368
452.908	10.6417
454.672	11.3409
456.435	12.195
458.2	12.4358
459.963	13.4808
461.725	14.3761
463.489	14.611
465.251	14.8678
467.012	15.1653
468.775	15.7163
470.536	16.9739
472.296	17.7991
474.056	18.3155
475.817	18.4628
477.576	18.3868
479.335	18.7958
481.094	19.3733
482.854	19.4728
484.612	20.7649
486.37	19.4519
488.127	20.0013
489.886	19.5739
491.642	19.3047
493.398	19.1657
495.154	18.7435
496.91	19.2949
498.667	19.3609
500.422	19.2943
502.176	18.8321
503.93	18.6992
505.684	19.4667
507.438	18.96
509.191	17.9514
510.946	17.7156
512.698	17.8058
514.45	16.4951
516.202	17.9641
517.954	18.456
519.705	18.8055
521.456	17.7555
523.206	16.8373
524.956	16.8742
526.706	16.5709
528.456	16.3215
530.207	14.9787
531.956	14.0386
533.704	13.89
535.452	13.3491
537.2	13.7182
538.947	13.1482
540.694	12.0249
542.441	11.1347
544.188	10.0553
545.934	10.2259
547.68	9.47094
549.425	9.18239
551.17	7.5931
552.915	7.49041
554.659	6.43995
556.403	6.8494
558.145	6.70216
559.889	5.49851
561.632	4.29864
563.375	3.84783
565.117	4.20869
566.859	4.56644
568.601	4.52901
570.342	4.15189
572.083	3.88678
573.824	3.58747
575.565	4.08784
577.303	3.70849
579.043	3.69796
580.782	4.22325
582.521	5.26787
584.26	6.02194
585.998	5.28964
587.734	4.44747
589.472	5.31633
591.21	5.32225
592.947	5.6413
594.684	5.06672
596.418	6.06629
598.154	6.3358
599.89	7.22616
601.626	8.16413
603.361	8.88506
605.094	7.55346
606.828	7.1796
608.562	7.194
610.296	6.74928
612.027	6.80401
613.761	5.27068
615.493	5.42136
617.224	5.90484
618.956	5.71709
620.688	4.95324
622.419	5.00079
624.149	4.45017
625.879	4.03738
627.61	3.45194
629.338	3.83175
631.068	3.47921
632.797	3.08355
634.525	2.06862
636.254	1.53095
637.98	0.676715
639.708	1.12804
641.436	1.30517
643.162	1.49177
644.889	0.930533
646.614	0.80128
648.34	1.08218
650.067	1.86422
651.791	2.20863
653.516	2.17471
655.239	2.1332
656.964	3.49346
658.687	3.56657
660.411	4.00083
662.133	3.39861
663.857	4.4741
665.58	4.54422
667.301	4.57362
669.024	4.65009
670.744	4.40189
672.464	3.77461
674.186	3.91123
675.905	5.02597
677.626	5.66059
679.345	7.1284
681.065	7.40354
682.783	7.22115
684.503	6.13536
686.22	6.82665
687.939	6.92543
689.656	7.25855
691.372	8.05588
693.09	8.44893
694.806	8.45932
696.523	8.15922
698.239	8.8779
699.953	8.79785
701.67	10.4042
703.384	10.5393
705.098	9.74683
706.813	10.0334
708.526	10.2244
710.239	10.711
711.954	11.2895
713.666	12.127
715.378	12.9526
717.091	12.5207
718.802	11.911
720.513	12.7973
722.226	13.6166
723.936	14.8179
725.646	15.7172
727.355	16.5883
729.067	16.7582
730.776	17.0854
732.484	18.6451
734.192	19.9933
735.902	20.6093
737.61	22.4659
739.317	23.7196
741.024	24.6217
742.731	26.9988
744.439	27.3442
746.145	29.1491
747.851	28.9465
749.556	31.5095
751.262	32.9805
752.966	35.1138
754.673	37.5913
756.377	38.5515
758.081	39.256
759.784	40.9106
761.487	42.4966
763.19	44.0641
764.892	44.341
766.594	44.4044
768.296	45.7783
770	48.3191
771.701	50.2346
773.402	51.7814
775.102	54.4273
776.803	55.1061
778.503	55.8753
780.202	57.7137
781.901	58.3153
783.6	59.4785
785.299	59.9172
786.997	61.0903
788.695	62.1828
790.393	62.8789
792.09	63.0465
793.787	64.0215
795.484	64.6816
797.18	65.3621
798.877	66.1339
800.572	66.9627
802.268	67.5364
803.963	68.7547
805.658	70.1968
807.35	70.5246
809.044	70.7823
810.738	70.9823
812.432	71.0285
814.125	71.5532
815.818	72.8441
817.51	73.7005
819.202	73.5988
820.894	73.4098
822.584	73.7044
824.275	73.0484
825.966	72.5732
827.657	73.0572
829.347	71.7163
831.037	72.2336
832.725	70.8052
834.414	72.3896
836.103	72.6129
837.792	71.2947
839.481	69.1028
841.167	67.9404
842.854	68.2271
844.542	67.9592
846.229	68.196
847.914	66.9053
849.6	66.0244
851.287	65.582
852.973	65.6341
854.656	63.9637
856.341	63.4759
858.026	64.4022
859.711	63.7776
861.393	62.4646
863.077	61.1131
864.761	60.6436
866.442	59.2876
868.125	58.9237
869.808	58.0606
871.489	57.404
873.171	57.1901
874.85	55.4039
876.532	54.3331
878.213	53.5555
879.892	52.1328
881.572	51.3916
883.251	50.6539
884.931	51.6119
886.61	51.1202
888.287	50.8287
889.966	49.8729
891.643	49.8959
893.321	49.5531
894.997	49.551
896.675	49.5651
898.352	49.5407
900.028	48.7216
901.704	48.2334
903.379	47.173
905.055	46.6541
906.729	47.38
908.404	47.6748
910.077	48.2701
911.75	48.4899
913.425	47.5263
915.097	47.5994
916.771	48.4763
918.443	49.8075
920.116	50.154
921.787	49.9006
923.46	50.6304
925.13	51.7027
926.8	51.5954
928.472	51.3901
930.141	50.8384
931.813	48.9685
933.481	48.6177
935.15	48.0855
936.82	47.0439
938.488	45.8599
940.156	45.8997
941.825	44.6507
943.492	42.7081
945.158	41.581
946.827	40.8764
948.493	41.0571
950.158	40.4678
951.824	39.2922
953.491	38.5266
955.156	37.8116
956.82	36.6673
958.486	34.1389
960.15	32.8706
961.814	31.8953
963.477	31.9759
965.142	31.9444
966.804	32.4166
968.467	32.8955
970.129	32.3781
971.79	33.6305
973.454	33.9841
975.115	34.833
976.776	35.426
978.436	34.9225
980.096	35.7538
981.756	35.4773
983.417	37.4103
985.077	38.1987
986.736	38.5072
988.394	39.6804
990.052	40.3565
991.71	39.9706
993.368	40.342
995.025	40.2951
996.682	39.8641
998.341	39.5993
999.998	40.7276
1001.65	40.7657
1003.31	40.4931
1004.97	40.8067
1006.62	40.8608
1008.28	41.2034
1009.93	41.6619
1011.58	41.9265
1013.24	41.9595
1014.89	41.7334
1016.54	42.0135
1018.2	41.827
1019.85	41.0491
1021.5	41.3766
1023.16	43.1891
1024.81	46.3546
1026.46	49.6045
1028.11	52.4656
1029.76	55.6403
1031.41	57.9995
1033.06	60.0094
1034.71	61.9292
1036.36	63.9617
1038.01	65.9897
1039.66	67.7341
1041.31	69.1047
1042.95	72.1884
1044.6	74.6987
1046.25	76.8033
1047.9	78.9706
1049.54	80.8222
1051.19	82.3457
1052.84	83.3372
1054.48	84.276
1056.13	83.3361
1057.77	83.2535
1059.42	82.9152
1061.06	82.3862
1062.71	84.0707
1064.35	83.103
1066	83.0613
1067.64	81.2571
1069.28	80.7985
1070.93	79.8251
1072.57	79.263
1074.21	76.5308
1075.85	73.8553
1077.49	72.4161
1079.13	70.1011
1080.78	69.0423
1082.42	68.6452
1084.06	67.068
1085.7	63.8577
1087.34	61.6444
1088.97	59.239
1090.61	57.9544
1092.25	58.0719
1093.89	56.7311
1095.53	55.905
1097.17	55.3518
1098.8	56.1461
1100.44	57.2205
1102.08	58.4471
1103.71	60.2899
1105.35	62.4574
1106.99	63.6187
1108.62	63.9703
1110.26	63.3011
1111.89	62.8267
1113.52	62.7422
1115.16	62.8469
1116.79	62.1564
1118.43	60.8233
1120.06	59.6108
1121.69	58.9066
1123.32	57.6152
1124.96	56.6063
1126.59	54.3988
1128.22	53.0302
1129.85	51.5774
1131.48	49.7427
1133.11	47.3667
1134.75	45.3186
1136.37	43.6395
1138	41.5575
1139.63	40.2903
1141.26	38.6522
1142.89	37.1778
1144.52	35.5269
1146.15	32.3982
1147.78	30.7865
1149.4	28.6708
1151.03	26.4744
1152.66	23.6516
1154.28	20.9045
1155.91	17.6396
1157.54	15.3838
1159.16	14.0318
1160.79	10.7463
1162.41	8.96735
1164.04	6.39897
1165.66	4.03868
1167.29	1.42103
1168.91	0.608032
1170.53	0.907112
1172.16	2.12801
1173.78	2.21464
1175.4	2.07741
1177.02	3.10913
1178.65	3.99692
1180.27	4.1078
1181.89	3.83094
1183.51	3.40462
1185.13	3.84164
1186.75	3.28286
1188.37	3.62103
1189.99	4.58802
1191.61	3.83977
1193.23	3.6224
1194.85	4.06996
1196.47	4.15622
1198.08	3.8673
1199.7	3.94977
1201.32	4.47116
1202.94	4.87178
1204.55	5.27065
1206.17	6.10969
1207.79	6.34981
1209.4	8.68456
1211.02	9.67273
1212.63	10.5343
1214.25	11.3278
1215.86	12.6008
1217.48	13.5466
1219.09	14.313
1220.71	16.1247
1222.32	17.9034
1223.93	19.3894
1225.54	20.5053
1227.16	21.2344
1228.77	22.4695
1230.38	22.6951
1231.99	23.4567
1233.6	25.1104
1235.22	25.8142
1236.83	27.0085
1238.44	27.4803
1240.05	28.7441
1241.66	29.6268
1243.26	31.7785
1244.87	33.0715
1246.48	34.4418
1248.09	35.1396
1249.7	36.3818
1251.31	37.0593
1252.92	37.8342
1254.52	38.2256
1256.13	41.0525
1257.74	43.2614
1259.34	46.5667
1260.95	48.9471
1262.55	52.7537
1264.16	57.1668
1265.76	61.7846
1267.37	65.4426
1268.97	69.9939
1270.58	74.8055
1272.18	78.8728
1273.78	84.3166
1275.39	89.5032
1276.99	94.3454
1278.59	97.9
1280.2	102.068
1281.8	105.891
1283.4	109.946
1285	114.625
1286.6	117.772
1288.2	121.01
1289.8	124.878
1291.4	125.69
1293	127.914
1294.6	128.636
1296.2	129.705
1297.8	129.845
1299.4	130.387
1301	130.499
1302.6	130.531
1304.19	129.975
1305.79	129.982
1307.39	128.51
1308.99	127.238
1310.58	124.666
1312.18	122.744
1313.77	121.382
1315.37	118.243
1316.96	115.866
1318.56	111.831
1320.15	108.177
1321.75	104.976
1323.34	101.236
1324.94	95.7948
1326.53	90.972
1328.12	86.5286
1329.72	82.2923
1331.31	77.9112
1332.9	75.998
1334.49	74.2842
1336.08	73.9167
1337.67	73.1757
1339.27	72.6707
1340.86	71.6015
1342.45	71.9664
1344.04	72.1
1345.63	71.8391
1347.22	70.7322
1348.8	70.9292
1350.39	71.26
1351.98	70.5533
1353.57	70.0171
1355.16	68.9643
1356.75	68.3023
1358.33	66.9095
1359.92	66.1497
1361.51	65.7155
1363.09	65.9614
1364.68	65.4269
1366.27	65.1109
1367.85	64.2216
1369.44	62.6273
1371.02	60.8147
1372.61	61.0078
1374.19	60.341
1375.77	60.976
1377.36	61.4004
1378.94	62.1024
1380.52	62.7366
1382.11	62.8962
1383.69	63.5372
1385.27	64.4582
1386.85	63.5302
1388.43	63.8922
1390.02	63.8373
1391.6	64.26
1393.18	63.7183
1394.76	62.7713
1396.34	62.701
1397.92	62.2413
1399.5	63.8587
1401.08	66.6576
1402.65	70.1585
1404.23	74.8
1405.81	81.3511
1407.39	87.625
1408.97	94.8433
1410.54	103.155
1412.12	112.181
1413.7	120.182
1415.27	129.125
1416.85	137.945
1418.43	147.944
1420	156.999
1421.58	166.795
1423.15	175.742
1424.73	184.537
1426.3	193.249
1427.87	203.317
1429.45	212
1431.02	219.868
1432.6	228.183
1434.17	235.44
1435.74	242.487
1437.31	249.302
1438.89	254.834
1440.46	259.535
1442.03	263.253
1443.6	264.993
1445.17	265.749
1446.74	264.922
1448.31	263.332
1449.88	261.741
1451.45	259.749
1453.02	256.19
1454.59	251.191
1456.16	244.894
1457.72	237.636
1459.29	229.289
1460.86	219.871
1462.43	210.959
1463.99	200.212
1465.56	188.591
1467.13	177.744
1468.69	165.861
1470.26	153.522
1471.83	141.969
1473.39	131.506
1474.95	121.759
1476.52	112.663
1478.08	105.45
1479.65	98.2122
1481.21	90.6586
1482.78	83.5115
1484.34	76.281
1485.9	70.3377
1487.47	64.1029
1489.03	57.4561
1490.59	50.9658
1492.15	45.9533
1493.71	42.6603
1495.27	39.1208
1496.84	36.5128
1498.39	32.6244
1499.96	30.6259
1501.52	28.3657
1503.07	26.8288
1504.64	26.1506
1506.19	25.7699
1507.75	24.4545
1509.31	23.7572
1510.87	23.4101
1512.43	21.9197
1513.98	17.4047
1515.54	12.6783
1517.1	8.91477
1518.65	6.9591
1520.21	8.9775
1521.77	9.83958
1523.32	12.5937
1524.88	14.449
1526.44	16.553
1527.99	19.0857
1529.54	21.8475
1531.1	24.5644
1532.65	26.7448
1534.21	28.0826
1535.76	30.4194
1537.31	32.1247
1538.87	34.5565
1540.42	37.0248
1541.97	38.6362
1543.52	40.204
1545.07	41.4649
1546.63	42.4678
1548.18	43.3531
1549.73	45.0375
1551.28	46.7255
1552.83	47.762
1554.38	48.4081
1555.93	48.8387
1557.48	49.0421
1559.03	48.5375
1560.57	49.3097
1562.12	50.2182
1563.67	51.073
1565.22	50.8976
1566.77	51.8043
1568.31	52.0401
1569.86	53.2368
1571.41	53.791
1572.95	53.4586
1574.5	52.7329
1576.05	52.0743
1577.59	53.0149
1579.14	52.4428
1580.68	51.6251
1582.23	51.479
1583.77	50.3232
1585.31	48.3498
1586.86	46.319
1588.4	44.2876
1589.95	42.2884
1591.49	40.3723
1593.03	43.144
1594.57	46.8349
1596.11	50.6575
1597.66	55.3367
1599.2	56.1498
1600.74	57.0835
1602.28	57.0064
1603.82	58.0456
1605.36	58.8634
1606.9	60.0755
1608.44	60.2438
1609.98	61.2549
1611.52	60.7811
1613.06	61.7681
1614.6	61.2581
1616.13	61.5553
1617.67	61.391
1619.21	60.4473
1620.75	60.2407
1622.28	60.9898
1623.82	61.136
1625.36	60.9977
1626.89	61.784
1628.43	61.3276
1629.96	60.926
1631.5	60.6127
1633.04	59.6598
1634.57	59.9876
1636.11	59.8999
1637.64	60.0667
1639.17	60.0611
1640.71	60.6161
1642.24	60.8123
1643.77	62.0473
1645.31	61.4826
1646.84	62.0278
1648.37	62.0971
1649.9	62.4264
1651.43	61.8654
1652.96	62.766
1654.5	63.1775
1656.03	61.8875
1657.56	61.5346
1659.09	61.3707
1660.62	60.5405
1662.15	60.3341
1663.67	59.9635
1665.2	59.1644
1666.73	58.5967
1668.26	56.9155
1669.79	55.7517
1671.32	53.4312
1672.84	51.8126
1674.37	49.6136
1675.9	47.942
1677.43	46.8391
1678.95	45.8051
1680.48	45.2435
1682	43.3863
1683.53	42.4576
1685.05	42.1352
1686.58	41.127
1688.1	38.8163
1689.63	37.8818
1691.15	36.1864
1692.68	35.2175
1694.2	34.1599
1695.72	32.8217
1697.25	31.9691
1698.77	31.5442
1700.29	29.2558
1701.81	28.5519
1703.33	27.8479
1704.86	26.9011
1706.38	26.6781
1707.9	26.156
1709.42	26.1325
1710.94	26.4364
1712.46	26.098
1713.98	25.8366
1715.5	26.3815
1717.02	27.7719
1718.54	27.864
1720.06	28.4149
1721.57	28.3378
1723.09	29.1085
1724.61	29.4083
1726.13	29.4848
1727.64	28.6221
1729.16	28.4509
1730.68	28.1495
1732.19	27.4099
1733.71	27.9343
1735.23	27.8687
1736.74	27.4128
1738.26	27.1019
1739.77	25.5766
1741.29	24.3011
1742.8	23.3418
1744.31	21.1703
1745.83	20.1154
1747.34	19.223
1748.85	18.6658
1750.37	17.5683
1751.88	17.5198
1753.39	16.3485
1754.91	14.8204
1756.42	13.9579
1757.93	11.9704
1759.44	11.9842
1760.95	10.6344
1762.46	8.68523
1763.97	7.13663
1765.48	6.1747
1766.99	4.71681
1768.5	3.64881
1770.01	2.90479
1771.52	1.41451
1773.03	0.844952
1774.54	0.465449
1776.04	-0.304791
1777.55	0.0557362
1779.06	0.190282
1780.57	0.573444
1782.07	0.582931
1783.58	0.731838
1785.09	0.643051
1786.59	0.355725
1788.1	0.75112
1789.6	0.867659
1791.11	1.70891
1792.61	2.46665
1794.12	2.25168
1795.62	2.48136
1797.13	2.39002
1798.63	1.77024
1800.13	1.314
1801.64	1.30023
1803.14	1.30535
1804.64	2.18842
1806.15	3.25608
1807.65	2.82568
1809.15	2.75756
1810.65	2.1504
1812.15	1.8934
1813.65	1.45185
1815.16	0.941526
1816.66	0.692979
1818.15	0.278803
1819.66	0.638266
1821.16	0.812101
1822.65	0.91518
1824.15	0.907699
1825.65	0.723155
1827.15	0.750429
1828.65	1.46385
1830.15	1.39368
1831.64	1.42284
1833.14	1.77203
1834.64	2.30195
1836.14	1.97346
1837.63	2.01435
1839.13	2.92393
1840.62	2.92406
1842.12	3.14014
1843.62	3.43331
1845.11	3.16502
1846.61	3.23543
1848.1	3.8445
1849.6	4.50696
1851.09	4.63176
1852.58	5.13494
1854.08	5.90061
1855.57	6.23413
1857.06	6.56135
1858.55	6.6372
1860.05	6.61956
1861.54	7.09082
1863.03	7.60097
1864.52	7.84464
1866.01	7.43746
1867.5	7.72419
1869	7.40226
1870.49	7.04254
1871.98	7.16131
1873.47	7.13106
1874.96	7.08142
1876.44	7.0707
1877.93	8.02128
1879.42	8.27397
1880.91	8.21266
1882.4	8.01861
1882.47	7.44907
1883.96	7.22819
1885.46	6.98893
1886.95	7.11772
1888.44	7.0766
1889.94	6.66127
1891.43	6.74324
1892.93	6.49618
1894.42	5.91191
1895.91	5.25321
1897.4	5.05858
1898.89	4.80765
1900.39	5.22515
1901.88	5.07704
1903.37	4.06991
1904.86	3.94895
1906.35	3.47179
1907.84	2.76949
1909.33	2.29904
1910.82	2.12688
1912.31	1.68644
1913.8	0.989471
1915.29	1.56896
1916.77	1.51984
1918.26	1.37058
1919.75	1.22893
1921.24	2.12927
1922.73	2.38365
1924.21	1.97235
1925.7	2.16437
1927.19	2.05416
1928.67	2.40795
1930.16	2.21982
1931.64	2.52184
1933.13	2.89227
1934.61	2.99376
1936.1	2.76225
1937.58	1.92439
1939.07	1.03847
1940.55	1.15856
1942.04	1.06868
1943.52	1.51593
1945	1.68067
1946.49	1.7875
1947.97	2.31029
1949.45	2.93229
1950.93	3.59738
1952.42	4.22746
1953.9	4.47174
1955.38	4.29136
1956.86	4.14243
1958.34	4.92461
1959.82	5.13125
1961.3	5.62945
1962.78	5.13004
1964.26	5.24577
1965.74	5.41908
1967.22	4.78265
1968.7	4.95511
1970.18	4.50787
1971.65	4.49828
1973.13	4.26338
1974.61	4.3761
1976.09	3.9756
1977.57	3.90788
1979.04	3.28469
1980.52	3.57921
1982	4.39005
1983.47	5.01276
1984.95	5.2727
1986.42	5.67487
1987.9	6.72415
1989.37	7.10989
1990.85	6.8202
1992.32	6.59213
1993.8	6.46683
1995.27	7.38976
1996.75	7.12175
1998.22	7.713
1999.69	8.09283
2001.17	9.11053
2002.64	9.61052
2004.11	9.6457
2005.58	10.2894
2007.05	10.57
2008.53	10.2787
2010	10.0669
2011.47	10.5987
2012.94	11.409
2014.41	12.5941
2015.88	12.9168
2017.35	12.7076
2018.82	12.8066
2020.29	13.7619
2021.76	13.8054
2023.23	14.0772
2024.7	14.7023
2026.16	15.6568
2027.63	15.6785
2029.1	15.7257
2030.57	15.7846
2032.03	14.7908
2033.5	14.4421
2034.97	14.5784
2036.44	14.501
2037.9	14.1821
2039.37	13.7121
2040.83	13.3248
2042.3	13.5931
2043.76	13.105
2045.23	13.6777
2046.69	13.7822
2048.16	14.4005
2049.62	14.5056
2051.08	14.5607
2052.55	14.2224
2054.01	14.7997
2055.47	14.7772
2056.94	14.4976
2058.4	13.7098
2059.86	13.5616
2061.32	13.3348
2062.79	12.5795
2064.25	12.7056
2065.71	13.1128
2067.17	13.2356
2068.63	13.3447
2070.09	13.8209
2071.55	14.0841
2073.01	14.333
2074.47	15.0657
2075.93	15.0668
2077.39	15.8337
2078.85	16.172
2080.31	15.7666
2081.76	15.8259
2083.22	16.8606
2084.68	17.3732
2086.13	17.2082
2087.59	16.8238
2089.05	16.4751
2090.51	17.0216
2091.96	17.7271
2093.42	17.9875
2094.87	17.5444
2096.33	17.6406
2097.78	17.9625
2099.24	17.8371
2100.69	17.5384
2102.15	17.6877
2103.6	17.8005
2105.06	18.2701
2106.51	19.2917
2107.96	19.697
2109.42	20.2302
2110.87	20.7342
2112.32	21.0714
2113.77	21.2751
2115.23	21.4036
2116.68	21.6621
2118.13	21.8589
2119.58	21.7859
2121.03	22.3328
2122.48	22.0298
2123.93	22.1564
2125.38	22.0709
2126.83	23.2906
2128.28	23.7748
2129.73	24.0357
2131.18	24.2791
2132.63	25.3687
2134.08	26.6559
2135.53	27.4382
2136.97	28.2032
