#Acq. time (s)=	45
#Accumulations=	2
#Range (cm-¹)=	200...3150
#Windows=	2
#Auto scanning=	Off
#Autofocus=	Off
#Macrospot=	Off
#AutoExposure=	Off
#Spike filter=	Multiple accum.
#Delay time (s)=	0
#Binning=	1
#Readout mode=	Signal
#DeNoise=	Off
#ICS correction=	On
#Dark correction=	Off
#Inst. Process=	Off
#Detector Gain=	Best Dynamic Range
#Detector ADC=	20 kHz       
#Detector temperature (°C)=	-69.85
#Instrument=	LabRAM HR Evol
#Detector=	Synapse
#Objective=	x100
#Grating=	600 gr/mm
#ND Filter=	100%
#Laser (nm)=	532 
#Hole=	100.021
#Range=	Auto
#Laser Pol.=	No
#Raman. Pol.=	No
#Laser Pol. (°)=	-0.0007625
#Raman Pol. (°)=	89.9995
#Collection=	Microscope
#StageXY=	Marzhauser
#StageZ=	Marzhauser
#X (µm)=	-6995.3
#Y (µm)=	2104.4
#Z (µm)=	-74.65
#Full time(mm:ss)=	3:18
#Project=	
#Sample=	
#Site=	
#Title=	Mb_20_23_14_2x_45s_532 nm_x100_100%_600 gr_mm
#Remark=	
#Date=	13.07.2022 13:56
#Acquired=	13.07.2022 13:56:58
#Edit:Spike=	10.08.2022 10:28:56
#Base:Fit=	10.08.2022 10:29:19
#Base:Fit=	10.08.2022 10:29:37
#Base:Sub=	10.08.2022 10:32:28
#Filter:Polynom=	16.08.2022 10:13:29
#AxisType[0]=Intens
#AxisUnit[0]=Cnt
#AxisType[1]=Spectr
#AxisUnit[1]=1/cm
200.563	19.4066
202.377	15.5947
204.194	12.9107
206.008	11.5457
207.821	10.1158
209.634	8.91538
211.449	8.05395
213.262	6.85838
215.074	5.47169
216.885	5.01379
218.699	4.10214
220.51	3.01378
222.321	2.22063
224.131	2.62929
225.941	1.91097
227.751	3.25713
229.562	1.80946
231.371	2.73486
233.18	1.33395
234.988	0.726866
236.796	2.02775
238.603	3.37243
240.411	4.28448
242.219	3.91056
244.026	3.92634
245.832	3.93173
247.638	4.46116
249.443	5.00243
251.248	5.25963
253.053	3.87455
254.857	4.164
256.661	5.63851
258.465	6.97197
260.268	9.75354
262.071	8.36044
263.874	7.50806
265.678	7.81045
267.48	6.67418
269.282	5.85535
271.083	6.4821
272.884	7.09292
274.684	7.20808
276.484	6.28821
278.284	8.40665
280.084	7.65987
281.883	8.17135
283.682	7.40259
285.48	7.29428
287.276	6.00443
289.074	5.08489
290.871	4.40959
292.668	5.78717
294.465	5.49411
296.261	5.93437
298.057	7.29659
299.853	9.04087
301.648	9.47527
303.443	9.62425
305.237	10.1451
307.032	11.7888
308.823	13.7973
310.617	15.298
312.41	17.1594
314.203	19.4884
315.995	21.0237
317.788	23.3222
319.579	24.4523
321.369	25.6363
323.16	26.2634
324.951	28.15
326.741	29.5113
328.531	28.27
330.321	27.9957
332.108	28.4024
333.897	29.8599
335.686	30.8803
337.474	30.8511
339.26	31.496
341.048	30.4781
342.835	31.1415
344.622	30.0597
346.406	29.1355
348.192	26.7948
349.978	25.3449
351.764	22.7079
353.547	22.08
355.332	19.4094
357.116	20.1575
358.901	19.9457
360.682	18.6899
362.466	18.3391
364.249	16.706
366.03	16.0319
367.812	14.1753
369.594	12.7628
371.374	12.3636
373.155	9.05295
374.936	7.85654
376.715	6.12454
378.495	6.83222
380.273	6.98585
382.053	7.92501
383.832	8.90052
385.609	10.5277
387.388	12.4143
389.164	12.9822
390.942	14.3815
392.72	14.5382
394.495	16.4894
396.272	17.9862
398.047	20.5848
399.823	21.1041
401.597	22.6891
403.372	22.932
405.145	22.8035
406.92	22.717
408.693	23.7816
410.467	22.5988
412.239	24.3886
414.012	24.769
415.783	25.4339
417.556	26.5287
419.327	28.5231
421.099	30.024
422.869	30.9747
424.64	31.0819
426.409	30.4702
428.18	30.7752
429.948	30.8007
431.718	31.6524
433.486	30.4692
435.253	29.404
437.022	28.6916
438.789	28.9688
440.558	29.1269
442.324	30.0625
444.089	31.618
445.857	33.0247
447.622	34.0233
449.386	35.4219
451.153	36.165
452.917	35.3359
454.682	36.1737
456.446	36.6925
458.208	38.0718
459.973	38.1554
461.735	38.3288
463.497	39.6518
465.259	39.3146
467.022	40.9446
468.783	41.3618
470.544	43.7082
472.306	45.0659
474.066	46.0582
475.825	47.2756
477.585	47.5697
479.346	49.5251
481.104	49.1722
482.862	51.2215
484.62	51.3697
486.38	53.7455
488.137	53.59
489.894	54.2798
491.65	53.717
493.407	55.0531
495.164	56.8939
496.92	59.0813
498.675	58.831
500.43	60.2097
502.184	61.095
503.939	61.2375
505.694	61.8897
507.448	60.9244
509.201	61.9791
510.954	63.2731
512.706	62.9093
514.459	61.5645
516.21	61.4808
517.962	60.7374
519.715	59.4181
521.466	59.2524
523.216	59.7385
524.966	59.1153
526.716	58.8346
528.466	59.4331
530.215	60.3824
531.964	60.255
533.712	59.0184
535.46	56.741
537.208	55.1778
538.955	53.419
540.703	52.8263
542.449	51.9511
544.196	49.3564
545.942	48.1474
547.688	46.6263
549.433	45.8707
551.178	43.2548
552.923	41.5244
554.667	40.4578
556.412	38.9202
558.155	38.7461
559.899	37.842
561.642	37.3887
563.385	36.9231
565.127	36.8854
566.867	35.7203
568.609	33.7365
570.35	33.0298
572.092	31.9786
573.832	31.5959
575.573	29.9488
577.313	27.5576
579.053	25.9688
580.79	25.621
582.529	25.3727
584.268	23.4264
586.006	20.9371
587.745	18.9855
589.482	17.4374
591.218	14.271
592.955	13.2188
594.692	12.2662
596.428	13.3164
598.164	12.5534
599.898	10.0647
601.634	9.47066
603.369	9.90921
605.104	10.3232
606.836	12.2491
608.57	12.6998
610.304	11.7527
612.037	10.0985
613.769	9.35248
615.501	9.38615
617.234	9.20146
618.966	10.4888
620.696	11.0853
622.427	11.2555
624.159	13.6285
625.887	13.5243
627.618	13.7948
629.348	13.2521
631.076	14.4319
632.806	15.9164
634.535	16.6432
636.262	16.6332
637.99	17.8099
639.716	17.7992
641.444	18.8004
643.172	20.2528
644.897	22.5447
646.624	23.244
648.348	22.3706
650.075	21.522
651.801	21.8257
653.524	21.7896
655.249	21.5544
656.972	21.124
658.697	19.8822
660.419	18.8637
662.143	18.2406
663.865	17.7905
665.588	17.4639
667.309	15.5253
669.032	14.9964
670.752	13.6426
672.474	11.4653
674.194	10.3705
675.915	10.2428
677.634	10.9625
679.355	11.9941
681.073	12.3361
682.793	12.3473
684.511	13.071
686.23	13.5942
687.947	14.4958
689.664	15.4305
691.382	15.9762
693.098	15.8118
694.816	14.5295
696.531	14.802
698.247	15.1672
699.963	16.3281
701.678	19.2697
703.392	21.1939
705.108	21.3198
706.821	21.426
708.534	22.1607
710.249	22.6839
711.962	23.3751
713.674	23.894
715.388	24.4128
717.099	25.1053
718.81	24.485
720.523	24.4712
722.234	25.0938
723.944	25.4954
725.654	23.6078
727.365	24.9763
729.075	24.98
730.784	26.3109
732.492	25.3104
734.202	24.8195
735.91	25.4984
737.618	26.3495
739.325	25.5965
741.034	25.047
742.741	24.8309
744.447	25.822
746.153	28.3694
747.859	28.4109
749.564	29.2796
751.271	29.9475
752.976	31.2195
754.681	32.6832
756.385	33.3477
758.088	33.7655
759.792	36.5595
761.495	38.5969
763.2	39.6912
764.902	40.0106
766.604	42.2378
768.306	43.5108
770.008	45.2949
771.709	45.717
773.41	47.2659
775.11	47.9741
776.811	48.3336
778.51	50.0672
780.21	52.4747
781.909	53.8818
783.608	54.9457
785.307	57.0726
787.005	58.972
788.703	58.7166
790.401	59.1957
792.098	61.4048
793.795	64.0511
795.492	65.5762
797.188	66.3432
798.884	66.5837
800.58	66.9338
802.276	66.3621
803.971	66.0209
805.665	66.7899
807.36	67.1533
809.054	67.2163
810.748	68.7458
812.441	71.2018
814.135	72.2078
815.826	73.7402
817.518	72.328
819.21	73.4202
820.902	73.6352
822.594	74.5636
824.285	75.2927
825.976	76.2012
827.665	76.5503
829.355	77.8016
831.045	78.1122
832.735	76.8329
834.424	77.4845
836.111	77.5406
837.8	76.3495
839.488	74.3322
841.177	75.0311
842.864	73.9149
844.55	72.7963
846.237	70.6477
847.924	69.3581
849.61	68.0939
851.295	65.5242
852.98	64.0404
854.666	64.2314
856.349	63.5575
858.034	63.2179
859.719	61.6881
861.403	61.7462
863.085	62.0264
864.769	61.4898
866.452	59.6393
868.133	59.4072
869.816	58.4044
871.498	58.921
873.179	58.7629
874.86	58.9192
876.54	57.862
878.221	56.773
879.902	55.456
881.58	54.4051
883.26	53.5332
884.938	52.3604
886.618	52.0961
888.297	50.8602
889.974	51.8685
891.653	53.1574
893.329	55.0703
895.007	56.8199
896.683	57.4463
898.36	55.6893
900.035	55.1827
901.712	55.4654
903.387	56.1241
905.063	55.5702
906.737	54.5102
908.412	53.9361
910.085	51.8578
911.76	51.5549
913.433	52.708
915.107	51.7772
916.779	50.5306
918.452	50.054
920.124	49.8143
921.797	47.1319
923.467	46.2537
925.138	46.79
926.81	45.2359
928.48	45.29
930.151	44.2477
931.82	42.9816
933.489	41.2347
935.16	40.6438
936.828	42.3002
938.496	41.6997
940.165	39.915
941.833	38.2911
943.5	36.7523
945.168	36.0721
946.834	35.1823
948.5	33.726
950.168	32.5151
951.834	31.827
953.499	30.5957
955.163	29.9253
956.83	27.2797
958.494	24.9958
960.158	23.3022
961.821	23.9553
963.487	26.8472
965.15	28.6339
966.812	28.1065
968.474	28.7204
970.138	29.869
971.8	30.7769
973.461	33.4957
975.123	34.2239
976.783	35.4439
978.446	36.8509
980.106	37.0376
981.766	37.2542
983.425	37.5413
985.084	39.2257
986.743	39.5688
988.402	40.7302
990.06	41.6776
991.72	44.3178
993.378	44.9182
995.035	46.6587
996.692	47.2189
998.349	45.58
1000.01	47.3818
1001.66	47.4189
1003.32	48.9246
1004.97	50.3697
1006.63	53.9839
1008.28	55.7637
1009.94	57.3186
1011.59	59.7565
1013.25	60.4679
1014.9	61.7109
1016.55	64.8034
1018.21	67.925
1019.86	69.2943
1021.51	71.0755
1023.16	74.2961
1024.81	78.1042
1026.47	80.5517
1028.12	82.4688
1029.77	85.1494
1031.42	87.0057
1033.07	88.4876
1034.72	88.4216
1036.37	88.9309
1038.02	90.3202
1039.67	90.6704
1041.31	91.5388
1042.96	93.4449
1044.61	95.896
1046.26	98.2094
1047.91	98.173
1049.55	97.2556
1051.2	98.5589
1052.84	97.8985
1054.49	97.6589
1056.14	97.632
1057.78	96.795
1059.43	96.7371
1061.07	95.8833
1062.72	94.7137
1064.36	92.7796
1066	91.0794
1067.65	90.1906
1069.29	87.2508
1070.93	84.6224
1072.58	82.4102
1074.22	78.7793
1075.86	74.3869
1077.5	70.8987
1079.14	67.7684
1080.78	65.7141
1082.42	64.7138
1084.06	62.2324
1085.7	62.9755
1087.34	61.875
1088.98	61.6241
1090.62	60.8804
1092.26	60.3786
1093.9	61.7315
1095.54	61.7286
1097.17	62.8812
1098.81	63.6511
1100.45	63.4665
1102.09	62.7096
1103.72	64.4386
1105.36	65.3262
1106.99	64.7459
1108.63	63.6653
1110.27	63.267
1111.9	63.3198
1113.53	62.7162
1115.17	60.262
1116.8	57.7034
1118.43	56.6184
1120.07	53.3706
1121.7	50.1036
1123.33	49.5512
1124.97	50.0396
1126.6	47.9797
1128.23	46.8689
1129.86	45.5767
1131.49	44.333
1133.12	42.9969
1134.75	40.8586
1136.38	39.164
1138.01	39.3592
1139.64	36.0512
1141.27	35.0597
1142.9	33.2515
1144.53	31.6461
1146.16	27.895
1147.78	25.7648
1149.41	22.3843
1151.04	18.9575
1152.67	16.9126
1154.29	14.9076
1155.92	12.7732
1157.54	11.5916
1159.17	9.65059
1160.8	7.48948
1162.42	7.22818
1164.05	6.39317
1165.67	5.44826
1167.29	5.01725
1168.92	4.69729
1170.54	3.79962
1172.16	3.81204
1173.79	3.62144
1175.41	3.94498
1177.03	4.18627
1178.65	4.59448
1180.28	4.05433
1181.9	4.90438
1183.52	6.49138
1185.14	8.17749
1186.76	9.48234
1188.38	9.53482
1190	11.584
1191.62	11.8628
1193.24	12.8229
1194.86	14.2173
1196.47	14.0745
1198.09	15.3946
1199.71	17.9797
1201.33	19.6475
1202.95	22.9146
1204.56	27.8066
1206.18	30.7051
1207.8	32.4514
1209.41	36.1459
1211.03	40.1679
1212.64	43.6527
1214.26	47.4009
1215.87	51.7445
1217.49	56.468
1219.1	62.0249
1220.71	64.8129
1222.33	69.3487
1223.94	73.6785
1225.55	78.4906
1227.16	82.6775
1228.78	86.5023
1230.39	90.2796
1232	94.7873
1233.61	99.9192
1235.22	103.177
1236.83	105.671
1238.44	108.238
1240.05	109.397
1241.66	110.841
1243.27	114.395
1244.88	115.52
1246.49	116.998
1248.1	118.913
1249.71	120.292
1251.32	121.627
1252.92	123.223
1254.53	125.484
1256.14	127.612
1257.74	130.188
1259.35	132.287
1260.96	134.874
1262.56	138.519
1264.17	141.098
1265.77	141.257
1267.38	144.455
1268.98	146.921
1270.59	150.73
1272.19	152.168
1273.79	156.189
1275.4	160.16
1277	163.115
1278.6	165.835
1280.21	170.42
1281.81	174.337
1283.41	178.026
1285.01	182.842
1286.61	186.629
1288.21	190.992
1289.81	194.898
1291.41	200.054
1293.01	203.793
1294.61	207.751
1296.21	210.817
1297.81	212.895
1299.41	214.916
1301.01	216.807
1302.6	218.676
1304.2	220.837
1305.8	222.178
1307.4	222.854
1308.99	223.109
1310.59	223.159
1312.19	223.223
1313.78	221.749
1315.38	219.348
1316.97	217.975
1318.57	216.692
1320.16	213.613
1321.76	211.913
1323.35	209.858
1324.94	206.303
1326.54	204.766
1328.13	201.125
1329.72	197.823
1331.32	193.829
1332.91	190.283
1334.5	188.825
1336.09	184.21
1337.68	180.486
1339.27	178.424
1340.87	175.341
1342.45	171.758
1344.04	168.076
1345.64	164.708
1347.22	165.066
1348.81	161.649
1350.4	159.845
1351.99	158.531
1353.58	157.642
1355.17	156.399
1356.75	153.798
1358.34	153.863
1359.93	154.085
1361.51	154.117
1363.1	152.675
1364.69	151.298
1366.27	150.86
1367.86	149.048
1369.44	148.263
1371.03	147.957
1372.61	145.676
1374.2	144.568
1375.78	142.977
1377.37	142.4
1378.95	142.322
1380.53	142.077
1382.11	142.441
1383.7	141.103
1385.28	142.128
1386.86	141.495
1388.44	141.604
1390.02	140.307
1391.6	140.558
1393.19	139.614
1394.77	138.384
1396.35	139.369
1397.93	139.165
1399.51	139.52
1401.08	142.416
1402.66	144.337
1404.24	146.718
1405.82	150.836
1407.4	153.272
1408.97	156.849
1410.55	162.587
1412.13	170.192
1413.71	176.448
1415.28	182.075
1416.86	189.93
1418.43	199.533
1420.01	208.203
1421.59	217.635
1423.16	228.603
1424.73	238.497
1426.31	249.938
1427.88	259.456
1429.46	271.147
1431.03	281.486
1432.6	290.773
1434.18	300.289
1435.75	308.22
1437.32	317.182
1438.89	322.313
1440.46	327.716
1442.04	331.54
1443.61	334.677
1445.18	337.461
1446.75	336.663
1448.32	336.299
1449.89	334.821
1451.46	331.724
1453.03	328.66
1454.6	324.571
1456.16	319.365
1457.73	312.183
1459.3	304.01
1460.87	296.473
1462.44	286.511
1464	276.654
1465.57	264.659
1467.14	253.921
1468.7	241.431
1470.27	229.574
1471.83	217.682
1473.4	204.83
1474.96	194.531
1476.53	182.542
1478.09	172.746
1479.66	163.423
1481.22	152.85
1482.78	143.105
1484.35	134.054
1485.91	124.408
1487.47	115.458
1489.04	108.765
1490.6	100.637
1492.16	93.5799
1493.72	88.34
1495.28	84.169
1496.84	80.6522
1498.4	77.4549
1499.96	74.5051
1501.52	72.7482
1503.08	69.8958
1504.64	68.3312
1506.2	65.9565
1507.76	63.6447
1509.32	61.3527
1510.88	59.4903
1512.44	57.4437
1513.99	55.7753
1515.55	54.4543
1517.11	52.1093
1518.66	51.7264
1520.22	50.9715
1521.78	50.4309
1523.33	49.7379
1524.89	49.9402
1526.44	50.3786
1528	51.2136
1529.55	51.7668
1531.11	52.4621
1532.66	53.5376
1534.21	53.2419
1535.77	53.083
1537.32	55.6391
1538.87	57.8493
1540.43	58.7087
1541.98	59.9193
1543.53	61.1885
1545.08	64.9346
1546.63	66.2962
1548.18	68.32
1549.74	70.285
1551.29	72.2136
1552.84	75.2334
1554.39	77.2308
1555.94	79.4142
1557.48	81.286
1559.03	83.0592
1560.58	84.3681
1562.13	85.4492
1563.68	87.0729
1565.23	89.0622
1566.78	92.0445
1568.32	96.7638
1569.87	100.827
1571.42	105.05
1572.96	108.544
1574.51	113.097
1576.05	116.765
1577.6	119.799
1579.14	122.378
1580.69	124.753
1582.24	126.762
1583.78	128.079
1585.32	129.683
1586.87	131.968
1588.41	133.801
1589.95	135.594
1591.5	137.349
1593.04	137.619
1594.58	138.101
1596.12	139.18
1597.67	140.119
1599.21	140.1
1600.75	138.997
1602.29	138.169
1603.83	136.869
1605.37	137.531
1606.91	136.872
1608.45	136.381
1609.99	136.535
1611.53	135.343
1613.07	135.997
1614.6	137.667
1616.14	136.687
1617.68	134.969
1619.22	135.885
1620.75	135.758
1622.29	136.769
1623.83	136.736
1625.37	137.455
1626.9	139.083
1628.44	141.036
1629.97	142.652
1631.51	144.948
1633.04	146.875
1634.58	150.226
1636.11	152.989
1637.65	155.107
1639.18	158.386
1640.72	162.99
1642.25	168.271
1643.78	172.738
1645.31	177.412
1646.85	180.282
1648.38	183.763
1649.91	186.771
1651.44	187.365
1652.97	188.632
1654.5	190.526
1656.03	191.379
1657.56	190.74
1659.1	190.053
1660.62	188.311
1662.15	186.421
1663.68	185.121
1665.21	182.819
1666.74	180.538
1668.27	176.462
1669.8	172.195
1671.32	168.42
1672.85	163.702
1674.38	159.31
1675.91	153.686
1677.43	148.616
1678.96	142.523
1680.49	137.303
1682.01	132.075
1683.54	126.012
1685.06	119.544
1686.59	112.703
1688.11	105.912
1689.64	100.874
1691.16	94.6521
1692.68	87.6874
1694.21	81.4519
1695.73	76.9354
1697.25	71.8712
1698.78	68.2038
1700.3	64.8743
1701.82	61.2555
1703.34	59.0436
1704.86	55.2578
1706.39	52.135
1707.91	50.1499
1709.43	47.4281
1710.95	45.6644
1712.47	43.3843
1713.99	41.7341
1715.51	40.2571
1717.02	39.2328
1718.54	38.421
1720.06	37.112
1721.58	35.672
1723.1	35.3628
1724.62	34.0665
1726.13	33.5319
1727.65	32.3158
1729.17	33.662
1730.68	33.4189
1732.2	31.9971
1733.72	30.3436
1735.23	30.7447
1736.75	28.9941
1738.26	29.3925
1739.78	30.0252
1741.29	29.4092
1742.81	29.4903
1744.32	28.935
1745.84	29.0331
1747.35	28.9081
1748.86	27.3376
1750.37	26.853
1751.89	25.7965
1753.4	23.3549
1754.91	21.5433
1756.42	20.3807
1757.93	19.2341
1759.45	17.4244
1760.96	15.0998
1762.47	11.6489
1763.98	11.5306
1765.49	11.8679
1767	11.2147
1768.51	10.9555
1770.02	10.5669
1771.53	11.4969
1773.03	12.8333
1774.54	13.1088
1776.05	13.1491
1777.56	12.6368
1779.07	12.9882
1780.57	12.1609
1782.08	12.4333
1783.59	12.6606
1785.09	12.2117
1786.6	12.8495
1788.11	13.4444
1789.61	13.8336
1791.12	14.1522
1792.62	14.6223
1794.13	14.4411
1795.63	13.9892
1797.13	13.9366
1798.64	14.6007
1800.14	13.8853
1801.65	14.499
1803.15	14.7633
1804.65	14.2497
1806.15	13.7485
1807.66	12.7914
1809.16	11.6499
1810.66	11.1589
1812.16	10.6564
1813.66	11.486
1815.16	10.5109
1816.66	10.0847
1818.16	9.48029
1819.66	9.57367
1821.16	9.27532
1822.66	7.76953
1824.16	6.34638
1825.66	6.44811
1827.16	4.91613
1828.66	3.41049
1830.16	3.06575
1831.65	2.22508
1833.15	1.99172
1834.65	0.432788
1836.14	0.190488
1837.64	0.615053
1839.14	4.19928
1840.63	4.5501
1842.13	3.62722
1843.62	4.44121
1845.12	4.38599
1846.61	4.70136
1848.11	5.06105
1849.6	4.60013
1851.1	3.62132
1852.59	4.29776
1854.08	4.78891
1855.58	4.71305
1857.07	4.96212
1858.56	5.99936
1860.05	5.62372
1861.55	6.00042
1863.04	5.95024
1864.53	5.10167
1866.02	4.97533
1867.51	4.15625
1869	4.33884
1870.49	4.38815
1871.98	4.92832
1873.47	4.08698
1874.96	4.31456
1876.45	3.5698
1877.94	2.71254
1879.43	1.60428
1880.92	2.02599
1882.41	1.58135
1882.51	1.08343
1884	1.8005
1885.5	2.38702
1886.99	2.63445
1888.48	1.81943
1889.98	2.93477
1891.47	2.98068
1892.96	4.61953
1894.46	3.7917
1895.95	3.14495
1897.44	3.59013
1898.93	3.85434
1900.42	3.94819
1901.91	4.40302
1903.41	4.86567
1904.9	5.45793
1906.39	5.43693
1907.88	6.19789
1909.37	6.95506
1910.86	6.99388
1912.35	6.44108
1913.83	5.50846
1915.32	5.20987
1916.81	5.85522
1918.3	5.0321
1919.79	5.49623
1921.27	5.21323
1922.76	4.72762
1924.25	5.20008
1925.74	6.14121
1927.22	5.47375
1928.71	4.66262
1930.19	4.3269
1931.68	4.4231
1933.17	3.26343
1934.65	3.01715
1936.14	2.49552
1937.62	3.19683
1939.11	4.01388
1940.59	3.54284
1942.07	3.47329
1943.56	3.79758
1945.04	3.86381
1946.52	3.89618
1948.01	4.51927
1949.49	4.80007
1950.97	5.66084
1952.45	5.88559
1953.93	6.3741
1955.42	5.93804
1956.9	5.85331
1958.38	6.24008
1959.86	7.13177
1961.34	6.91079
1962.82	6.91635
1964.3	7.5403
1965.78	7.13058
1967.26	7.96419
1968.74	7.71978
1970.21	8.37711
1971.69	8.52811
1973.17	8.09977
1974.65	9.02787
1976.13	8.67559
1977.6	8.65101
1979.08	8.23835
1980.56	7.88586
1982.03	7.14208
1983.51	5.94548
1984.99	5.68127
1986.46	5.29994
1987.94	5.6048
1989.41	6.16622
1990.89	6.31469
1992.36	6.00681
1993.84	6.09388
1995.31	5.05638
1996.78	5.46392
1998.26	4.87855
1999.73	4.35285
2001.2	3.97182
2002.68	3.35188
2004.15	3.97306
2005.62	4.27628
2007.09	4.75382
2008.56	5.29961
2010.04	6.19649
2011.51	7.23858
2012.98	6.82489
2014.45	7.19205
2015.92	8.26368
2017.39	9.30815
2018.86	8.8533
2020.33	10.6275
2021.8	11.1198
2023.26	11.3925
2024.73	11.1924
2026.2	11.3766
2027.67	11.9508
2029.14	12.061
2030.61	12.695
2032.07	12.7542
2033.54	13.5252
2035.01	13.2288
2036.47	13.5575
2037.94	13.0153
2039.4	14.2597
2040.87	14.4457
2042.33	14.5177
2043.8	14.0953
2045.27	14.7004
2046.73	15.3951
2048.19	16.4344
2049.66	15.7711
2051.12	15.3327
2052.59	14.9593
2054.05	14.6254
2055.51	14.6982
2056.97	15.8446
2058.44	15.7165
2059.9	16.3124
2061.36	16.6787
2062.82	16.6375
2064.28	16.1383
2065.74	15.4773
2067.21	15.8448
2068.67	16.1079
2070.13	16.1877
2071.59	16.6823
2073.05	18.0506
2074.51	19.0891
2075.96	20.0347
2077.42	20.3667
2078.88	20.7883
2080.34	20.5528
2081.8	19.9591
2083.26	20.3549
2084.72	20.6087
2086.17	21.1371
2087.63	22.6578
2089.09	22.8023
2090.54	23.151
2092	24.1789
2093.45	25.4058
2094.91	24.8319
2096.37	24.6607
2097.82	24.6853
2099.28	24.9629
2100.73	25.0932
2102.19	25.1652
2103.64	25.5832
2105.09	25.9491
2106.55	26.5571
2108	27.5592
2109.45	27.8139
2110.91	29.3112
2112.36	31.6598
2113.81	31.6749
2115.26	32.7093
2116.72	34.1573
2118.17	35.7455
2119.62	35.6127
2121.07	37.026
2122.52	38.2497
2123.97	38.9149
2125.42	41.0177
2126.87	42.312
2128.32	45.1334
2129.77	46.9466
2131.22	48.22
2132.67	51.4041
