#Acq. time (s)=	45
#Accumulations=	2
#Range (cm-¹)=	200...3150
#Windows=	2
#Auto scanning=	Off
#Autofocus=	Off
#Macrospot=	Off
#AutoExposure=	Off
#Spike filter=	Multiple accum.
#Delay time (s)=	0
#Binning=	1
#Readout mode=	Signal
#DeNoise=	Off
#ICS correction=	On
#Dark correction=	Off
#Inst. Process=	Off
#Detector Gain=	Best Dynamic Range
#Detector ADC=	20 kHz       
#Detector temperature (°C)=	-69.85
#Instrument=	LabRAM HR Evol
#Detector=	Synapse
#Objective=	x100
#Grating=	600 gr/mm
#ND Filter=	100%
#Laser (nm)=	532 
#Hole=	100.021
#Range=	Auto
#Laser Pol.=	No
#Raman. Pol.=	No
#Laser Pol. (°)=	-0.0007625
#Raman Pol. (°)=	89.9995
#Collection=	Microscope
#StageXY=	Marzhauser
#StageZ=	Marzhauser
#X (µm)=	-6950.3
#Y (µm)=	2018.9
#Z (µm)=	-74.8
#Full time(mm:ss)=	3:18
#Project=	
#Sample=	
#Site=	
#Title=	Mb_20_23_27_2x_45s_532 nm_x100_100%_600 gr_mm
#Remark=	
#Date=	13.07.2022 15:15
#Acquired=	13.07.2022 15:15:37
#Base:Fit=	10.08.2022 10:29:37
#Edit:Spike=	10.08.2022 10:33:35
#Edit:Spike=	10.08.2022 10:33:35
#Edit:Spike=	10.08.2022 10:33:36
#Base:Sub=	10.08.2022 10:33:46
#Filter:Polynom=	16.08.2022 10:13:29
#AxisType[0]=Intens
#AxisUnit[0]=Cnt
#AxisType[1]=Spectr
#AxisUnit[1]=1/cm
200.563	88.3624
202.377	87.5563
204.194	82.6581
206.008	78.3091
207.821	73.1399
209.634	68.0553
211.449	62.6513
213.262	58.6052
215.074	55.3451
216.885	52.0276
218.699	49.8808
220.51	45.6418
222.321	42.8707
224.131	40.9617
225.941	39.1729
227.751	38.4263
229.562	37.7971
231.371	34.8683
233.18	33.9582
234.988	30.5396
236.796	28.7404
238.603	27.2151
240.411	27.3066
242.219	26.8227
244.026	25.592
245.832	24.1822
247.638	23.1243
249.443	21.1347
251.248	20.3564
253.053	19.3988
254.857	19.1872
256.661	18.9659
258.465	18.5145
260.268	17.737
262.071	14.7244
263.874	15.0191
265.678	15.1243
267.48	15.079
269.282	14.0944
271.083	13.534
272.884	11.7685
274.684	10.7812
276.484	11.6327
278.284	10.4282
280.084	10.5055
281.883	9.84488
283.682	9.15471
285.48	7.7747
287.276	6.69841
289.074	4.37969
290.871	5.38008
292.668	5.11064
294.465	5.08145
296.261	5.68905
298.057	6.09817
299.853	6.75747
301.648	7.37417
303.443	8.18743
305.237	9.78133
307.032	9.74664
308.823	10.8107
310.617	10.7961
312.41	13.1485
314.203	14.3897
315.995	16.2445
317.788	17.8414
319.579	18.4349
321.369	18.9569
323.16	20.1716
324.951	20.867
326.741	23.7896
328.531	25.6605
330.321	27.5765
332.108	27.6354
333.897	27.0574
335.686	26.8005
337.474	27.0462
339.26	26.7241
341.048	27.5726
342.835	26.4205
344.622	26.4956
346.406	25.0759
348.192	23.5729
349.978	22.0832
351.764	20.0203
353.547	21.1428
355.332	18.7972
357.116	17.0064
358.901	15.3256
360.682	14.4464
362.466	12.8079
364.249	13.2164
366.03	13.3442
367.812	12.3594
369.594	12.413
371.374	11.7656
373.155	12.3002
374.936	10.5692
376.715	10.5768
378.495	9.3742
380.273	9.88153
382.053	8.6803
383.832	8.2105
385.609	8.44745
387.388	7.81946
389.164	8.67669
390.942	10.0878
392.72	10.4087
394.495	13.254
396.272	13.7688
398.047	16.2028
399.823	17.7206
401.597	20.3097
403.372	21.8744
405.145	23.162
406.92	24.1834
408.693	25.8845
410.467	26.8564
412.239	25.7684
414.012	26.7983
415.783	26.9371
417.556	26.4468
419.327	26.3934
421.099	25.9916
422.869	25.325
424.64	25.9886
426.409	26.2228
428.18	25.7767
429.948	24.6101
431.718	23.5342
433.486	22.7771
435.253	21.5169
437.022	20.8188
438.789	19.7396
440.558	20.8323
442.324	20.8638
444.089	20.0033
445.857	21.2856
447.622	22.0078
449.386	22.5043
451.153	22.1846
452.917	23.3173
454.682	23.4846
456.446	23.0411
458.208	24.5566
459.973	24.1804
461.735	23.815
463.497	22.6632
465.259	23.1822
467.022	23.8734
468.783	25.1751
470.544	26.9392
472.306	29.0918
474.066	30.4954
475.825	32.4792
477.585	35.3185
479.346	36.3535
481.104	37.5247
482.862	40.2023
484.62	40.8921
486.38	42.3646
488.137	42.0301
489.894	42.1856
491.65	41.5989
493.407	40.8702
495.164	42.6513
496.92	42.0993
498.675	41.4379
500.43	41.4627
502.184	44.4972
503.939	45.012
505.694	45.146
507.448	46.6551
509.201	46.3188
510.954	47.1203
512.706	47.2232
514.459	46.3438
516.21	45.2804
517.962	44.4987
519.715	44.7107
521.466	43.465
523.216	42.8941
524.966	43.6104
526.716	43.0869
528.466	44.7113
530.215	43.9767
531.964	43.3156
533.712	41.2685
535.46	39.3254
537.208	38.4222
538.955	36.4036
540.703	35.2098
542.449	33.1959
544.196	32.189
545.942	31.3711
547.688	29.275
549.433	28.2886
551.178	27.5737
552.923	27.5813
554.667	27.5567
556.412	26.5841
558.155	25.5645
559.899	24.4616
561.642	23.1129
563.385	22.2827
565.127	21.0438
566.867	19.8426
568.609	19.5545
570.35	18.7708
572.092	16.9023
573.832	15.6987
575.573	12.805
577.313	12.4605
579.053	12.6612
580.79	12.6511
582.529	12.8272
584.268	12.4158
586.006	12.3888
587.745	12.1659
589.482	12.2746
591.218	10.5075
592.955	9.93655
594.692	9.26368
596.428	7.54609
598.164	8.17594
599.898	7.18192
601.634	6.51949
603.369	6.19606
605.104	6.52252
606.836	6.22034
608.57	4.1771
610.304	-0.981546
612.037	-1.06751
613.769	-0.591932
615.501	-0.0577527
617.234	-0.0395678
618.966	-1.37857
620.696	-0.954872
622.427	0.858427
624.159	2.23053
625.887	2.76792
627.618	4.82602
629.348	5.74775
631.076	8.12893
632.806	9.87122
634.535	11.1624
636.262	12.6573
637.99	13.1604
639.716	14.8522
641.444	15.0561
643.172	15.1869
644.897	15.7604
646.624	17.3414
648.348	18.0917
650.075	17.8529
651.801	17.8602
653.524	18.2963
655.249	17.936
656.972	17.6708
658.697	17.4371
660.419	17.1269
662.143	16.3601
663.865	16.4757
665.588	15.8491
667.309	14.5646
669.032	13.6407
670.752	14.522
672.474	12.1502
674.194	11.1621
675.915	11.7326
677.634	10.3487
679.355	9.03744
681.073	8.10009
682.793	7.77265
684.511	7.58747
686.23	5.9196
687.947	3.54635
689.664	1.69113
691.382	-0.0197104
693.098	-2.34248
694.816	-4.51597
696.531	-4.68948
698.247	1.34548
699.963	2.51675
701.678	1.94854
703.392	3.56932
705.108	4.46029
706.821	6.47187
708.534	7.03284
710.249	7.23726
711.962	6.59664
713.674	7.74371
715.388	8.34299
717.099	9.83618
718.81	9.58306
720.523	9.01459
722.234	10.0394
723.944	9.21168
725.654	9.9346
727.365	10.4522
729.075	12.1648
730.784	12.8972
732.492	13.7823
734.202	13.5332
735.91	14.7571
737.618	17.5084
739.325	19.1625
741.034	20.7506
742.741	22.3516
744.447	24.2887
746.153	25.6271
747.859	27.2489
749.564	28.8737
751.271	31.7883
752.976	34.2309
754.681	36.7346
756.385	38.3595
758.088	39.6332
759.792	40.9785
761.495	43.1044
763.2	43.5868
764.902	45.7711
766.604	48.3359
768.306	49.5088
770.008	50.4662
771.709	50.6777
773.41	51.5846
775.11	53.6627
776.811	54.2391
778.51	55.4898
780.21	56.3928
781.909	56.6902
783.608	56.3295
785.307	56.1439
787.005	56.9473
788.703	57.5215
790.401	57.5576
792.098	57.3771
793.795	56.1135
795.492	55.9281
797.188	56.6289
798.884	57.8537
800.58	59.3934
802.276	58.5893
803.971	58.4727
805.665	58.2468
807.36	58.7327
809.054	58.626
810.748	60.0165
812.441	60.1684
814.135	60.7029
815.826	61.6202
817.518	61.3134
819.21	62.4212
820.902	63.9646
822.594	64.8528
824.285	64.3291
825.976	64.5982
827.665	64.4305
829.355	64.4287
831.045	64.4988
832.735	65.0509
834.424	64.571
836.111	64.9653
837.8	64.148
839.488	63.434
841.177	61.9683
842.864	62.2851
844.55	60.5616
846.237	61.0197
847.924	60.5858
849.61	60.0018
851.295	57.877
852.98	56.3751
854.666	55.6031
856.349	54.8333
858.034	54.3529
859.719	53.131
861.403	51.0169
863.085	49.7417
864.769	49.397
866.452	48.8672
868.133	48.6939
869.816	49.2262
871.498	49.2001
873.179	47.0932
874.86	47.3367
876.54	45.5965
878.221	44.3498
879.902	44.9804
881.58	44.8792
883.26	45.2501
884.938	45.8115
886.618	45.1814
888.297	45.2623
889.974	44.7364
891.653	45.3432
893.329	44.7868
895.007	44.0038
896.683	43.6624
898.36	43.5687
900.035	42.7931
901.712	40.8849
903.387	40.4784
905.063	39.5673
906.737	38.1741
908.412	37.1111
910.085	35.6587
911.76	34.7139
913.433	35.1151
915.107	33.8139
916.779	32.4821
918.452	30.7376
920.124	29.9297
921.797	29.5612
923.467	29.3276
925.138	28.3783
926.81	28.3503
928.48	27.4891
930.151	26.7469
931.82	25.1622
933.489	24.4258
935.16	23.495
936.828	23.6849
938.496	23.2779
940.165	23.1306
941.833	21.3468
943.5	19.9718
945.168	18.0296
946.834	18.2709
948.5	19.0358
950.168	18.0535
951.834	17.3784
953.499	17.1553
955.163	16.8017
956.83	15.7055
958.494	16.6187
960.158	14.6661
961.821	14.93
963.487	16.1147
965.15	17.4463
966.812	18.4117
968.474	20.2266
970.138	21.8411
971.8	22.7023
973.461	23.5839
975.123	24.8952
976.783	26.3991
978.446	28.462
980.106	29.8291
981.766	30.9113
983.425	32.7675
985.084	34.0784
986.743	34.9722
988.402	37.4534
990.06	37.4852
991.72	37.5892
993.378	37.059
995.035	37.203
996.692	37.2309
998.349	36.9173
1000.01	37.4868
1001.66	37.4931
1003.32	38.8642
1004.97	39.0632
1006.63	38.8901
1008.28	39.5738
1009.94	40.8313
1011.59	42.3422
1013.25	43.6287
1014.9	44.6705
1016.55	47.0392
1018.21	47.9262
1019.86	49.1556
1021.51	50.6819
1023.16	51.3375
1024.81	52.0674
1026.47	54.5104
1028.12	57.3566
1029.77	60.8183
1031.42	63.3119
1033.07	65.554
1034.72	66.7912
1036.37	68.2272
1038.02	67.6894
1039.67	67.1833
1041.31	68.1163
1042.96	68.9309
1044.61	71.9688
1046.26	74.4566
1047.91	76.7511
1049.55	78.78
1051.2	81.7108
1052.84	83.1619
1054.49	84.5896
1056.14	85.7705
1057.78	87.0273
1059.43	87.6917
1061.07	87.9134
1062.72	87.7476
1064.36	87.9712
1066	87.7754
1067.65	86.8302
1069.29	85.1018
1070.93	83.8713
1072.58	80.5289
1074.22	78.063
1075.86	76.6607
1077.5	75.2406
1079.14	74.7586
1080.78	72.2295
1082.42	69.9866
1084.06	67.7083
1085.7	66.6108
1087.34	64.8617
1088.98	65.8149
1090.62	66.0723
1092.26	65.5519
1093.9	65.9366
1095.54	65.0889
1097.17	64.3834
1098.81	64.8895
1100.45	64.7915
1102.09	64.4521
1103.72	64.4247
1105.36	63.5674
1106.99	65.0877
1108.63	65.8254
1110.27	66.1001
1111.9	65.7748
1113.53	64.4978
1115.17	63.0455
1116.8	61.7114
1118.43	59.1447
1120.07	56.5338
1121.7	55.9963
1123.33	54.5249
1124.97	53.9552
1126.6	52.8008
1128.23	51.5735
1129.86	50.7531
1131.49	49.4408
1133.12	46.7153
1134.75	45.0319
1136.38	43.7598
1138.01	41.5576
1139.64	39.6032
1141.27	36.8171
1142.9	36.4279
1144.53	33.8194
1146.16	30.8367
1147.78	28.4877
1149.41	26.1113
1151.04	23.2716
1152.67	21.432
1154.29	19.3523
1155.92	16.0981
1157.54	14.1991
1159.17	11.1182
1160.8	8.42571
1162.42	4.69926
1164.05	2.77594
1165.67	0.66189
1167.29	0.1926
1168.92	-1.27162
1170.54	-0.762783
1172.16	-0.97457
1173.79	-0.897015
1175.41	0.0129996
1177.03	0.656905
1178.65	0.840165
1180.28	2.37995
1181.9	2.62124
1183.52	2.76642
1185.14	3.45395
1186.76	5.78666
1188.38	8.46673
1190	8.62086
1191.62	8.73255
1193.24	9.40406
1194.86	10.6191
1196.47	13.705
1198.09	15.4535
1199.71	16.1579
1201.33	19.0823
1202.95	22.0296
1204.56	25.6174
1206.18	30.509
1207.8	32.8953
1209.41	36.8299
1211.03	39.6856
1212.64	44.4955
1214.26	47.8159
1215.87	51.7399
1217.49	56.271
1219.1	59.8655
1220.71	63.4379
1222.33	66.8717
1223.94	71.5799
1225.55	74.2538
1227.16	77.4412
1228.78	80.707
1230.39	83.8192
1232	86.8391
1233.61	90.0901
1235.22	91.4333
1236.83	93.33
1238.44	95.3022
1240.05	96.6787
1241.66	99.4277
1243.27	101.046
1244.88	102.962
1246.49	105.108
1248.1	107.953
1249.71	108.899
1251.32	112.712
1252.92	114.358
1254.53	114.413
1256.14	115.299
1257.74	116.374
1259.35	117.379
1260.96	119.607
1262.56	121.39
1264.17	124.039
1265.77	125.41
1267.38	129.203
1268.98	130.251
1270.59	133.645
1272.19	137.571
1273.79	141.818
1275.4	145.958
1277	148.463
1278.6	151.834
1280.21	154.791
1281.81	160.143
1283.41	163.926
1285.01	168.09
1286.61	171.335
1288.21	174.438
1289.81	178.998
1291.41	183.456
1293.01	187.603
1294.61	189.783
1296.21	192.57
1297.81	195.566
1299.41	196.933
1301.01	198.472
1302.6	201.513
1304.2	202.777
1305.8	205.107
1307.4	206.25
1308.99	208.14
1310.59	210.04
1312.19	210.493
1313.78	210.143
1315.38	209.868
1316.97	209.399
1318.57	208.219
1320.16	207.571
1321.76	205.061
1323.35	202.463
1324.94	200.481
1326.54	198.242
1328.13	196.18
1329.72	193.224
1331.32	191.029
1332.91	187.507
1334.5	183.931
1336.09	181.866
1337.68	180.26
1339.27	177.739
1340.87	175.928
1342.45	174.66
1344.04	172.512
1345.64	170.314
1347.22	169.233
1348.81	165.823
1350.4	164.882
1351.99	162.395
1353.58	160.735
1355.17	159.349
1356.75	157.813
1358.34	157.226
1359.93	154.707
1361.51	154.078
1363.1	151.737
1364.69	150.564
1366.27	149.787
1367.86	149.765
1369.44	148.799
1371.03	147.988
1372.61	147.173
1374.2	145.849
1375.78	145.516
1377.37	145.819
1378.95	146.816
1380.53	148.456
1382.11	149.051
1383.7	149.879
1385.28	151.127
1386.86	151.618
1388.44	152.146
1390.02	151.834
1391.6	151.021
1393.19	150.534
1394.77	148.993
1396.35	147.417
1397.93	147.671
1399.51	145.902
1401.08	145.903
1402.66	148.464
1404.24	150.262
1405.82	153.055
1407.4	156.687
1408.97	160.491
1410.55	165.759
1412.13	171.486
1413.71	176.903
1415.28	183.994
1416.86	191.827
1418.43	198.815
1420.01	208.278
1421.59	216.884
1423.16	224.938
1424.73	234.715
1426.31	243.614
1427.88	252.454
1429.46	263.047
1431.03	272.296
1432.6	281.538
1434.18	288.54
1435.75	295.922
1437.32	303.001
1438.89	308.725
1440.46	315.241
1442.04	320.877
1443.61	326.431
1445.18	330.614
1446.75	332.809
1448.32	333.86
1449.89	335.79
1451.46	335.789
1453.03	333.503
1454.6	331.884
1456.16	327.831
1457.73	322.59
1459.3	316.597
1460.87	309.106
1462.44	302.01
1464	292.704
1465.57	282.165
1467.14	270.931
1468.7	259.529
1470.27	247.968
1471.83	235.029
1473.4	222.601
1474.96	211.454
1476.53	200.93
1478.09	189.588
1479.66	179.92
1481.22	169.273
1482.78	159.109
1484.35	149.61
1485.91	140.267
1487.47	132.611
1489.04	125.006
1490.6	116.538
1492.16	109.23
1493.72	102.399
1495.28	96.1041
1496.84	90.1443
1498.4	84.7024
1499.96	79.208
1501.52	75.1095
1503.08	72.7192
1504.64	68.9313
1506.2	66.1503
1507.76	63.1558
1509.32	60.4493
1510.88	58.1198
1512.44	56.1483
1513.99	55.3539
1515.55	53.8891
1517.11	52.7544
1518.66	52.7154
1520.22	52.0284
1521.78	50.959
1523.33	49.3744
1524.89	49.3534
1526.44	49.667
1528	49.2559
1529.55	48.837
1531.11	48.7053
1532.66	49.6342
1534.21	50.3058
1535.77	50.9918
1537.32	52.9855
1538.87	54.3678
1540.43	55.7631
1541.98	56.9912
1543.53	58.2358
1545.08	60.3979
1546.63	61.6694
1548.18	62.7383
1549.74	62.7626
1551.29	65.6929
1552.84	67.6188
1554.39	69.5608
1555.94	70.9054
1557.48	72.2043
1559.03	73.8714
1560.58	75.6933
1562.13	76.5354
1563.68	79.0274
1565.23	82.0716
1566.78	83.4869
1568.32	85.7219
1569.87	88.1801
1571.42	90.0192
1572.96	92.7006
1574.51	95.4729
1576.05	99.3012
1577.6	102.772
1579.14	106.651
1580.69	109.767
1582.24	113.138
1583.78	116.141
1585.32	118.029
1586.87	121.592
1588.41	122.868
1589.95	125.394
1591.5	126.648
1593.04	128.099
1594.58	129.948
1596.12	131.175
1597.67	132.51
1599.21	133.335
1600.75	134.404
1602.29	135.594
1603.83	136.137
1605.37	135.991
1606.91	137.524
1608.45	137.511
1609.99	138.302
1611.53	139.004
1613.07	137.857
1614.6	138.052
1616.14	137.786
1617.68	137.839
1619.22	138.31
1620.75	137.22
1622.29	137.246
1623.83	137.214
1625.37	138.675
1626.9	139.73
1628.44	141.183
1629.97	142.895
1631.51	144.01
1633.04	145.056
1634.58	146.717
1636.11	147.544
1637.65	149.806
1639.18	151.672
1640.72	155.042
1642.25	157.67
1643.78	160.552
1645.31	164.098
1646.85	165.556
1648.38	167.899
1649.91	169.52
1651.44	172.272
1652.97	173.918
1654.5	174.337
1656.03	176.083
1657.56	175.298
1659.1	175.356
1660.62	174.546
1662.15	172.624
1663.68	170.989
1665.21	167.575
1666.74	165.67
1668.27	162.077
1669.8	159.203
1671.32	155.919
1672.85	151.71
1674.38	147.795
1675.91	142.893
1677.43	138.726
1678.96	132.432
1680.49	127.781
1682.01	123.191
1683.54	118.479
1685.06	112.344
1686.59	107.387
1688.11	102.122
1689.64	96.8764
1691.16	93.312
1692.68	89.1122
1694.21	84.6021
1695.73	79.6642
1697.25	75.1087
1698.78	72.9841
1700.3	69.3935
1701.82	66.0775
1703.34	62.1699
1704.86	59.4333
1706.39	57.6151
1707.91	53.8352
1709.43	50.9659
1710.95	49.2502
1712.47	47.4001
1713.99	46.1014
1715.51	44.8402
1717.02	44.1322
1718.54	42.5045
1720.06	41.0292
1721.58	39.3007
1723.1	37.603
1724.62	37.529
1726.13	36.5541
1727.65	36.3486
1729.17	34.5192
1730.68	33.6549
1732.2	31.8119
1733.72	30.1635
1735.23	29.766
1736.75	29.3103
1738.26	27.3913
1739.78	26.2664
1741.29	25.6552
1742.81	25.1812
1744.32	24.4005
1745.84	24.2555
1747.35	23.4901
1748.86	22.1595
1750.37	21.173
1751.89	19.9516
1753.4	19.0373
1754.91	17.8817
1756.42	18.8295
1757.93	17.9054
1759.45	16.1712
1760.96	15.3988
1762.47	15.4728
1763.98	15.2832
1765.49	14.8531
1767	13.7474
1768.51	12.6898
1770.02	11.9435
1771.53	11.3331
1773.03	11.0851
1774.54	10.422
1776.05	8.43395
1777.56	7.56704
1779.07	6.84557
1780.57	6.18764
1782.08	5.48523
1783.59	4.38537
1785.09	3.96771
1786.6	3.82622
1788.11	4.17019
1789.61	3.83213
1791.12	4.30342
1792.62	3.26972
1794.13	2.79718
1795.63	2.88974
1797.13	3.66303
1798.64	3.36487
1800.14	3.48487
1801.65	2.74405
1803.15	2.88045
1804.65	2.46868
1806.15	2.81276
1807.66	2.55803
1809.16	2.77512
1810.66	2.98371
1812.16	3.71073
1813.66	3.2584
1815.16	3.64349
1816.66	4.4396
1818.16	3.99132
1819.66	3.72148
1821.16	3.78862
1822.66	2.60374
1824.16	1.73724
1825.66	1.64702
1827.16	1.4373
1828.66	0.949421
1830.16	1.39297
1831.65	1.63391
1833.15	1.39767
1834.65	1.2668
1836.14	2.18175
1837.64	1.84695
1839.14	1.13603
1840.63	1.18241
1842.13	1.34322
1843.62	1.69065
1845.12	0.896073
1846.61	-0.00904757
1848.11	-0.547865
1849.6	-0.947074
1851.1	-1.45164
1852.59	-0.902977
1854.08	-0.719622
1855.58	-0.653083
1857.07	0.130469
1858.56	0.766223
1860.05	1.61484
1861.55	2.13652
1863.04	3.27077
1864.53	2.18239
1866.02	2.03067
1867.51	2.21005
1869	3.11616
1870.49	3.81761
1871.98	3.69524
1873.47	3.98785
1874.96	3.812
1876.45	3.49528
1877.94	4.59462
1879.43	4.58946
1880.92	5.20025
1882.41	5.23637
1882.51	6.02543
1884	7.27372
1885.5	7.66335
1886.99	8.4636
1888.48	9.48292
1889.98	10.6571
1891.47	10.4376
1892.96	10.8826
1894.46	10.8254
1895.95	11.3124
1897.44	12.1245
1898.93	12.3916
1900.42	13.4284
1901.91	14.5066
1903.41	15.5433
1904.9	15.3766
1906.39	15.0189
1907.88	14.7911
1909.37	14.6769
1910.86	13.9625
1912.35	13.748
1913.83	14.4495
1915.32	14.2541
1916.81	13.5192
1918.3	12.7146
1919.79	12.5365
1921.27	12.9384
1922.76	12.8968
1924.25	12.4298
1925.74	12.805
1927.22	12.1143
1928.71	11.4466
1930.19	10.984
1931.68	10.0374
1933.17	8.93012
1934.65	7.68381
1936.14	6.75166
1937.62	5.39391
1939.11	5.14108
1940.59	4.62389
1942.07	4.29791
1943.56	3.19574
1945.04	2.38456
1946.52	2.63376
1948.01	1.74683
1949.49	2.2189
1950.97	2.67856
1952.45	3.03909
1953.93	3.62605
1955.42	2.80572
1956.9	3.50724
1958.38	2.92709
1959.86	2.90267
1961.34	3.90578
1962.82	4.98511
1964.3	5.49386
1965.78	5.21652
1967.26	5.66055
1968.74	6.30584
1970.21	6.93432
1971.69	7.09928
1973.17	7.37719
1974.65	7.27747
1976.13	7.46022
1977.6	6.963
1979.08	6.35956
1980.56	6.59029
1982.03	6.08349
1983.51	5.38737
1984.99	6.08607
1986.46	6.91249
1987.94	8.22912
1989.41	7.7098
1990.89	7.38365
1992.36	7.73605
1993.84	7.80053
1995.31	8.11397
1996.78	7.37529
1998.26	7.53672
1999.73	7.03364
2001.2	6.11397
2002.68	6.95504
2004.15	7.24338
2005.62	6.79053
2007.09	6.95931
2008.56	6.92956
2010.04	7.38701
2011.51	7.53401
2012.98	7.38503
2014.45	7.2477
2015.92	7.1403
2017.39	6.9409
2018.86	6.77098
2020.33	6.54907
2021.8	6.14296
2023.26	5.85388
2024.73	5.65308
2026.2	6.03164
2027.67	5.57235
2029.14	5.65447
2030.61	6.179
2032.07	6.79937
2033.54	7.15283
2035.01	7.81511
2036.47	8.48261
2037.94	8.36771
2039.4	8.46327
2040.87	8.30602
2042.33	8.56019
2043.8	7.55454
2045.27	8.14151
2046.73	8.22376
2048.19	8.28705
2049.66	8.78587
2051.12	8.63239
2052.59	8.43465
2054.05	8.73663
2055.51	8.97064
2056.97	10.3013
2058.44	11.7974
2059.9	12.3718
2061.36	12.6519
2062.82	12.1275
2064.28	11.9696
2065.74	12.0261
2067.21	12.4429
2068.67	12.2671
2070.13	12.7807
2071.59	13.6834
2073.05	13.4234
2074.51	14.5152
2075.96	15.7698
2077.42	15.1933
2078.88	15.0922
2080.34	15.793
2081.8	15.3548
2083.26	16.2573
2084.72	16.1748
2086.17	16.3198
2087.63	16.2888
2089.09	16.3636
2090.54	16.3733
2092	15.5568
2093.45	15.7069
2094.91	16.426
2096.37	16.5767
2097.82	16.5886
2099.28	17.1329
2100.73	16.5774
2102.19	17.005
2103.64	17.1185
2105.09	18.0794
2106.55	18.4303
2108	19.9292
2109.45	20.9129
2110.91	20.9896
2112.36	21.7529
2113.81	22.0085
2115.26	23.8211
2116.72	25.0986
2118.17	27.268
2119.62	28.751
2121.07	29.4808
2122.52	30.3335
