#Acq. time (s)=	45
#Accumulations=	2
#Range (cm-¹)=	200...3150
#Windows=	2
#Auto scanning=	Off
#Autofocus=	Off
#Macrospot=	Off
#AutoExposure=	Off
#Spike filter=	Multiple accum.
#Delay time (s)=	0
#Binning=	1
#Readout mode=	Signal
#DeNoise=	Off
#ICS correction=	On
#Dark correction=	Off
#Inst. Process=	Off
#Detector Gain=	Best Dynamic Range
#Detector ADC=	20 kHz       
#Detector temperature (°C)=	-69.85
#Instrument=	LabRAM HR Evol
#Detector=	Synapse
#Objective=	x100
#Grating=	600 gr/mm
#ND Filter=	100%
#Laser (nm)=	532 
#Hole=	100.021
#Range=	Auto
#Laser Pol.=	No
#Raman. Pol.=	No
#Laser Pol. (°)=	-0.0007625
#Raman Pol. (°)=	89.9995
#Collection=	Microscope
#StageXY=	Marzhauser
#StageZ=	Marzhauser
#X (µm)=	-7071.6
#Y (µm)=	2195.3
#Z (µm)=	-74.4
#Full time(mm:ss)=	2:51
#Project=	
#Sample=	
#Site=	
#Title=	Mb_20_23_41_2x_45s_532 nm_x100_100%_600 gr_mm
#Remark=	
#Date=	13.07.2022 16:48
#Acquired=	13.07.2022 16:48:43
#Base:Fit=	10.08.2022 10:29:37
#Base:Sub=	10.08.2022 10:35:48
#Filter:Polynom=	16.08.2022 10:13:29
#AxisType[0]=Intens
#AxisUnit[0]=Cnt
#AxisType[1]=Spectr
#AxisUnit[1]=1/cm
200.563	344.216
202.377	327.241
204.194	309.096
206.008	295.416
207.821	282.385
209.634	270.008
211.449	257.958
213.262	248.99
215.074	238.257
216.885	230.764
218.699	217.399
220.51	207.718
222.321	195.528
224.131	188.207
225.941	179.191
227.751	169.711
229.562	159.514
231.371	152.419
233.18	140.597
234.988	133.455
236.796	128.077
238.603	120.976
240.411	114.57
242.219	108.248
244.026	99.3311
245.832	92.6541
247.638	84.2115
249.443	78.4603
251.248	71.9041
253.053	67.0501
254.857	59.0074
256.661	55.2913
258.465	53.5157
260.268	49.5324
262.071	43.9413
263.874	40.1625
265.678	39.0794
267.48	32.7534
269.282	29.9707
271.083	25.8155
272.884	23.9136
274.684	18.3841
276.484	15.582
278.284	13.6829
280.084	10.5991
281.883	7.05521
283.682	3.56523
285.48	6.91369
287.276	8.36024
289.074	9.13822
290.871	7.66019
292.668	7.66557
294.465	9.58557
296.261	9.20269
298.057	10.6382
299.853	11.9661
301.648	11.7193
303.443	13.8469
305.237	13.1812
307.032	15.2547
308.823	14.9797
310.617	15.845
312.41	15.992
314.203	17.7638
315.995	17.8807
317.788	20.1098
319.579	21.7595
321.369	20.6554
323.16	20.6995
324.951	22.1057
326.741	22.4458
328.531	18.1248
330.321	18.2905
332.108	16.8952
333.897	14.638
335.686	14.9039
337.474	13.9963
339.26	13.2491
341.048	11.1322
342.835	10.8296
344.622	9.88075
346.406	11.2657
348.192	10.1828
349.978	8.43418
351.764	6.36532
353.547	6.48068
355.332	4.85204
357.116	3.30234
358.901	8.02734
360.682	6.52892
362.466	6.24143
364.249	3.2281
366.03	2.46314
367.812	0.347703
369.594	-1.74401
371.374	1.06627
373.155	3.48856
374.936	5.22355
376.715	7.09976
378.495	6.05531
380.273	7.19498
382.053	10.2338
383.832	10.6011
385.609	11.6847
387.388	12.1963
389.164	12.4954
390.942	14.21
392.72	16.6059
394.495	17.3936
396.272	19.5569
398.047	18.7049
399.823	20.9034
401.597	25.0758
403.372	26.987
405.145	30.886
406.92	31.8853
408.693	32.3704
410.467	30.7389
412.239	33.5767
414.012	33.2514
415.783	32.2907
417.556	30.1529
419.327	34.2687
421.099	32.7157
422.869	31.5583
424.64	32.3304
426.409	32.0109
428.18	31.6224
429.948	32.7815
431.718	33.9284
433.486	34.7283
435.253	35.9331
437.022	36.315
438.789	36.5854
440.558	37.0589
442.324	38.5884
444.089	39.0509
445.857	40.2152
447.622	42.0874
449.386	39.0799
451.153	38.2787
452.917	37.5723
454.682	39.0365
456.446	37.8213
458.208	39.1907
459.973	41.4465
461.735	40.0206
463.497	38.9006
465.259	42.406
467.022	38.5522
468.783	39.6358
470.544	39.2189
472.306	38.3697
474.066	38.7175
475.825	37.8433
477.585	38.828
479.346	39.1427
481.104	38.3311
482.862	39.1264
484.62	39.9441
486.38	39.5242
488.137	39.9784
489.894	38.1336
491.65	34.7458
493.407	33.5223
495.164	31.7845
496.92	31.0069
498.675	28.6185
500.43	29.5624
502.184	30.3036
503.939	31.0584
505.694	34.2735
507.448	36.0833
509.201	34.0813
510.954	35.4323
512.706	36.9295
514.459	39.3174
516.21	40.4948
517.962	39.1715
519.715	35.9707
521.466	36.1661
523.216	34.985
524.966	37.6865
526.716	36.1977
528.466	36.8807
530.215	35.3125
531.964	35.0873
533.712	35.2205
535.46	36.1097
537.208	35.8938
538.955	34.9574
540.703	32.1401
542.449	31.0258
544.196	27.7841
545.942	27.0731
547.688	23.9599
549.433	22.0147
551.178	20.018
552.923	20.7479
554.667	18.024
556.412	16.7599
558.155	12.6288
559.899	10.8037
561.642	8.77532
563.385	7.54911
565.127	5.70504
566.867	2.84131
568.609	1.82497
570.35	-2.2285
572.092	-3.19632
573.832	-3.72247
575.573	-4.61639
577.313	-2.81122
579.053	-4.0769
580.79	-1.54526
582.529	2.56153
584.268	5.23201
586.006	8.01358
587.745	12.1385
589.482	10.8162
591.218	10.8538
592.955	10.9611
594.692	10.8905
596.428	12.0638
598.164	14.6797
599.898	17.1537
601.634	21.5882
603.369	22.943
605.104	25.5226
606.836	29.1831
608.57	37.6025
610.304	41.9819
612.037	47.7065
613.769	47.5888
615.501	51.6353
617.234	55.5247
618.966	61.6305
620.696	63.2164
622.427	67.3551
624.159	68.4667
625.887	69.6451
627.618	71.5509
629.348	73.6237
631.076	74.3386
632.806	76.6984
634.535	77.9686
636.262	78.8741
637.99	81.2823
639.716	80.7901
641.444	81.5844
643.172	82.9183
644.897	80.7761
646.624	83.7657
648.348	83.9699
650.075	83.4377
651.801	85.6125
653.524	83.7924
655.249	84.2642
656.972	83.9165
658.697	84.9322
660.419	85.6346
662.143	85.1845
663.865	81.4106
665.588	78.3793
667.309	76.862
669.032	74.7982
670.752	71.854
672.474	67.555
674.194	64.5234
675.915	60.1288
677.634	60.4409
679.355	59.6308
681.073	57.018
682.793	54.706
684.511	54.5657
686.23	53.1237
687.947	51.4859
689.664	49.483
691.382	48.3749
693.098	45.8004
694.816	46.6744
696.531	46.5815
698.247	45.989
699.963	45.2241
701.678	43.5893
703.392	44.0159
705.108	45.066
706.821	42.2446
708.534	42.3609
710.249	40.0751
711.962	39.1184
713.674	36.2832
715.388	35.0642
717.099	36.2623
718.81	34.8991
720.523	32.3991
722.234	31.7346
723.944	34.2034
725.654	33.1129
727.365	38.225
729.075	37.9267
730.784	38.7515
732.492	40.9333
734.202	40.7832
735.91	41.6664
737.618	44.0648
739.325	41.2372
741.034	44.0768
742.741	45.7419
744.447	45.3387
746.153	46.5115
747.859	45.3013
749.564	44.1269
751.271	45.6581
752.976	47.5319
754.681	47.4964
756.385	50.1016
758.088	50.1994
759.792	51.3649
761.495	53.9378
763.2	56.7388
764.902	58.1407
766.604	59.1807
768.306	60.891
770.008	60.8192
771.709	60.3633
773.41	63.9104
775.11	64.4387
776.811	66.368
778.51	70.3437
780.21	73.8287
781.909	76.1296
783.608	76.8254
785.307	77.4902
787.005	75.0706
788.703	78.9027
790.401	76.3372
792.098	73.795
793.795	74.6139
795.492	70.2686
797.188	69.8873
798.884	70.0295
800.58	71.1632
802.276	70.5824
803.971	66.1874
805.665	64.7968
807.36	64.0216
809.054	63.5146
810.748	60.2876
812.441	60.1545
814.135	53.4913
815.826	50.6349
817.518	48.7512
819.21	45.4913
820.902	41.9899
822.594	37.5744
824.285	35.0161
825.976	35.6706
827.665	31.2997
829.355	27.1894
831.045	24.2864
832.735	22.3615
834.424	18.396
836.111	19.3317
837.8	20.0967
839.488	16.7428
841.177	17.8461
842.864	15.986
844.55	15.6509
846.237	16.3419
847.924	14.8952
849.61	11.5636
851.295	7.37309
852.98	6.61032
854.666	5.31892
856.349	7.19034
858.034	6.55762
859.719	4.67158
861.403	7.18974
863.085	8.39327
864.769	6.62069
866.452	8.45018
868.133	9.03249
869.816	7.89084
871.498	7.24578
873.179	10.7243
874.86	7.7222
876.54	9.03419
878.221	8.08791
879.902	8.78759
881.58	12.5983
883.26	11.2173
884.938	10.7524
886.618	5.31002
888.297	2.96493
889.974	3.26223
891.653	4.63634
893.329	3.8574
895.007	3.98932
896.683	3.91806
898.36	3.86313
900.035	3.07483
901.712	3.34922
903.387	2.3836
905.063	5.02378
906.737	5.94786
908.412	10.3001
910.085	12.0886
911.76	11.6733
913.433	15.0082
915.107	15.2387
916.779	18.2646
918.452	19.6097
920.124	23.8944
921.797	22.5915
923.467	21.53
925.138	22.701
926.81	23.7677
928.48	24.0823
930.151	25.9314
931.82	24.3223
933.489	24.1768
935.16	23.3422
936.828	28.316
938.496	29.773
940.165	31.6958
941.833	30.9262
943.5	33.1469
945.168	34.9353
946.834	36.6115
948.5	37.3712
950.168	41.6665
951.834	44.7457
953.499	48.6622
955.163	54.3119
956.83	55.9062
958.494	58.4339
960.158	62.745
961.821	67.7714
963.487	74.3772
965.15	76.3661
966.812	79.8763
968.474	86.9122
970.138	90.7097
971.8	100.591
973.461	107.77
975.123	115.737
976.783	123.237
978.446	132.817
980.106	142.161
981.766	146.725
983.425	151.954
985.084	162.123
986.743	170.465
988.402	176.38
990.06	180.947
991.72	188.329
993.378	193.989
995.035	199.567
996.692	204.831
998.349	207.48
1000.01	213.547
1001.66	218.432
1003.32	223.254
1004.97	227.981
1006.63	232.731
1008.28	239.298
1009.94	249.021
1011.59	255.421
1013.25	260.799
1014.9	264.746
1016.55	273.023
1018.21	280.535
1019.86	289.56
1021.51	294.208
1023.16	299.252
1024.81	303.602
1026.47	310.746
1028.12	318.418
1029.77	324.917
1031.42	333.571
1033.07	344.447
1034.72	352.77
1036.37	361.92
1038.02	372.802
1039.67	382.526
1041.31	394.016
1042.96	401.031
1044.61	413.741
1046.26	424.374
1047.91	434.562
1049.55	444.449
1051.2	453.581
1052.84	460.471
1054.49	471.126
1056.14	479.012
1057.78	487.031
1059.43	492.949
1061.07	499.619
1062.72	506.678
1064.36	511.773
1066	520.783
1067.65	526.537
1069.29	531.923
1070.93	537.203
1072.58	544.779
1074.22	554.043
1075.86	561.468
1077.5	567.625
1079.14	572.677
1080.78	578.134
1082.42	587.337
1084.06	595.262
1085.7	605.754
1087.34	615.736
1088.98	625.835
1090.62	638.22
1092.26	646.538
1093.9	650.881
1095.54	659.992
1097.17	669.356
1098.81	679.116
1100.45	685.625
1102.09	693.542
1103.72	699.294
1105.36	708.282
1106.99	719.709
1108.63	729.719
1110.27	737.749
1111.9	746.328
1113.53	757.954
1115.17	768.796
1116.8	779.092
1118.43	791.905
1120.07	804.432
1121.7	811.667
1123.33	821.415
1124.97	828.987
1126.6	837.688
1128.23	847.021
1129.86	857.004
1131.49	867.14
1133.12	876.861
1134.75	888.328
1136.38	902.355
1138.01	913.52
1139.64	926.981
1141.27	944.257
1142.9	960.303
1144.53	974.739
1146.16	985.708
1147.78	996.93
1149.41	1008.24
1151.04	1024.29
1152.67	1037.58
1154.29	1053.5
1155.92	1068.35
1157.54	1083.37
1159.17	1096.59
1160.8	1113.35
1162.42	1127.62
1164.05	1142.14
1165.67	1158.03
1167.29	1175.14
1168.92	1190.45
1170.54	1206.49
1172.16	1217.72
1173.79	1229.16
1175.41	1244.88
1177.03	1261.88
1178.65	1276.33
1180.28	1290.9
1181.9	1306.66
1183.52	1320.92
1185.14	1335.57
1186.76	1354.1
1188.38	1368.75
1190	1380.93
1191.62	1398.46
1193.24	1415.86
1194.86	1434.86
1196.47	1454.21
1198.09	1471.92
1199.71	1489.45
1201.33	1505.62
1202.95	1523.49
1204.56	1542.81
1206.18	1563
1207.8	1587.94
1209.41	1616.02
1211.03	1637.51
1212.64	1661.65
1214.26	1684.88
1215.87	1711.27
1217.49	1738
1219.1	1762.28
1220.71	1790.33
1222.33	1815.89
1223.94	1839.38
1225.55	1863.43
1227.16	1885.45
1228.78	1913.05
1230.39	1937.32
1232	1963.12
1233.61	1987.31
1235.22	2013.87
1236.83	2041.51
1238.44	2065.71
1240.05	2089.27
1241.66	2111.1
1243.27	2131.87
1244.88	2156.46
1246.49	2182.77
1248.1	2207.08
1249.71	2230.08
1251.32	2250.42
1252.92	2269.15
1254.53	2294.67
1256.14	2320.61
1257.74	2344.08
1259.35	2368.98
1260.96	2393.54
1262.56	2421.89
1264.17	2445.11
1265.77	2473.54
1267.38	2500.25
1268.98	2523.94
1270.59	2552.72
1272.19	2581.45
1273.79	2608.74
1275.4	2636.67
1277	2665.85
1278.6	2695.91
1280.21	2720.96
1281.81	2750.71
1283.41	2782.34
1285.01	2811.68
1286.61	2845.82
1288.21	2875.22
1289.81	2905.69
1291.41	2937.29
1293.01	2966.07
1294.61	2996.21
1296.21	3025.48
1297.81	3055.08
1299.41	3083.93
1301.01	3114.07
1302.6	3140.15
1304.2	3170.56
1305.8	3199.06
1307.4	3227.44
1308.99	3255.9
1310.59	3282.59
1312.19	3310.85
1313.78	3340.66
1315.38	3365.59
1316.97	3392.2
1318.57	3409.49
1320.16	3433.92
1321.76	3456.44
1323.35	3482.27
1324.94	3504.96
1326.54	3523.16
1328.13	3540.09
1329.72	3555.49
1331.32	3573.09
1332.91	3591.63
1334.5	3608.35
1336.09	3621.87
1337.68	3629.92
1339.27	3640.99
1340.87	3652.83
1342.45	3659.04
1344.04	3664.15
1345.64	3671.32
1347.22	3674.03
1348.81	3677.01
1350.4	3679.93
1351.99	3681.01
1353.58	3682.84
1355.17	3679.2
1356.75	3678.45
1358.34	3673.17
1359.93	3666.23
1361.51	3664.73
1363.1	3660.14
1364.69	3650.69
1366.27	3645.21
1367.86	3636.27
1369.44	3624.3
1371.03	3609.26
1372.61	3592.19
1374.2	3580.89
1375.78	3566.8
1377.37	3555.3
1378.95	3540.77
1380.53	3530.72
1382.11	3521.08
1383.7	3509.09
1385.28	3493.64
1386.86	3478.26
1388.44	3460.04
1390.02	3447.46
1391.6	3431.07
1393.19	3416.32
1394.77	3401.91
1396.35	3388.25
1397.93	3369.84
1399.51	3360.97
1401.08	3347.26
1402.66	3332.43
1404.24	3316.74
1405.82	3301.86
1407.4	3291.24
1408.97	3280.65
1410.55	3269.13
1412.13	3256.67
1413.71	3240.25
1415.28	3228.83
1416.86	3219.48
1418.43	3213.1
1420.01	3204.97
1421.59	3197.15
1423.16	3193.94
1424.73	3188.28
1426.31	3183.44
1427.88	3179.78
1429.46	3176.51
1431.03	3174.97
1432.6	3172.8
1434.18	3168.49
1435.75	3167.44
1437.32	3162.37
1438.89	3157.5
1440.46	3150.23
1442.04	3139.56
1443.61	3128.66
1445.18	3119.81
1446.75	3105.21
1448.32	3090.24
1449.89	3080.29
1451.46	3067.45
1453.03	3056.43
1454.6	3044.67
1456.16	3034.08
1457.73	3020
1459.3	3009.07
1460.87	2992.71
1462.44	2973.74
1464	2960.87
1465.57	2945.59
1467.14	2930.33
1468.7	2918.73
1470.27	2900.75
1471.83	2885.93
1473.4	2869.58
1474.96	2852.66
1476.53	2839.71
1478.09	2829.96
1479.66	2815.25
1481.22	2800.48
1482.78	2788.78
1484.35	2778.68
1485.91	2768.64
1487.47	2760.64
1489.04	2754.14
1490.6	2751.86
1492.16	2750.8
1493.72	2754.44
1495.28	2756.66
1496.84	2759.49
1498.4	2768.16
1499.96	2776.99
1501.52	2786.68
1503.08	2796.91
1504.64	2808.74
1506.2	2819.26
1507.76	2836.38
1509.32	2850.75
1510.88	2864.92
1512.44	2879.6
1513.99	2895.46
1515.55	2911.57
1517.11	2927.67
1518.66	2942.2
1520.22	2959.21
1521.78	2976.82
1523.33	2997.3
1524.89	3017.27
1526.44	3039.73
1528	3061.45
1529.55	3084.84
1531.11	3111.87
1532.66	3139.89
1534.21	3164.42
1535.77	3193.96
1537.32	3221.84
1538.87	3252.29
1540.43	3278.32
1541.98	3307.33
1543.53	3330.79
1545.08	3359.15
1546.63	3386.26
1548.18	3412.84
1549.74	3439.27
1551.29	3464.59
1552.84	3489.27
1554.39	3516.36
1555.94	3541.28
1557.48	3563.34
1559.03	3585.87
1560.58	3613.56
1562.13	3637.07
1563.68	3661.19
1565.23	3686.76
1566.78	3709.38
1568.32	3737.14
1569.87	3761.72
1571.42	3782.48
1572.96	3801.92
1574.51	3819.91
1576.05	3837.3
1577.6	3847.11
1579.14	3859.22
1580.69	3868.35
1582.24	3878.2
1583.78	3880.47
1585.32	3878.67
1586.87	3873.24
1588.41	3862.59
1589.95	3851.65
1591.5	3837.61
1593.04	3817.95
1594.58	3792.34
1596.12	3763.72
1597.67	3734.73
1599.21	3699.63
1600.75	3662.72
1602.29	3619.42
1603.83	3572.86
1605.37	3524.52
1606.91	3474.87
1608.45	3418.4
1609.99	3363.71
1611.53	3301.68
1613.07	3241.97
1614.6	3171.33
1616.14	3102.41
1617.68	3026.29
1619.22	2954.31
1620.75	2881.43
1622.29	2808.36
1623.83	2733.65
1625.37	2656.63
1626.9	2579.32
1628.44	2503.83
1629.97	2429.71
1631.51	2357.58
1633.04	2283.52
1634.58	2211.91
1636.11	2140.64
1637.65	2076.56
1639.18	2011
1640.72	1946.85
1642.25	1886.83
1643.78	1829.59
1645.31	1774.74
1646.85	1717.81
1648.38	1660.69
1649.91	1610.09
1651.44	1559.29
1652.97	1510.57
1654.5	1463.17
1656.03	1421.96
1657.56	1379.87
1659.1	1337.03
1660.62	1291.84
1662.15	1250.05
1663.68	1215.73
1665.21	1179.32
1666.74	1150.39
1668.27	1115.7
1669.8	1081.7
1671.32	1047.62
1672.85	1014.53
1674.38	985.33
1675.91	955.334
1677.43	923.804
1678.96	894.282
1680.49	866.593
1682.01	838.963
1683.54	813.777
1685.06	785.647
1686.59	761.876
1688.11	735.746
1689.64	711.923
1691.16	686.005
1692.68	662.348
1694.21	639.13
1695.73	619.674
1697.25	599.666
1698.78	578.974
1700.3	557.737
1701.82	535.816
1703.34	517.384
1704.86	499.477
1706.39	483.079
1707.91	465.352
1709.43	450.072
1710.95	433.218
1712.47	415.668
1713.99	401.916
1715.51	388.033
1717.02	372.062
1718.54	361.949
1720.06	348.352
1721.58	333.605
1723.1	322.667
1724.62	308.927
1726.13	298.857
1727.65	285.483
1729.17	276.417
1730.68	267.638
1732.2	257.641
1733.72	244.862
1735.23	236.519
1736.75	229.195
1738.26	220.373
1739.78	216.492
1741.29	209.839
1742.81	202.229
1744.32	192.261
1745.84	187.822
1747.35	180.716
1748.86	175.525
1750.37	172.694
1751.89	164.553
1753.4	157.452
1754.91	153.079
1756.42	149.465
1757.93	143.515
1759.45	139.341
1760.96	134.796
1762.47	132.758
1763.98	127.622
1765.49	120.993
1767	115.41
1768.51	112.94
1770.02	110.069
1771.53	106.308
1773.03	101.068
1774.54	97.3864
1776.05	93.5543
1777.56	90.4736
1779.07	87.5277
1780.57	82.8481
1782.08	80.853
1783.59	77.3829
1785.09	74.5715
1786.6	70.523
1788.11	69.3136
1789.61	70.8861
1791.12	69.6538
1792.62	66.722
1794.13	65.7508
1795.63	60.9562
1797.13	58.609
1798.64	56.793
1800.14	52.1675
1801.65	51.5206
1803.15	52.075
1804.65	51.5361
1806.15	47.5538
1807.66	44.2863
1809.16	43.5443
1810.66	45.5702
1812.16	42.7268
1813.66	40.0771
1815.16	41.8183
1816.66	41.2805
1818.16	40.9924
1819.66	40.975
1821.16	41.8546
1822.66	40.2027
1824.16	41.4144
1825.66	39.0577
1827.16	37.2944
1828.66	37.0269
1830.16	36.3815
1831.65	35.7057
1833.15	33.3065
1834.65	33.9487
1836.14	33.2067
1837.64	31.3509
1839.14	27.8901
1840.63	28.5026
1842.13	28.6537
1843.62	29.1126
1845.12	26.5266
1846.61	23.7174
1848.11	20.8628
1849.6	17.8521
1851.1	14.0449
1852.59	10.9451
1854.08	7.73468
1855.58	8.53119
1857.07	9.90778
1858.56	9.40585
1860.05	8.96622
1861.55	8.03467
1863.04	9.83443
1864.53	9.29963
1866.02	9.07747
1867.51	7.92029
1869	5.81259
1870.49	4.53373
1871.98	5.92159
1873.47	6.96486
1874.96	6.46842
1876.45	9.85996
1877.94	10.0524
1879.43	9.04482
1880.92	9.02397
1882.41	10.5677
1882.51	11.9624
1884	12.6705
1885.5	12.5194
1886.99	14.4814
1888.48	17.1751
1889.98	17.5689
1891.47	19.665
1892.96	19.0498
1894.46	22.3861
1895.95	22.8145
1897.44	24.3562
1898.93	24.9652
1900.42	28.5354
1901.91	28.6124
1903.41	29.6551
1904.9	31.0248
1906.39	32.5227
1907.88	35.0797
1909.37	34.45
1910.86	35.4922
1912.35	36.691
1913.83	38.073
1915.32	37.6211
1916.81	38.6642
1918.3	35.663
1919.79	33.0633
1921.27	32.0727
1922.76	32.5738
1924.25	32.5467
1925.74	33.5064
1927.22	33.1429
1928.71	36.7123
1930.19	36.9183
1931.68	38.2065
1933.17	37.4045
1934.65	36.4757
1936.14	37.5209
1937.62	38.3448
1939.11	39.8445
1940.59	38.8487
1942.07	41.6914
1943.56	43.9624
1945.04	43.7965
1946.52	44.7634
1948.01	43.9061
1949.49	46.0841
1950.97	44.3839
1952.45	45.3698
1953.93	44.3199
1955.42	44.8292
1956.9	44.9954
1958.38	44.3227
1959.86	45.8165
1961.34	45.5318
1962.82	45.8447
1964.3	44.9286
1965.78	45.2625
1967.26	44.2032
1968.74	46.4595
1970.21	46.1958
1971.69	46.2031
1973.17	45.9636
1974.65	44.5808
1976.13	43.7398
1977.6	45.2161
1979.08	46.1651
1980.56	45.4063
1982.03	44.9833
1983.51	43.7035
1984.99	43.9846
1986.46	45.6168
1987.94	43.9394
1989.41	44.408
1990.89	43.0636
1992.36	41.6376
1993.84	43.4998
1995.31	45.5355
1996.78	45.0804
1998.26	44.4955
1999.73	44.8213
2001.2	45.3117
2002.68	47.7088
2004.15	48.7486
2005.62	49.1977
2007.09	49.1304
2008.56	49.3542
2010.04	52.6769
2011.51	53.932
2012.98	54.0854
2014.45	56.7327
2015.92	58.9329
2017.39	58.1451
2018.86	57.6957
2020.33	58.6314
2021.8	58.9307
2023.26	59.9098
2024.73	58.3393
2026.2	60.0267
2027.67	61.4305
2029.14	61.2877
2030.61	60.4732
2032.07	59.4587
2033.54	59.5032
2035.01	56.6959
2036.47	55.3833
2037.94	54.673
2039.4	55.3763
2040.87	55.5824
2042.33	55.2699
2043.8	53.6637
2045.27	54.1788
2046.73	55.5695
2048.19	56.1004
2049.66	56.9227
2051.12	57.447
2052.59	58.3949
2054.05	58.3074
2055.51	59.9288
2056.97	62.0384
2058.44	62.1533
2059.9	63.3197
2061.36	63.4916
2062.82	67.4354
2064.28	68.8488
2065.74	71.8873
2067.21	72.2367
2068.67	73.5281
2070.13	73.2496
2071.59	74.0364
2073.05	74.3854
2074.51	75.398
2075.96	76.741
2077.42	78.3858
2078.88	77.2638
2080.34	79.0509
2081.8	80.4388
2083.26	83.1221
2084.72	83.034
2086.17	84.5299
2087.63	85.0319
2089.09	82.9182
2090.54	81.8787
2092	80.2838
2093.45	82.0721
2094.91	82.9929
2096.37	82.0584
2097.82	82.7781
2099.28	82.904
2100.73	83.5509
2102.19	80.9982
2103.64	80.3145
2105.09	81.4037
2106.55	81.3627
2108	80.0627
2109.45	79.6089
2110.91	80.5343
2112.36	78.4469
2113.81	78.6362
2115.26	80.4351
2116.72	81.3951
2118.17	83.6469
2119.62	84.1456
2121.07	83.7411
2122.52	84.8694
2123.97	87.6959
2125.42	91.1115
2126.87	91.2047
2128.32	92.3568
2129.77	94.5524
2131.22	94.2945
2132.67	98.5118
2134.11	101.009
2135.56	103.252
