#Acq. time (s)=	45
#Accumulations=	2
#Range (cm-¹)=	200...3150
#Windows=	2
#Auto scanning=	Off
#Autofocus=	Off
#Macrospot=	Off
#AutoExposure=	Off
#Spike filter=	Multiple accum.
#Delay time (s)=	0
#Binning=	1
#Readout mode=	Signal
#DeNoise=	Off
#ICS correction=	On
#Dark correction=	Off
#Inst. Process=	Off
#Detector Gain=	Best Dynamic Range
#Detector ADC=	20 kHz       
#Detector temperature (°C)=	-69.85
#Instrument=	LabRAM HR Evol
#Detector=	Synapse
#Objective=	x100
#Grating=	600 gr/mm
#ND Filter=	100%
#Laser (nm)=	532 
#Hole=	100.021
#Range=	Auto
#Laser Pol.=	No
#Raman. Pol.=	No
#Laser Pol. (°)=	-0.0007625
#Raman Pol. (°)=	89.9995
#Collection=	Microscope
#StageXY=	Marzhauser
#StageZ=	Marzhauser
#X (µm)=	-6969.1
#Y (µm)=	2051
#Z (µm)=	-75.05
#Full time(mm:ss)=	3:19
#Project=	
#Sample=	
#Site=	
#Title=	Mb_20_23_22_2x_45s_532 nm_x100_100%_600 gr_mm
#Remark=	
#Date=	13.07.2022 14:54
#Acquired=	13.07.2022 14:54:48
#Base:Fit=	10.08.2022 10:29:37
#Base:Sub=	10.08.2022 10:33:46
#Filter:Polynom=	16.08.2022 10:13:29
#AxisType[0]=Intens
#AxisUnit[0]=Cnt
#AxisType[1]=Spectr
#AxisUnit[1]=1/cm
200.563	39.438
202.377	41.9097
204.194	39.5766
206.008	38.666
207.821	37.9323
209.634	37.6071
211.449	37.4959
213.262	36.8897
215.074	37.9614
216.885	36.4976
218.699	37.0647
220.51	36.6703
222.321	35.8215
224.131	34.2863
225.941	34.5636
227.751	34.414
229.562	33.6446
231.371	33.3033
233.18	33.3968
234.988	32.5037
236.796	31.1755
238.603	29.7321
240.411	29.154
242.219	27.257
244.026	27.6185
245.832	26.3989
247.638	25.9154
249.443	24.6156
251.248	23.923
253.053	22.843
254.857	23.3757
256.661	23.6861
258.465	22.6348
260.268	21.862
262.071	19.897
263.874	16.5184
265.678	15.1561
267.48	13.5649
269.282	11.7
271.083	10.4016
272.884	9.09342
274.684	8.62333
276.484	8.63405
278.284	7.96242
280.084	7.54506
281.883	7.39764
283.682	5.75975
285.48	3.86262
287.276	4.36979
289.074	4.29227
290.871	4.20753
292.668	2.94623
294.465	4.48406
296.261	4.99741
298.057	7.1378
299.853	8.74119
301.648	8.20178
303.443	9.27009
305.237	10.1846
307.032	9.70847
308.823	12.0928
310.617	12.8175
312.41	13.5206
314.203	15.0192
315.995	16.6998
317.788	17.3773
319.579	18.4359
321.369	19.462
323.16	21.3443
324.951	22.062
326.741	22.8257
328.531	23.6775
330.321	25.275
332.108	24.4703
333.897	26.4341
335.686	26.1815
337.474	27.4908
339.26	27.8741
341.048	29.414
342.835	28.8686
344.622	28.8655
346.406	26.5228
348.192	25.7997
349.978	24.8617
351.764	24.2961
353.547	22.5629
355.332	23.2648
357.116	22.4785
358.901	20.9097
360.682	20.0834
362.466	18.9054
364.249	17.9953
366.03	17.0933
367.812	16.0747
369.594	14.0802
371.374	12.871
373.155	12.1239
374.936	12.715
376.715	11.972
378.495	11.3027
380.273	9.9971
382.053	12.2551
383.832	13.0567
385.609	14.551
387.388	14.1494
389.164	12.8027
390.942	11.2209
392.72	11.628
394.495	10.9693
396.272	11.402
398.047	11.6004
399.823	10.8726
401.597	9.98218
403.372	11.4001
405.145	11.6764
406.92	11.5214
408.693	12.4446
410.467	12.7281
412.239	14.6503
414.012	13.6319
415.783	12.8089
417.556	12.2533
419.327	12.1076
421.099	11.35
422.869	13.624
424.64	13.8568
426.409	14.5945
428.18	14.3984
429.948	13.5521
431.718	12.6064
433.486	12.0374
435.253	12.248
437.022	13.4136
438.789	12.8933
440.558	12.7771
442.324	12.8722
444.089	14.2403
445.857	13.1876
447.622	12.6488
449.386	13.6001
451.153	13.3069
452.917	13.724
454.682	13.1338
456.446	13.4894
458.208	13.9906
459.973	15.0836
461.735	17.064
463.497	18.0973
465.259	18.8687
467.022	19.4483
468.783	20.0273
470.544	21.6588
472.306	20.8867
474.066	21.8571
475.825	21.6172
477.585	21.8464
479.346	22.4746
481.104	23.8636
482.862	24.684
484.62	24.7677
486.38	25.8639
488.137	28.0343
489.894	29.253
491.65	30.9445
493.407	30.3248
495.164	31.2899
496.92	33.8623
498.675	33.8976
500.43	34.8376
502.184	34.7681
503.939	36.4772
505.694	36.8881
507.448	38.2179
509.201	38.8799
510.954	40.6469
512.706	42.2482
514.459	42.7024
516.21	42.0029
517.962	41.2043
519.715	41.3748
521.466	41.6908
523.216	42.7399
524.966	42.3521
526.716	42.553
528.466	41.7679
530.215	41.7968
531.964	40.3326
533.712	37.6513
535.46	37.2821
537.208	36.9366
538.955	35.3157
540.703	34.406
542.449	34.1018
544.196	34.1427
545.942	34.556
547.688	32.377
549.433	31.1219
551.178	28.3881
552.923	24.9244
554.667	23.945
556.412	24.008
558.155	23.09
559.899	21.6029
561.642	20.7218
563.385	19.3924
565.127	19.6601
566.867	18.502
568.609	17.9194
570.35	16.6057
572.092	16.74
573.832	16.3254
575.573	15.3185
577.313	13.2436
579.053	12.2231
580.79	12.1343
582.529	12.6714
584.268	12.2687
586.006	11.4866
587.745	11.263
589.482	10.8301
591.218	9.22202
592.955	7.32234
594.692	7.14122
596.428	8.01949
598.164	8.00517
599.898	6.9458
601.634	4.82819
603.369	4.41148
605.104	4.43788
606.836	5.61534
608.57	6.20584
610.304	4.74697
612.037	3.33417
613.769	3.02835
615.501	2.34363
617.234	2.39868
618.966	1.49565
620.696	0.718206
622.427	1.61532
624.159	0.808928
625.887	-0.000421072
627.618	1.29781
629.348	1.8284
631.076	1.29783
632.806	1.48571
634.535	0.637492
636.262	1.84618
637.99	1.3549
639.716	1.16544
641.444	2.9987
643.172	2.30532
644.897	2.52934
646.624	3.14867
648.348	4.5582
650.075	6.75829
651.801	7.50982
653.524	6.22004
655.249	8.00805
656.972	8.45946
658.697	9.66227
660.419	9.43755
662.143	10.9159
663.865	10.9983
665.588	11.2906
667.309	12.572
669.032	12.8859
670.752	13.2989
672.474	13.1062
674.194	12.3107
675.915	12.8984
677.634	11.6654
679.355	12.2289
681.073	12.1227
682.793	12.3444
684.511	11.2049
686.23	12.2948
687.947	12.5607
689.664	13.1844
691.382	13.2859
693.098	12.5672
694.816	12.0366
696.531	9.99461
698.247	10.2886
699.963	8.83087
701.678	8.52731
703.392	7.51815
705.108	7.70241
706.821	8.04647
708.534	8.34364
710.249	8.87359
711.962	10.0377
713.674	10.8728
715.388	11.1812
717.099	11.3546
718.81	10.3807
720.523	9.59875
722.234	8.59315
723.944	7.50449
725.654	6.87861
727.365	8.47195
729.075	7.69604
730.784	8.3971
732.492	9.16076
734.202	10.1555
735.91	12.0463
737.618	12.2956
739.325	14.5768
741.034	16.4674
742.741	19.3321
744.447	20.2933
746.153	21.9523
747.859	23.8719
749.564	24.9221
751.271	27.7543
752.976	30.8051
754.681	33.2586
756.385	35.2051
758.088	36.6845
759.792	38.2218
761.495	39.4304
763.2	39.7407
764.902	42.4531
766.604	43.677
768.306	46.2529
770.008	49.7245
771.709	51.5004
773.41	51.6278
775.11	52.1934
776.811	52.4771
778.51	53.3594
780.21	55.6531
781.909	56.8731
783.608	59.8692
785.307	61.9427
787.005	65.7993
788.703	67.7185
790.401	70.3082
792.098	71.668
793.795	71.4429
795.492	73.1871
797.188	74.2347
798.884	74.2431
800.58	74.4944
802.276	73.779
803.971	74.0191
805.665	75.503
807.36	75.513
809.054	75.9034
810.748	76.0905
812.441	76.8833
814.135	76.0071
815.826	76.207
817.518	78.0099
819.21	79.5184
820.902	80.6863
822.594	80.6423
824.285	81.0355
825.976	80.4139
827.665	81.1438
829.355	80.3099
831.045	82.9472
832.735	83.3864
834.424	83.4971
836.111	83.6959
837.8	82.8639
839.488	81.7479
841.177	80.1482
842.864	79.3173
844.55	78.6616
846.237	78.5422
847.924	77.5132
849.61	77.2127
851.295	76.2781
852.98	75.6201
854.666	75.1771
856.349	74.0702
858.034	73.0744
859.719	74.5723
861.403	75.6554
863.085	76.7045
864.769	77.7526
866.452	77.9531
868.133	77.7195
869.816	77.2197
871.498	75.9366
873.179	76.0544
874.86	75.2299
876.54	74.4815
878.221	74.5086
879.902	75.0075
881.58	72.6842
883.26	71.254
884.938	71.0333
886.618	70.0614
888.297	69.4461
889.974	67.4675
891.653	65.5429
893.329	65.7974
895.007	64.3109
896.683	62.7717
898.36	62.3768
900.035	62.7004
901.712	63.0797
903.387	62.9231
905.063	61.3847
906.737	60.4051
908.412	60.2636
910.085	60.2341
911.76	59.9797
913.433	59.2002
915.107	58.3169
916.779	55.1953
918.452	53.8793
920.124	52.8808
921.797	51.1965
923.467	50.8021
925.138	51.6106
926.81	51.7024
928.48	52.5878
930.151	52.0463
931.82	49.9495
933.489	49.9406
935.16	48.7022
936.828	47.3429
938.496	46.8983
940.165	46.0513
941.833	44.0781
943.5	43.0211
945.168	39.755
946.834	37.7061
948.5	37.3387
950.168	36.6371
951.834	34.5152
953.499	33.2072
955.163	31.5732
956.83	30.3203
958.494	27.7884
960.158	26.1007
961.821	23.6796
963.487	19.8802
965.15	18.2263
966.812	18.2564
968.474	17.5929
970.138	16.4475
971.8	16.3275
973.461	15.9897
975.123	16.5413
976.783	17.55
978.446	16.9195
980.106	17.799
981.766	18.0707
983.425	18.4034
985.084	18.4148
986.743	18.5085
988.402	18.0182
990.06	17.6255
991.72	18.4545
993.378	16.9895
995.035	16.6526
996.692	16.5062
998.349	17.332
1000.01	18.3606
1001.66	20.1336
1003.32	22.8128
1004.97	23.8461
1006.63	27.2345
1008.28	30.9517
1009.94	33.5543
1011.59	37.8929
1013.25	39.1084
1014.9	40.8992
1016.55	43.5503
1018.21	44.8071
1019.86	47.7767
1021.51	52.1982
1023.16	56.7667
1024.81	60.717
1026.47	66.834
1028.12	72.9278
1029.77	79.8816
1031.42	86.2889
1033.07	90.9547
1034.72	92.8597
1036.37	97.3765
1038.02	101.777
1039.67	106.064
1041.31	109.537
1042.96	113.822
1044.61	117.735
1046.26	121.746
1047.91	125.948
1049.55	129.195
1051.2	131.726
1052.84	133.213
1054.49	135.653
1056.14	136.801
1057.78	137.794
1059.43	138.144
1061.07	137.676
1062.72	136.881
1064.36	135.755
1066	134.689
1067.65	131.845
1069.29	129.01
1070.93	126.439
1072.58	122.867
1074.22	120.225
1075.86	116.025
1077.5	113.249
1079.14	108.893
1080.78	105.674
1082.42	101.339
1084.06	96.1205
1085.7	91.3161
1087.34	86.1133
1088.98	84.6294
1090.62	83.0224
1092.26	80.6579
1093.9	79.0347
1095.54	76.7456
1097.17	75.9236
1098.81	76.3884
1100.45	76.9394
1102.09	78.2992
1103.72	79.265
1105.36	80.3739
1106.99	81.0557
1108.63	82.4628
1110.27	81.4458
1111.9	80.6441
1113.53	79.0044
1115.17	77.8212
1116.8	75.9993
1118.43	75.8986
1120.07	75.4648
1121.7	73.9332
1123.33	71.9526
1124.97	70.5696
1126.6	68.0514
1128.23	65.1504
1129.86	64.0381
1131.49	61.0476
1133.12	58.713
1134.75	56.8748
1136.38	56.3415
1138.01	53.6308
1139.64	51.5542
1141.27	49.4301
1142.9	48.2204
1144.53	46.2358
1146.16	44.787
1147.78	42.3471
1149.41	38.866
1151.04	36.9261
1152.67	34.7415
1154.29	31.7909
1155.92	27.9049
1157.54	24.6106
1159.17	21.8765
1160.8	17.9594
1162.42	16.5536
1164.05	13.3657
1165.67	12.5662
1167.29	12.9576
1168.92	13.4455
1170.54	14.6188
1172.16	15.1716
1173.79	15.4211
1175.41	16.3041
1177.03	16.4442
1178.65	15.0227
1180.28	14.696
1181.9	13.9948
1183.52	13.0593
1185.14	13.2379
1186.76	14.0024
1188.38	12.682
1190	12.8512
1191.62	12.0905
1193.24	11.228
1194.86	11.4106
1196.47	11.181
1198.09	10.7609
1199.71	10.617
1201.33	9.79122
1202.95	8.78171
1204.56	9.46323
1206.18	9.72075
1207.8	10.0378
1209.41	11.4957
1211.03	12.1742
1212.64	11.8163
1214.26	14.995
1215.87	16.4614
1217.49	19.2354
1219.1	20.6446
1220.71	22.7419
1222.33	25.5414
1223.94	28.3824
1225.55	29.7635
1227.16	32.8785
1228.78	34.3784
1230.39	35.3584
1232	38.1802
1233.61	40.5211
1235.22	43.5886
1236.83	45.4646
1238.44	49.7618
1240.05	52.4429
1241.66	55.8104
1243.27	59.0173
1244.88	60.0029
1246.49	63.0185
1248.1	64.1505
1249.71	64.1899
1251.32	64.1019
1252.92	63.9491
1254.53	64.3138
1256.14	65.8999
1257.74	68.6144
1259.35	72.1287
1260.96	79.0566
1262.56	85.282
1264.17	91.7677
1265.77	98.6539
1267.38	105.926
1268.98	113.951
1270.59	122.137
1272.19	129.047
1273.79	136.052
1275.4	143.301
1277	150.119
1278.6	155.768
1280.21	162.263
1281.81	166.962
1283.41	173.547
1285.01	179.907
1286.61	183.407
1288.21	187.066
1289.81	191.308
1291.41	192.785
1293.01	196.598
1294.61	198.52
1296.21	199.945
1297.81	200.599
1299.41	201.155
1301.01	201.548
1302.6	200.722
1304.2	200.067
1305.8	198.173
1307.4	195.318
1308.99	191.574
1310.59	189.404
1312.19	186.796
1313.78	183.519
1315.38	179.58
1316.97	173.755
1318.57	169.704
1320.16	163.002
1321.76	157.822
1323.35	150.753
1324.94	144.682
1326.54	138.218
1328.13	130.245
1329.72	124.713
1331.32	119.356
1332.91	115.867
1334.5	114.239
1336.09	112.432
1337.68	112.111
1339.27	110.714
1340.87	111.471
1342.45	110.45
1344.04	109.64
1345.64	109.402
1347.22	108.947
1348.81	108.976
1350.4	107.347
1351.99	106.18
1353.58	104.707
1355.17	103.622
1356.75	102.964
1358.34	101.346
1359.93	101.385
1361.51	99.5995
1363.1	98.6966
1364.69	97.5762
1366.27	94.5736
1367.86	93.605
1369.44	93.399
1371.03	91.9768
1372.61	92.4237
1374.2	91.8068
1375.78	92.0106
1377.37	91.2582
1378.95	92.7237
1380.53	91.8945
1382.11	90.7994
1383.7	90.4003
1385.28	91.6464
1386.86	92.9663
1388.44	94.7214
1390.02	96.0409
1391.6	95.9546
1393.19	95.474
1394.77	95.2955
1396.35	94.4207
1397.93	96.5152
1399.51	97.7704
1401.08	103.663
1402.66	109.665
1404.24	117.664
1405.82	126.89
1407.4	137.386
1408.97	150.767
1410.55	161.605
1412.13	173.826
1413.71	185.948
1415.28	199.401
1416.86	214.163
1418.43	227.692
1420.01	242.527
1421.59	255.553
1423.16	269.894
1424.73	283.794
1426.31	297.467
1427.88	312.035
1429.46	324.54
1431.03	337.517
1432.6	350.099
1434.18	362.781
1435.75	373.916
1437.32	384.253
1438.89	392.281
1440.46	400.042
1442.04	405.821
1443.61	410.875
1445.18	414.603
1446.75	417.586
1448.32	418.528
1449.89	417.144
1451.46	414.074
1453.03	409.2
1454.6	401.853
1456.16	392.882
1457.73	383.116
1459.3	372.126
1460.87	359.245
1462.44	346.231
1464	331.427
1465.57	313.107
1467.14	295.198
1468.7	276.812
1470.27	258.172
1471.83	240.68
1473.4	225.41
1474.96	209.499
1476.53	196.626
1478.09	183.183
1479.66	172.578
1481.22	159.879
1482.78	148.868
1484.35	138.593
1485.91	127.25
1487.47	116.682
1489.04	105.215
1490.6	94.9664
1492.16	86.1177
1493.72	78.5409
1495.28	71.0417
1496.84	64.8889
1498.4	59.2585
1499.96	54.6164
1501.52	50.9836
1503.08	47.4015
1504.64	44.6359
1506.2	43.5064
1507.76	42.4077
1509.32	41.8
1510.88	39.7632
1512.44	38.7571
1513.99	36.6248
1515.55	36.0587
1517.11	36.5283
1518.66	37.464
1520.22	37.3238
1521.78	38.069
1523.33	38.3667
1524.89	37.4872
1526.44	37.0288
1528	36.9507
1529.55	37.0087
1531.11	37.2532
1532.66	36.8073
1534.21	38.4914
1535.77	39.4363
1537.32	40.929
1538.87	39.7222
1540.43	40.6554
1541.98	40.0135
1543.53	41.0909
1545.08	43.1027
1546.63	44.2743
1548.18	45.2475
1549.74	46.5916
1551.29	47.2996
1552.84	47.4471
1554.39	48.0145
1555.94	49.495
1557.48	50.3505
1559.03	51.446
1560.58	52.1487
1562.13	52.0663
1563.68	53.5747
1565.23	54.5016
1566.78	55.9946
1568.32	58.3331
1569.87	60.2284
1571.42	61.4036
1572.96	64.2005
1574.51	67.6693
1576.05	69.0428
1577.6	71.0677
1579.14	73.1941
1580.69	74.0945
1582.24	76.3012
1583.78	79.6328
1585.32	81.0535
1586.87	81.6861
1588.41	81.8936
1589.95	83.9774
1591.5	86.7995
1593.04	88.6602
1594.58	90.813
1596.12	91.3731
1597.67	92.1305
1599.21	92.6679
1600.75	93.565
1602.29	94.0427
1603.83	95.8772
1605.37	96.9842
1606.91	96.9162
1608.45	97.5084
1609.99	98.5659
1611.53	99.0868
1613.07	97.575
1614.6	96.8071
1616.14	95.3225
1617.68	95.9977
1619.22	94.8514
1620.75	94.0831
1622.29	94.3244
1623.83	93.2137
1625.37	91.4616
1626.9	91.7971
1628.44	91.097
1629.97	90.5302
1631.51	89.048
1633.04	88.996
1634.58	87.6586
1636.11	87.7043
1637.65	87.175
1639.18	87.8269
1640.72	89.7546
1642.25	88.8963
1643.78	88.7585
1645.31	89.1045
1646.85	88.1084
1648.38	88.4006
1649.91	89.5116
1651.44	89.7366
1652.97	89.0278
1654.5	88.9161
1656.03	89.1088
1657.56	88.2491
1659.1	88.8046
1660.62	87.9559
1662.15	85.4203
1663.68	83.1199
1665.21	81.0896
1666.74	80.0076
1668.27	79.2535
1669.8	77.2547
1671.32	76.8636
1672.85	74.8322
1674.38	73.6281
1675.91	72.227
1677.43	70.0193
1678.96	67.7522
1680.49	66.5389
1682.01	63.6937
1683.54	61.7895
1685.06	61.3088
1686.59	60.0102
1688.11	57.5628
1689.64	55.1556
1691.16	52.988
1692.68	51.199
1694.21	49.5768
1695.73	48.1138
1697.25	47.1631
1698.78	46.3827
1700.3	45.6885
1701.82	44.9836
1703.34	44.8158
1704.86	44.1625
1706.39	44.1395
1707.91	43.3925
1709.43	43.1486
1710.95	42.5746
1712.47	41.8691
1713.99	41.9729
1715.51	41.2977
1717.02	41.441
1718.54	40.5394
1720.06	39.5854
1721.58	39.6056
1723.1	38.3422
1724.62	38.6798
1726.13	38.1239
1727.65	37.7709
1729.17	37.3835
1730.68	36.4831
1732.2	35.9569
1733.72	33.8583
1735.23	33.1603
1736.75	32.181
1738.26	30.1574
1739.78	29.7364
1741.29	28.7771
1742.81	28.7698
1744.32	28.7442
1745.84	27.6192
1747.35	27.1567
1748.86	25.289
1750.37	24.162
1751.89	22.4993
1753.4	21.9077
1754.91	21.1839
1756.42	20.8956
1757.93	19.7034
1759.45	18.9277
1760.96	17.8396
1762.47	16.3781
1763.98	14.8635
1765.49	13.5771
1767	12.2393
1768.51	12.0315
1770.02	12.1075
1771.53	12.5272
1773.03	11.6412
1774.54	11.2628
1776.05	11.4367
1777.56	10.7742
1779.07	10.474
1780.57	10.3715
1782.08	9.05915
1783.59	8.48639
1785.09	8.30525
1786.6	8.41888
1788.11	7.30497
1789.61	7.52045
1791.12	5.99956
1792.62	5.24646
1794.13	4.20857
1795.63	3.12227
1797.13	3.01607
1798.64	2.23039
1800.14	2.55758
1801.65	2.52996
1803.15	3.17576
1804.65	3.00381
1806.15	2.36618
1807.66	2.42452
1809.16	2.13577
1810.66	2.72621
1812.16	2.01243
1813.66	2.15824
1815.16	2.365
1816.66	2.79581
1818.16	2.59096
1819.66	2.37248
1821.16	1.66204
1822.66	1.97942
1824.16	0.949977
1825.66	1.96409
1827.16	2.2546
1828.66	2.55783
1830.16	1.98536
1831.65	2.01531
1833.15	1.58695
1834.65	1.44457
1836.14	1.84209
1837.64	1.98497
1839.14	1.86493
1840.63	1.28419
1842.13	1.50891
1843.62	2.55809
1845.12	2.90462
1846.61	3.25659
1848.11	3.45268
1849.6	4.04243
1851.1	4.18934
1852.59	4.25996
1854.08	3.93391
1855.58	3.91967
1857.07	3.25334
1858.56	3.8681
1860.05	3.8994
1861.55	3.90979
1863.04	3.17754
1864.53	3.95578
1866.02	2.93283
1867.51	2.50319
1869	2.07708
1870.49	1.41405
1871.98	1.42077
1873.47	1.75298
1874.96	2.83794
1876.45	3.67462
1877.94	4.01608
1879.43	3.8774
1880.92	5.04888
1882.41	6.14395
1882.51	6.1505
1884	6.06569
1885.5	6.90997
1886.99	7.84872
1888.48	6.67536
1889.98	6.57172
1891.47	5.77999
1892.96	5.64396
1894.46	4.93969
1895.95	5.45625
1897.44	5.2466
1898.93	4.9786
1900.42	3.79262
1901.91	3.72853
1903.41	2.39564
1904.9	2.62422
1906.39	3.20598
1907.88	3.36959
1909.37	3.93316
1910.86	4.0559
1912.35	3.99762
1913.83	4.77757
1915.32	6.0976
1916.81	6.33478
1918.3	6.36894
1919.79	6.33252
1921.27	6.13895
1922.76	6.30223
1924.25	6.51409
1925.74	6.24967
1927.22	6.81666
1928.71	6.85405
1930.19	6.90566
1931.68	8.00909
1933.17	8.60586
1934.65	7.91394
1936.14	6.70543
1937.62	6.73539
1939.11	6.05198
1940.59	6.19526
1942.07	6.21674
1943.56	7.19154
1945.04	7.9417
1946.52	9.39174
1948.01	9.75305
1949.49	10.332
1950.97	11.3912
1952.45	10.9423
1953.93	11.4895
1955.42	10.6893
1956.9	10.4257
1958.38	9.89156
1959.86	9.64234
1961.34	8.47661
1962.82	7.84766
1964.3	8.52503
1965.78	9.13598
1967.26	8.76385
1968.74	8.91776
1970.21	8.92542
1971.69	8.43815
1973.17	8.26969
1974.65	8.97546
1976.13	9.36099
1977.6	8.56451
1979.08	9.76144
1980.56	9.1566
1982.03	8.43169
1983.51	8.34592
1984.99	8.44155
1986.46	8.14386
1987.94	8.11269
1989.41	7.45227
1990.89	6.99501
1992.36	7.35192
1993.84	7.54068
1995.31	7.46941
1996.78	8.10999
1998.26	7.4614
1999.73	7.30046
2001.2	9.03059
2002.68	8.16482
2004.15	8.91955
2005.62	8.13096
2007.09	7.64321
2008.56	6.47999
2010.04	6.30599
2011.51	7.16962
2012.98	6.65853
2014.45	6.29895
2015.92	7.37042
2017.39	7.55419
2018.86	6.46613
2020.33	7.06668
2021.8	6.54332
2023.26	6.81717
2024.73	6.59604
2026.2	6.14344
2027.67	6.35078
2029.14	6.5483
2030.61	7.08308
2032.07	6.08472
2033.54	7.10261
2035.01	8.70843
2036.47	9.26538
2037.94	8.97255
2039.4	9.15408
2040.87	8.65919
2042.33	8.603
2043.8	8.75257
2045.27	9.66306
2046.73	9.70836
2048.19	9.65691
2049.66	9.28188
2051.12	9.75331
2052.59	10.5438
2054.05	10.8829
2055.51	11.5985
2056.97	12.563
2058.44	13.6148
2059.9	14.016
2061.36	14.3809
2062.82	15.6246
2064.28	16.186
2065.74	16.4622
2067.21	16.498
2068.67	16.7781
2070.13	17.7819
2071.59	17.9614
2073.05	19.4064
2074.51	20.4824
2075.96	19.1015
2077.42	19.529
2078.88	19.4988
2080.34	19.9759
2081.8	20.3292
2083.26	20.8155
2084.72	21.7886
2086.17	21.4846
2087.63	21.8456
2089.09	22.1048
2090.54	20.526
2092	20.3672
2093.45	21.6111
2094.91	21.1607
2096.37	21.2113
2097.82	20.421
2099.28	20.3249
2100.73	19.6726
2102.19	18.9011
2103.64	18.2121
2105.09	18.0041
2106.55	19.1519
2108	18.3753
2109.45	17.7092
2110.91	17.6243
2112.36	18.3468
2113.81	17.5981
2115.26	17.5802
2116.72	17.7495
2118.17	17.3615
2119.62	16.6076
2121.07	16.6839
2122.52	17.424
2123.97	18.5813
2125.42	18.6089
2126.87	19.4185
2128.32	20.0708
2129.77	20.6261
2131.22	21.7088
2132.67	22.144
2134.11	22.6889
2135.56	23.6742
2137.01	23.0779
2138.46	23.8167
