#Acq. time (s)=	45
#Accumulations=	2
#Range (cm-¹)=	200...3150
#Windows=	2
#Auto scanning=	Off
#Autofocus=	Off
#Macrospot=	Off
#AutoExposure=	Off
#Spike filter=	Multiple accum.
#Delay time (s)=	0
#Binning=	1
#Readout mode=	Signal
#DeNoise=	Off
#ICS correction=	On
#Dark correction=	Off
#Inst. Process=	Off
#Detector Gain=	Best Dynamic Range
#Detector ADC=	20 kHz       
#Detector temperature (°C)=	-69.85
#Instrument=	LabRAM HR Evol
#Detector=	Synapse
#Objective=	x100
#Grating=	600 gr/mm
#ND Filter=	100%
#Laser (nm)=	532 
#Hole=	100.021
#Range=	Auto
#Laser Pol.=	No
#Raman. Pol.=	No
#Laser Pol. (°)=	-0.0007625
#Raman Pol. (°)=	89.9995
#Collection=	Microscope
#StageXY=	Marzhauser
#StageZ=	Marzhauser
#X (µm)=	-6933
#Y (µm)=	2022.7
#Z (µm)=	-74.95
#Full time(mm:ss)=	3:19
#Project=	
#Sample=	
#Site=	
#Title=	Mb_20_23_29_2x_45s_532 nm_x100_100%_600 gr_mm
#Remark=	
#Date=	13.07.2022 15:26
#Acquired=	13.07.2022 15:26:08
#Base:Fit=	10.08.2022 10:29:37
#Base:Sub=	10.08.2022 10:33:46
#Filter:Polynom=	16.08.2022 10:13:29
#AxisType[0]=Intens
#AxisUnit[0]=Cnt
#AxisType[1]=Spectr
#AxisUnit[1]=1/cm
200.563	33.1852
202.377	29.4408
204.194	27.7706
206.008	27.1985
207.821	24.8678
209.634	22.7376
211.449	20.5994
213.262	19.3098
215.074	19.8208
216.885	19.2358
218.699	19.8858
220.51	20.2561
222.321	21.3531
224.131	21.7081
225.941	20.3865
227.751	18.9721
229.562	19.4422
231.371	20.0428
233.18	20.1786
234.988	19.1629
236.796	18.5804
238.603	16.9413
240.411	17.108
242.219	16.7414
244.026	16.2675
245.832	15.8626
247.638	14.8526
249.443	14.7851
251.248	13.6625
253.053	14.5334
254.857	13.8963
256.661	14.4594
258.465	14.4636
260.268	14.1001
262.071	13.2372
263.874	13.4015
265.678	13.2292
267.48	13.2802
269.282	13.4047
271.083	12.9886
272.884	13.2312
274.684	11.1789
276.484	9.71527
278.284	7.79085
280.084	4.32285
281.883	3.40773
283.682	4.18986
285.48	3.59868
287.276	4.25135
289.074	3.58492
290.871	3.03803
292.668	2.78926
294.465	1.44429
296.261	0.747362
298.057	2.80253
299.853	2.75656
301.648	3.06815
303.443	4.31072
305.237	5.38069
307.032	5.02275
308.823	5.33526
310.617	5.35265
312.41	5.57773
314.203	5.53188
315.995	4.62022
317.788	5.96131
319.579	7.6049
321.369	7.34054
323.16	6.7124
324.951	6.38904
326.741	8.07559
328.531	8.666
330.321	9.15791
332.108	9.04673
333.897	8.95202
335.686	8.9122
337.474	9.39587
339.26	9.90618
341.048	8.06173
342.835	8.47406
344.622	8.8219
346.406	11.3651
348.192	11.1028
349.978	10.769
351.764	10.2098
353.547	10.8569
355.332	9.8071
357.116	9.9923
358.901	9.85995
360.682	9.10771
362.466	8.01906
364.249	6.77634
366.03	6.56568
367.812	7.03798
369.594	7.98726
371.374	9.75398
373.155	10.854
374.936	10.4918
376.715	11.6406
378.495	11.2516
380.273	11.6722
382.053	11.4271
383.832	11.552
385.609	10.7658
387.388	9.8396
389.164	9.15366
390.942	9.54799
392.72	10.2552
394.495	11.4955
396.272	12.4932
398.047	12.5131
399.823	11.9253
401.597	11.4792
403.372	12.1486
405.145	12.1013
406.92	11.9051
408.693	11.9692
410.467	11.5296
412.239	11.409
414.012	11.8396
415.783	11.5253
417.556	9.31341
419.327	8.44233
421.099	9.18608
422.869	7.55208
424.64	8.23126
426.409	8.39389
428.18	8.49347
429.948	8.37812
431.718	9.67962
433.486	10.9913
435.253	11.1391
437.022	10.359
438.789	10.8806
440.558	11.1828
442.324	11.2229
444.089	12.5779
445.857	13.7396
447.622	13.2627
449.386	13.9546
451.153	15.3592
452.917	17.4426
454.682	18.008
456.446	19.3398
458.208	19.6437
459.973	18.9511
461.735	19.7175
463.497	19.1443
465.259	19.2391
467.022	18.6201
468.783	18.6962
470.544	20.0722
472.306	20.5207
474.066	20.8435
475.825	22.9262
477.585	25.4425
479.346	27.0699
481.104	29.3078
482.862	30.0494
484.62	30.4565
486.38	29.505
488.137	29.6575
489.894	31.4083
491.65	31.9836
493.407	32.3466
495.164	32.2804
496.92	33.5499
498.675	33.3534
500.43	33.7184
502.184	34.6987
503.939	34.8293
505.694	34.713
507.448	36.2272
509.201	37.9795
510.954	37.9148
512.706	39.3218
514.459	39.993
516.21	40.3261
517.962	39.9196
519.715	41.0477
521.466	41.5182
523.216	40.6663
524.966	40.7231
526.716	40.3534
528.466	40.2268
530.215	40.4764
531.964	40.6992
533.712	38.9528
535.46	37.8949
537.208	36.5967
538.955	34.2786
540.703	33.3534
542.449	31.3769
544.196	31.5264
545.942	28.9891
547.688	28.268
549.433	27.2102
551.178	25.8731
552.923	25.489
554.667	25.0857
556.412	26.0064
558.155	26.6776
559.899	25.2888
561.642	24.8263
563.385	24.6178
565.127	23.4517
566.867	21.9567
568.609	20.1195
570.35	18.1798
572.092	17.0321
573.832	15.7319
575.573	14.8061
577.313	14.7887
579.053	14.4765
580.79	13.5258
582.529	12.5762
584.268	11.6255
586.006	11.3183
587.745	11.3483
589.482	11.1576
591.218	9.5182
592.955	8.52466
594.692	9.28148
596.428	8.61058
598.164	7.40706
599.898	7.18969
601.634	7.50849
603.369	6.50206
605.104	6.61832
606.836	6.9126
608.57	4.96536
610.304	4.35162
612.037	4.15242
613.769	4.6779
615.501	6.14103
617.234	5.64384
618.966	4.54321
620.696	2.97562
622.427	2.00653
624.159	1.80333
625.887	2.46997
627.618	2.86219
629.348	3.41115
631.076	3.5083
632.806	3.17705
634.535	2.79894
636.262	2.33905
637.99	3.2641
639.716	4.04332
641.444	3.81396
643.172	4.20259
644.897	3.86676
646.624	2.42651
648.348	1.70113
650.075	1.44116
651.801	0.586137
653.524	0.397655
655.249	-0.0510591
656.972	0.339814
658.697	1.16388
660.419	2.42874
662.143	2.95126
663.865	4.02083
665.588	3.40501
667.309	3.30256
669.032	4.30146
670.752	5.11503
672.474	6.20605
674.194	7.59146
675.915	7.54985
677.634	7.94327
679.355	8.1958
681.073	9.10354
682.793	9.86696
684.511	10.2595
686.23	10.415
687.947	10.1256
689.664	10.4321
691.382	10.6584
693.098	10.1262
694.816	10.2702
696.531	10.7218
698.247	10.2413
699.963	11.1746
701.678	11.0069
703.392	9.98242
705.108	9.22232
706.821	8.7915
708.534	9.58718
710.249	10.3134
711.962	9.56426
713.674	7.98373
715.388	8.87781
717.099	7.88032
718.81	7.6075
720.523	7.32312
722.234	8.34387
723.944	8.14036
725.654	6.91851
727.365	5.78957
729.075	6.52047
730.784	6.21491
732.492	5.67886
734.202	7.13883
735.91	8.05285
737.618	8.31384
739.325	10.3216
741.034	11.4941
742.741	14.2563
744.447	16.8774
746.153	18.7644
747.859	19.6136
749.564	21.1616
751.271	23.5578
752.976	25.7384
754.681	27.344
756.385	28.638
758.088	30.4775
759.792	31.2268
761.495	31.8054
763.2	34.2941
764.902	34.5466
766.604	36.4774
768.306	38.071
770.008	38.3569
771.709	40.6565
773.41	42.192
775.11	43.8835
776.811	44.9227
778.51	46.2132
780.21	47.7527
781.909	48.1337
783.608	49.161
785.307	49.9893
787.005	50.8217
788.703	52.1676
790.401	53.3324
792.098	53.8006
793.795	54.5066
795.492	54.6336
797.188	56.0648
798.884	57.2748
800.58	59.8045
802.276	60.7537
803.971	60.9069
805.665	62.3895
807.36	63.0089
809.054	63.6953
810.748	65.3958
812.441	67.4041
814.135	67.9913
815.826	68.8758
817.518	71.0191
819.21	72.2072
820.902	72.2103
822.594	73.8271
824.285	75.0294
825.976	75.8388
827.665	77.4548
829.355	77.8056
831.045	78.8782
832.735	79.2913
834.424	80.9421
836.111	82.43
837.8	82.4599
839.488	82.9542
841.177	83.6619
842.864	85.207
844.55	84.3667
846.237	84.993
847.924	85.6606
849.61	84.851
851.295	86.4291
852.98	87.4586
854.666	88.5731
856.349	89.8344
858.034	89.2433
859.719	89.1649
861.403	89.7058
863.085	90.2221
864.769	89.2779
866.452	88.3351
868.133	87.695
869.816	87.2988
871.498	88.1656
873.179	87.0814
874.86	85.7556
876.54	83.8037
878.221	82.4339
879.902	81.4303
881.58	80.7742
883.26	78.511
884.938	76.4018
886.618	73.4694
888.297	71.6981
889.974	70.5184
891.653	68.3813
893.329	66.5138
895.007	66.148
896.683	63.485
898.36	60.8822
900.035	60.8616
901.712	60.1074
903.387	57.9442
905.063	57.5812
906.737	55.8641
908.412	55.098
910.085	55.2625
911.76	54.076
913.433	53.0738
915.107	53.282
916.779	51.831
918.452	52.3994
920.124	51.7476
921.797	50.4472
923.467	49.4293
925.138	48.8149
926.81	47.1621
928.48	46.5914
930.151	47.1347
931.82	47.7434
933.489	47.6819
935.16	47.2522
936.828	46.3979
938.496	46.1041
940.165	45.4856
941.833	42.9697
943.5	41.0265
945.168	39.3971
946.834	36.7964
948.5	35.069
950.168	34.1949
951.834	32.6906
953.499	31.5425
955.163	29.1099
956.83	26.6072
958.494	25.1829
960.158	21.7444
961.821	19.7825
963.487	19.7381
965.15	19.3751
966.812	18.6451
968.474	17.9216
970.138	17.3126
971.8	17.1531
973.461	17.0135
975.123	17.4341
976.783	18.4233
978.446	19.4691
980.106	18.5172
981.766	19.3759
983.425	20.945
985.084	20.7479
986.743	20.1484
988.402	20.0868
990.06	20.0231
991.72	21.6763
993.378	22.2164
995.035	23.3362
996.692	24.0519
998.349	24.8545
1000.01	26.3355
1001.66	28.5323
1003.32	29.2517
1004.97	30.5088
1006.63	31.6389
1008.28	34.0407
1009.94	35.4094
1011.59	38.7955
1013.25	39.8248
1014.9	41.585
1016.55	43.0913
1018.21	43.6082
1019.86	44.1144
1021.51	45.1656
1023.16	46.7424
1024.81	48.5464
1026.47	51.6048
1028.12	55.5315
1029.77	58.6333
1031.42	63.2791
1033.07	65.1722
1034.72	67.4065
1036.37	70.4886
1038.02	73.3534
1039.67	76.2781
1041.31	79.3641
1042.96	81.5387
1044.61	86.8859
1046.26	90.3918
1047.91	92.4218
1049.55	94.2649
1051.2	95.7146
1052.84	98.0139
1054.49	100.566
1056.14	102.526
1057.78	104.109
1059.43	105.884
1061.07	107.17
1062.72	106.738
1064.36	106.682
1066	106.689
1067.65	105.229
1069.29	105.59
1070.93	104.428
1072.58	102.868
1074.22	100.855
1075.86	98.0088
1077.5	96.2086
1079.14	93.552
1080.78	91.3206
1082.42	89.8916
1084.06	87.284
1085.7	83.7195
1087.34	80.5028
1088.98	77.7332
1090.62	76.3351
1092.26	73.8456
1093.9	73.8308
1095.54	72.995
1097.17	72.5357
1098.81	71.4551
1100.45	71.4717
1102.09	71.1751
1103.72	71.6936
1105.36	72.3276
1106.99	72.3529
1108.63	71.2494
1110.27	70.9483
1111.9	69.3325
1113.53	67.9566
1115.17	65.843
1116.8	66.6574
1118.43	66.1465
1120.07	64.447
1121.7	63.4548
1123.33	61.8795
1124.97	61.0102
1126.6	59.994
1128.23	57.3016
1129.86	55.4326
1131.49	54.7358
1133.12	52.9382
1134.75	51.7535
1136.38	49.6222
1138.01	47.9457
1139.64	45.9004
1141.27	43.4348
1142.9	40.1553
1144.53	35.5329
1146.16	32.1091
1147.78	29.3304
1149.41	25.7598
1151.04	23.0605
1152.67	18.9036
1154.29	16.4727
1155.92	13.2967
1157.54	9.59394
1159.17	7.58814
1160.8	5.11071
1162.42	3.74938
1164.05	1.94472
1165.67	0.297299
1167.29	-1.35689
1168.92	-1.14506
1170.54	-0.761128
1172.16	-0.359277
1173.79	0.824327
1175.41	1.73797
1177.03	2.43397
1178.65	1.85641
1180.28	1.71736
1181.9	1.1118
1183.52	-0.674365
1185.14	-0.718646
1186.76	-0.125396
1188.38	-0.541521
1190	-0.248458
1191.62	0.322441
1193.24	1.39521
1194.86	2.11505
1196.47	2.71088
1198.09	3.79256
1199.71	2.52951
1201.33	4.25165
1202.95	5.45897
1204.56	5.66108
1206.18	7.14809
1207.8	7.007
1209.41	8.4489
1211.03	9.65173
1212.64	11.8595
1214.26	13.491
1215.87	15.5086
1217.49	17.55
1219.1	18.4501
1220.71	19.3205
1222.33	21.7761
1223.94	22.9289
1225.55	24.5394
1227.16	28.5234
1228.78	31.8617
1230.39	35.3488
1232	38.6574
1233.61	41.2405
1235.22	43.9868
1236.83	46.3003
1238.44	49.3461
1240.05	52.68
1241.66	55.1347
1243.27	58.0317
1244.88	59.1883
1246.49	62.2013
1248.1	64.4566
1249.71	65.9022
1251.32	67.1305
1252.92	68.7064
1254.53	68.8245
1256.14	69.0083
1257.74	72.1856
1259.35	74.9329
1260.96	79.8529
1262.56	84.6922
1264.17	90.1123
1265.77	95.9601
1267.38	102.255
1268.98	109.146
1270.59	117.038
1272.19	124.405
1273.79	132.063
1275.4	138.769
1277	146.137
1278.6	152.934
1280.21	159.391
1281.81	166.409
1283.41	170.909
1285.01	176.457
1286.61	181.256
1288.21	185.57
1289.81	190.319
1291.41	193.594
1293.01	197.625
1294.61	199.378
1296.21	201.575
1297.81	203.269
1299.41	203.451
1301.01	205.752
1302.6	207.608
1304.2	206.629
1305.8	207.567
1307.4	205.929
1308.99	203.464
1310.59	202.537
1312.19	199.951
1313.78	198.268
1315.38	193.7
1316.97	189.545
1318.57	184.096
1320.16	178.552
1321.76	172.173
1323.35	165.536
1324.94	159.112
1326.54	152.783
1328.13	146.387
1329.72	138.261
1331.32	132.863
1332.91	127.533
1334.5	123.424
1336.09	121.734
1337.68	120.035
1339.27	117.8
1340.87	116.292
1342.45	114.469
1344.04	113.219
1345.64	112.156
1347.22	112.017
1348.81	111.252
1350.4	110.554
1351.99	110.441
1353.58	109.379
1355.17	108.332
1356.75	107.596
1358.34	106.404
1359.93	105.077
1361.51	102.69
1363.1	101.465
1364.69	100.299
1366.27	99.5828
1367.86	98.676
1369.44	97.7466
1371.03	97.5331
1372.61	96.4421
1374.2	95.6783
1375.78	96.6519
1377.37	96.0771
1378.95	95.2969
1380.53	96.1296
1382.11	95.5808
1383.7	95.0776
1385.28	96.1768
1386.86	97.0156
1388.44	98.8327
1390.02	99.4995
1391.6	98.8216
1393.19	98.97
1394.77	96.7104
1396.35	96.3875
1397.93	96.7203
1399.51	98.5314
1401.08	101.375
1402.66	105.419
1404.24	113.532
1405.82	121.221
1407.4	130.207
1408.97	140.227
1410.55	152.453
1412.13	164.329
1413.71	177.365
1415.28	188.748
1416.86	202.093
1418.43	215.369
1420.01	230.659
1421.59	246.917
1423.16	262.386
1424.73	277.73
1426.31	292.502
1427.88	307.26
1429.46	321.568
1431.03	335.666
1432.6	349.167
1434.18	362.495
1435.75	373.462
1437.32	383.148
1438.89	391.413
1440.46	399.731
1442.04	407.595
1443.61	411.396
1445.18	414.428
1446.75	415.419
1448.32	416.262
1449.89	414.552
1451.46	410.894
1453.03	407.156
1454.6	400.678
1456.16	391.749
1457.73	381.952
1459.3	371.296
1460.87	359.63
1462.44	346.573
1464	331.866
1465.57	316.542
1467.14	298.627
1468.7	281.086
1470.27	263.58
1471.83	245.15
1473.4	227.74
1474.96	211.995
1476.53	197.802
1478.09	183.022
1479.66	168.719
1481.22	157.216
1482.78	146.156
1484.35	133.392
1485.91	123.21
1487.47	113.513
1489.04	102.924
1490.6	93.1511
1492.16	83.8928
1493.72	74.9021
1495.28	69.128
1496.84	62.2174
1498.4	58.3783
1499.96	53.6187
1501.52	48.0755
1503.08	43.8911
1504.64	39.6818
1506.2	36.4463
1507.76	34.3666
1509.32	32.6117
1510.88	31.1605
1512.44	29.7701
1513.99	28.2089
1515.55	27.1528
1517.11	25.6221
1518.66	24.9534
1520.22	23.4219
1521.78	21.5118
1523.33	21.7575
1524.89	21.2479
1526.44	21.2875
1528	20.5282
1529.55	21.8321
1531.11	23.3239
1532.66	23.4542
1534.21	24.7566
1535.77	26.6097
1537.32	28.3095
1538.87	29.8164
1540.43	30.878
1541.98	31.9301
1543.53	34.7273
1545.08	35.9443
1546.63	38.4444
1548.18	41.1448
1549.74	43.5043
1551.29	46.5501
1552.84	48.6574
1554.39	49.999
1555.94	51.4126
1557.48	52.296
1559.03	54.8824
1560.58	55.7742
1562.13	57.3717
1563.68	59.7739
1565.23	60.5652
1566.78	62.5656
1568.32	65.1517
1569.87	68.0255
1571.42	71.7563
1572.96	75.326
1574.51	77.2581
1576.05	80.5981
1577.6	83.5468
1579.14	86.485
1580.69	89.6413
1582.24	91.8682
1583.78	93.9465
1585.32	97.9043
1586.87	99.3504
1588.41	101.811
1589.95	103.759
1591.5	105.248
1593.04	106.662
1594.58	108.798
1596.12	110.005
1597.67	109.612
1599.21	110.441
1600.75	111.427
1602.29	112.013
1603.83	113.111
1605.37	114.247
1606.91	115.496
1608.45	115.442
1609.99	113.21
1611.53	112.614
1613.07	111.99
1614.6	110.811
1616.14	110.295
1617.68	109.721
1619.22	109.109
1620.75	108.982
1622.29	107.733
1623.83	107.459
1625.37	106.783
1626.9	104.644
1628.44	102.527
1629.97	101.724
1631.51	99.6484
1633.04	98.0655
1634.58	96.3917
1636.11	97.1361
1637.65	97.0994
1639.18	97.2868
1640.72	97.4209
1642.25	99.4006
1643.78	100.831
1645.31	101.353
1646.85	102.854
1648.38	104.064
1649.91	104.944
1651.44	104.535
1652.97	105.323
1654.5	106.421
1656.03	105.149
1657.56	104.671
1659.1	104.935
1660.62	104.626
1662.15	103.904
1663.68	102.493
1665.21	102.348
1666.74	101.247
1668.27	99.5065
1669.8	98.3731
1671.32	96.9512
1672.85	93.7319
1674.38	91.4945
1675.91	90.1036
1677.43	87.9326
1678.96	86.337
1680.49	84.0228
1682.01	81.387
1683.54	78.7219
1685.06	74.5641
1686.59	72.1936
1688.11	70.7683
1689.64	69.2077
1691.16	66.9286
1692.68	65.0932
1694.21	62.7328
1695.73	60.8465
1697.25	58.921
1698.78	58.5222
1700.3	57.2393
1701.82	55.4877
1703.34	53.1814
1704.86	52.8096
1706.39	51.7242
1707.91	50.2599
1709.43	49.7093
1710.95	50.0041
1712.47	51.7185
1713.99	52.4138
1715.51	52.5575
1717.02	52.7371
1718.54	54.1032
1720.06	53.6974
1721.58	54.95
1723.1	55.6444
1724.62	55.9103
1726.13	55.798
1727.65	54.5506
1729.17	54.6125
1730.68	54.4794
1732.2	53.4451
1733.72	53.9503
1735.23	53.9264
1736.75	52.5751
1738.26	51.1092
1739.78	50.766
1741.29	49.2575
1742.81	48.7676
1744.32	47.7816
1745.84	47.3259
1747.35	45.8314
1748.86	44.143
1750.37	43.0233
1751.89	41.8436
1753.4	40.2962
1754.91	39.1623
1756.42	36.8023
1757.93	34.6722
1759.45	32.5179
1760.96	30.6646
1762.47	29.4348
1763.98	27.1829
1765.49	25.5633
1767	23.369
1768.51	21.2099
1770.02	19.089
1771.53	17.2914
1773.03	15.7082
1774.54	14.1486
1776.05	11.4282
1777.56	9.76567
1779.07	8.79299
1780.57	8.6465
1782.08	7.33506
1783.59	7.69026
1785.09	7.35373
1786.6	7.12802
1788.11	6.44956
1789.61	5.46178
1791.12	4.1527
1792.62	3.94666
1794.13	4.03549
1795.63	3.34803
1797.13	3.01342
1798.64	2.39862
1800.14	2.34644
1801.65	1.71885
1803.15	1.89075
1804.65	2.16372
1806.15	2.58904
1807.66	2.96857
1809.16	2.80435
1810.66	3.23519
1812.16	2.71132
1813.66	3.38404
1815.16	3.70326
1816.66	4.0592
1818.16	4.71541
1819.66	3.97993
1821.16	4.22428
1822.66	4.5605
1824.16	3.87581
1825.66	3.58001
1827.16	3.74358
1828.66	3.49202
1830.16	4.1165
1831.65	4.00851
1833.15	3.54006
1834.65	3.43725
1836.14	3.25065
1837.64	2.98197
1839.14	3.76509
1840.63	3.80471
1842.13	2.91103
1843.62	3.68736
1845.12	3.84354
1846.61	4.15327
1848.11	4.19776
1849.6	3.75228
1851.1	3.34691
1852.59	3.53712
1854.08	2.71164
1855.58	2.69582
1857.07	1.97683
1858.56	1.32872
1860.05	-0.28065
1861.55	-0.677867
1863.04	-1.01179
1864.53	-1.28597
1866.02	-2.01949
1867.51	-1.48508
1869	-0.265631
1870.49	0.0234577
1871.98	0.433347
1873.47	0.597554
1874.96	0.450608
1876.45	0.878949
1877.94	1.1576
1879.43	1.49575
1880.92	2.20496
1882.41	2.23944
1882.51	1.66641
1884	1.75492
1885.5	1.67984
1886.99	1.72458
1888.48	1.16167
1889.98	1.93781
1891.47	2.2387
1892.96	2.80562
1894.46	3.12644
1895.95	2.41056
1897.44	2.7446
1898.93	4.58587
1900.42	5.58206
1901.91	6.18495
1903.41	7.62494
1904.9	7.81345
1906.39	7.59342
1907.88	7.36727
1909.37	7.76546
1910.86	8.18065
1912.35	9.23312
1913.83	9.33483
1915.32	9.49848
1916.81	10.462
1918.3	9.94427
1919.79	9.84363
1921.27	9.90844
1922.76	9.38825
1924.25	9.06783
1925.74	9.66945
1927.22	9.88076
1928.71	9.97398
1930.19	9.10594
1931.68	8.88902
1933.17	9.62941
1934.65	10.1072
1936.14	10.4344
1937.62	10.3639
1939.11	10.5224
1940.59	10.812
1942.07	11.4623
1943.56	10.5149
1945.04	9.69735
1946.52	9.84382
1948.01	9.51532
1949.49	10.3336
1950.97	9.46944
1952.45	9.63782
1953.93	9.27098
1955.42	8.64299
1956.9	9.11336
1958.38	9.38227
1959.86	8.70435
1961.34	8.14332
1962.82	7.98887
1964.3	8.93624
1965.78	9.31652
1967.26	9.07596
1968.74	9.17745
1970.21	9.4617
1971.69	10.2217
1973.17	10.2891
1974.65	8.87307
1976.13	8.12642
1977.6	8.03775
1979.08	6.96242
1980.56	7.17967
1982.03	7.86098
1983.51	8.62734
1984.99	9.15255
1986.46	9.61545
1987.94	8.82471
1989.41	8.93843
1990.89	9.66957
1992.36	10.4746
1993.84	11.399
1995.31	11.5466
1996.78	10.9611
1998.26	10.7645
1999.73	11.9789
2001.2	12.051
2002.68	11.5452
2004.15	12.3988
2005.62	12.7197
2007.09	13.6489
2008.56	12.6248
2010.04	12.6331
2011.51	12.0848
2012.98	12.2481
2014.45	12.501
2015.92	12.5326
2017.39	12.0047
2018.86	11.2306
2020.33	11.8436
2021.8	11.1923
2023.26	11.2224
2024.73	10.2489
2026.2	11.0882
2027.67	10.7141
2029.14	10.2115
2030.61	10.8268
2032.07	10.9405
2033.54	10.7325
2035.01	11.4363
2036.47	11.7566
2037.94	12.0735
2039.4	11.0635
2040.87	10.272
2042.33	10.2577
2043.8	9.86683
2045.27	9.10145
2046.73	8.74434
2048.19	8.54156
2049.66	8.82572
2051.12	9.45254
2052.59	9.93471
2054.05	11.5044
2055.51	12.0565
2056.97	11.7305
2058.44	11.6121
2059.9	11.9712
2061.36	13.2179
2062.82	14.2014
2064.28	14.6567
2065.74	14.4921
2067.21	14.1534
2068.67	14.2352
2070.13	14.3855
2071.59	15.0199
2073.05	15.7305
2074.51	16.7862
2075.96	17.0014
2077.42	17.2854
2078.88	17.0955
2080.34	17.6599
2081.8	17.5224
2083.26	18.8147
2084.72	19.1615
2086.17	19.6282
2087.63	19.4912
2089.09	20.2773
2090.54	21.2297
2092	21.0787
2093.45	21.6741
2094.91	21.984
2096.37	22.244
2097.82	22.5767
2099.28	22.9738
2100.73	23.4693
2102.19	23.8935
2103.64	24.7017
2105.09	25.0482
2106.55	24.0143
2108	22.8523
2109.45	22.4172
2110.91	21.8664
2112.36	21.5322
2113.81	22.1152
2115.26	21.71
2116.72	21.5285
2118.17	21.364
2119.62	21.8568
2121.07	22.6737
2122.52	23.2194
2123.97	24.131
2125.42	24.7709
2126.87	25.9504
2128.32	27.021
2129.77	27.4074
2131.22	28.0822
2132.67	28.7988
2134.11	29.4336
