#Acq. time (s)=	45
#Accumulations=	2
#Range (cm-¹)=	200...3150
#Windows=	2
#Auto scanning=	Off
#Autofocus=	Off
#Macrospot=	Off
#AutoExposure=	Off
#Spike filter=	Multiple accum.
#Delay time (s)=	0
#Binning=	1
#Readout mode=	Signal
#DeNoise=	Off
#ICS correction=	On
#Dark correction=	Off
#Inst. Process=	Off
#Detector Gain=	Best Dynamic Range
#Detector ADC=	20 kHz       
#Detector temperature (°C)=	-69.85
#Instrument=	LabRAM HR Evol
#Detector=	Synapse
#Objective=	x100
#Grating=	600 gr/mm
#ND Filter=	100%
#Laser (nm)=	532 
#Hole=	100.021
#Range=	Auto
#Laser Pol.=	No
#Raman. Pol.=	No
#Laser Pol. (°)=	-0.0007625
#Raman Pol. (°)=	89.9995
#Collection=	Microscope
#StageXY=	Marzhauser
#StageZ=	Marzhauser
#X (µm)=	-6886.3
#Y (µm)=	2114
#Z (µm)=	-74.95
#Full time(mm:ss)=	3:19
#Project=	
#Sample=	
#Site=	
#Title=	Mb_20_23_20_2x_45s_532 nm_x100_100%_600 gr_mm
#Remark=	
#Date=	13.07.2022 14:34
#Acquired=	13.07.2022 14:34:14
#Base:Fit=	10.08.2022 10:29:37
#Base:Sub=	10.08.2022 10:32:28
#Filter:Polynom=	16.08.2022 10:13:29
#AxisType[0]=Intens
#AxisUnit[0]=Cnt
#AxisType[1]=Spectr
#AxisUnit[1]=1/cm
200.563	21.3049
202.377	18.4273
204.194	16.7238
206.008	15.1619
207.821	12.3636
209.634	10.1769
211.449	8.41654
213.262	7.86625
215.074	8.54567
216.885	9.34693
218.699	7.5631
220.51	6.63102
222.321	5.19623
224.131	4.42836
225.941	4.40824
227.751	5.36373
229.562	6.56679
231.371	7.83989
233.18	8.35846
234.988	7.90529
236.796	7.72885
238.603	7.92361
240.411	9.30678
242.219	9.99701
244.026	10.7639
245.832	10.301
247.638	11.1781
249.443	11.3976
251.248	11.6805
253.053	13.6141
254.857	12.5457
256.661	10.6165
258.465	12.3376
260.268	12.4876
262.071	11.9582
263.874	11.2376
265.678	10.8791
267.48	10.6266
269.282	11.3919
271.083	11.8576
272.884	12.2703
274.684	11.8628
276.484	10.3219
278.284	10.1619
280.084	9.0201
281.883	7.28734
283.682	6.79803
285.48	4.80181
287.276	3.41283
289.074	1.71763
290.871	2.63044
292.668	2.98131
294.465	3.3245
296.261	3.24807
298.057	4.98058
299.853	6.23833
301.648	8.38228
303.443	10.3681
305.237	11.2297
307.032	10.8144
308.823	9.89812
310.617	11.9563
312.41	13.3662
314.203	15.8448
315.995	17.8642
317.788	19.9689
319.579	22.2825
321.369	23.6246
323.16	24.8285
324.951	25.8232
326.741	27.0174
328.531	28.9608
330.321	30.5807
332.108	30.9207
333.897	31.2451
335.686	31.8523
337.474	33.283
339.26	33.648
341.048	33.7108
342.835	35.1251
344.622	34.9688
346.406	36.5492
348.192	36.3402
349.978	36.4728
351.764	35.5968
353.547	35.7417
355.332	35.3647
357.116	34.0138
358.901	33.2625
360.682	31.5735
362.466	30.0133
364.249	29.071
366.03	26.7729
367.812	25.5378
369.594	24.2254
371.374	24.2328
373.155	24.798
374.936	24.3971
376.715	24.295
378.495	24.9299
380.273	25.3516
382.053	25.2422
383.832	25.5495
385.609	25.5152
387.388	26.9472
389.164	28.4715
390.942	28.2963
392.72	29.3458
394.495	29.7108
396.272	30.4822
398.047	31.2717
399.823	32.3769
401.597	33.5366
403.372	33.1754
405.145	32.8503
406.92	34.1181
408.693	34.7389
410.467	34.6513
412.239	35.1957
414.012	35.0369
415.783	35.4629
417.556	36.1451
419.327	36.8695
421.099	37.024
422.869	37.3429
424.64	37.9081
426.409	37.9934
428.18	37.3126
429.948	36.8727
431.718	37.6552
433.486	37.0213
435.253	35.3577
437.022	34.7875
438.789	34.8917
440.558	34.3092
442.324	35.0058
444.089	33.7854
445.857	34.0193
447.622	34.7512
449.386	34.2612
451.153	35.5914
452.917	35.9764
454.682	35.5691
456.446	35.813
458.208	36.7112
459.973	37.2604
461.735	37.578
463.497	37.9727
465.259	39.1793
467.022	39.7736
468.783	39.8169
470.544	40.4653
472.306	42.2653
474.066	41.8693
475.825	43.1794
477.585	43.8437
479.346	44.6287
481.104	47.1324
482.862	46.8626
484.62	46.9983
486.38	47.2603
488.137	47.515
489.894	47.6078
491.65	46.7464
493.407	48.242
495.164	50.0981
496.92	50.0689
498.675	52.3842
500.43	52.5629
502.184	52.8112
503.939	54.5159
505.694	54.5404
507.448	55.7492
509.201	55.1628
510.954	55.4086
512.706	55.2741
514.459	55.8856
516.21	56.043
517.962	56.19
519.715	56.2111
521.466	56.6943
523.216	56.2927
524.966	56.6287
526.716	56.389
528.466	55.3322
530.215	56.6751
531.964	56.7205
533.712	56.7264
535.46	55.8548
537.208	54.994
538.955	54.9801
540.703	53.6651
542.449	53.1166
544.196	51.2729
545.942	49.8693
547.688	48.1426
549.433	45.8681
551.178	44.1051
552.923	43.1508
554.667	41.7374
556.412	40.1674
558.155	39.9682
559.899	39.0729
561.642	37.4413
563.385	37.7199
565.127	36.6275
566.867	35.3859
568.609	33.9869
570.35	30.121
572.092	28.7307
573.832	26.5682
575.573	24.5289
577.313	22.6666
579.053	20.9299
580.79	20.652
582.529	19.8527
584.268	18.5501
586.006	18.7983
587.745	16.7553
589.482	16.1298
591.218	15.5879
592.955	14.178
594.692	13.8256
596.428	12.4135
598.164	12.0379
599.898	11.424
601.634	13.1119
603.369	13.036
605.104	13.2736
606.836	15.2865
608.57	16.7281
610.304	16.8053
612.037	18.632
613.769	19.7563
615.501	20.6525
617.234	22.7189
618.966	22.1249
620.696	21.7973
622.427	22.3738
624.159	22.4754
625.887	22.5893
627.618	22.4533
629.348	21.7254
631.076	21.0272
632.806	22.4962
634.535	22.1684
636.262	22.8925
637.99	24.3124
639.716	24.1486
641.444	24.1944
643.172	23.812
644.897	23.7564
646.624	22.3133
648.348	20.7253
650.075	20.3604
651.801	18.1382
653.524	16.7542
655.249	14.2082
656.972	11.9936
658.697	10.8525
660.419	9.74229
662.143	9.82301
663.865	8.62064
665.588	7.33874
667.309	7.01861
669.032	7.13828
670.752	6.09587
672.474	5.54156
674.194	4.5254
675.915	4.76885
677.634	5.24244
679.355	5.19512
681.073	5.10448
682.793	6.0914
684.511	7.83835
686.23	9.82768
687.947	12.967
689.664	13.7414
691.382	16.189
693.098	17.6216
694.816	17.5665
696.531	17.4835
698.247	18.1713
699.963	18.1942
701.678	18.8084
703.392	19.8579
705.108	19.8509
706.821	20.5871
708.534	22.1499
710.249	23.4315
711.962	24.2927
713.674	24.7382
715.388	24.5708
717.099	25.948
718.81	27.7518
720.523	26.8577
722.234	27.7517
723.944	27.3853
725.654	27.5263
727.365	27.5484
729.075	28.4759
730.784	28.5215
732.492	28.5687
734.202	28.9693
735.91	29.1439
737.618	29.2899
739.325	30.8483
741.034	31.0128
742.741	31.9705
744.447	33.1945
746.153	34.3879
747.859	35.4142
749.564	36.0892
751.271	37.4943
752.976	39.3189
754.681	42.2871
756.385	42.5196
758.088	44.5641
759.792	46.3198
761.495	47.5889
763.2	48.4051
764.902	49.2146
766.604	49.9948
768.306	50.5228
770.008	51.3122
771.709	52.1986
773.41	52.8514
775.11	53.0027
776.811	54.0071
778.51	53.6123
780.21	53.4847
781.909	54.4714
783.608	56.4335
785.307	56.897
787.005	57.6213
788.703	59.177
790.401	59.1502
792.098	60.0879
793.795	61.0149
795.492	61.1031
797.188	61.269
798.884	61.3787
800.58	61.7495
802.276	63.3537
803.971	64.411
805.665	62.9319
807.36	63.3028
809.054	63.7538
810.748	64.6618
812.441	64.9277
814.135	66.1454
815.826	65.8687
817.518	66.4943
819.21	68.4356
820.902	69.5707
822.594	72.2321
824.285	72.827
825.976	73.0546
827.665	73.7856
829.355	74.944
831.045	75.6082
832.735	76.7004
834.424	77.5672
836.111	76.7809
837.8	77.0116
839.488	77.7846
841.177	76.5976
842.864	75.4203
844.55	74.3415
846.237	73.7019
847.924	72.6338
849.61	71.7959
851.295	70.7091
852.98	70.5467
854.666	70.7187
856.349	70.6042
858.034	69.194
859.719	68.238
861.403	67.4636
863.085	66.5957
864.769	66.8121
866.452	67.8181
868.133	66.2347
869.816	64.5325
871.498	64.4248
873.179	62.8242
874.86	61.0763
876.54	60.3881
878.221	60.1845
879.902	59.78
881.58	56.8541
883.26	54.8662
884.938	54.0331
886.618	54.0068
888.297	53.3303
889.974	52.4508
891.653	51.7925
893.329	50.8655
895.007	50.2991
896.683	48.9593
898.36	48.7605
900.035	49.4775
901.712	49.4074
903.387	50.0251
905.063	48.8772
906.737	48.0614
908.412	48.2208
910.085	47.4581
911.76	46.0247
913.433	45.2576
915.107	46.1186
916.779	46.0938
918.452	45.0481
920.124	43.847
921.797	45.7329
923.467	45.788
925.138	44.8846
926.81	44.5527
928.48	43.9521
930.151	43.3563
931.82	42.8867
933.489	43.0147
935.16	41.9762
936.828	41.1085
938.496	40.5126
940.165	40.4451
941.833	39.9344
943.5	40.0145
945.168	39.6726
946.834	38.1494
948.5	37.1917
950.168	36.6914
951.834	35.4605
953.499	35.5849
955.163	34.3017
956.83	33.5858
958.494	33.2141
960.158	31.7936
961.821	30.756
963.487	30.1523
965.15	28.8827
966.812	31.5024
968.474	33.282
970.138	34.3095
971.8	34.4758
973.461	34.8573
975.123	35.651
976.783	36.5688
978.446	37.5834
980.106	37.8331
981.766	37.8126
983.425	39.3718
985.084	38.7181
986.743	39.5937
988.402	39.6785
990.06	40.4861
991.72	41.0957
993.378	39.3965
995.035	41.2666
996.692	41.8026
998.349	43.371
1000.01	42.7768
1001.66	42.4957
1003.32	44.6772
1004.97	46.219
1006.63	45.943
1008.28	46.1074
1009.94	46.4707
1011.59	46.0507
1013.25	47.496
1014.9	48.5863
1016.55	47.4048
1018.21	47.1697
1019.86	47.0552
1021.51	47.6518
1023.16	48.2381
1024.81	48.1546
1026.47	48.0887
1028.12	48.4209
1029.77	49.7159
1031.42	51.8221
1033.07	53.8073
1034.72	53.8024
1036.37	54.8517
1038.02	55.4038
1039.67	57.1522
1041.31	56.9311
1042.96	57.2385
1044.61	59.3434
1046.26	61.6646
1047.91	62.3716
1049.55	64.2149
1051.2	64.7888
1052.84	65.3917
1054.49	65.996
1056.14	65.6929
1057.78	64.9513
1059.43	64.8736
1061.07	65.2604
1062.72	63.9288
1064.36	63.7802
1066	63.5543
1067.65	63.3439
1069.29	62.7449
1070.93	61.8755
1072.58	61.2901
1074.22	58.8236
1075.86	57.5168
1077.5	57.8857
1079.14	56.3828
1080.78	57.7661
1082.42	56.7945
1084.06	56.8938
1085.7	57.2018
1087.34	55.4174
1088.98	55.3491
1090.62	53.5122
1092.26	53.141
1093.9	53.6119
1095.54	54.3276
1097.17	54.9576
1098.81	55.3088
1100.45	56.9349
1102.09	57.522
1103.72	58.3413
1105.36	59.187
1106.99	59.3521
1108.63	59.9085
1110.27	60.5739
1111.9	61.1433
1113.53	60.8714
1115.17	60.2229
1116.8	59.7239
1118.43	59.5168
1120.07	57.9687
1121.7	56.9114
1123.33	55.9697
1124.97	56.5271
1126.6	55.2539
1128.23	54.1558
1129.86	52.1928
1131.49	50.8538
1133.12	49.027
1134.75	47.7463
1136.38	45.4482
1138.01	44.0289
1139.64	43.5794
1141.27	42.643
1142.9	41.3831
1144.53	38.1604
1146.16	37.0303
1147.78	33.1013
1149.41	30.9385
1151.04	26.6796
1152.67	24.85
1154.29	20.8592
1155.92	17.82
1157.54	18.0316
1159.17	17.4324
1160.8	15.1378
1162.42	12.8177
1164.05	10.8051
1165.67	10.1034
1167.29	9.13559
1168.92	8.20063
1170.54	9.6831
1172.16	9.88967
1173.79	12.031
1175.41	13.2198
1177.03	13.7909
1178.65	14.4622
1180.28	13.9666
1181.9	14.095
1183.52	13.5563
1185.14	13.7703
1186.76	14.156
1188.38	15.0976
1190	15.6727
1191.62	19.0312
1193.24	20.5515
1194.86	21.0554
1196.47	22.4566
1198.09	23.811
1199.71	24.8783
1201.33	26.6851
1202.95	28.5742
1204.56	31.6597
1206.18	33.6732
1207.8	33.2043
1209.41	36.0499
1211.03	38.9772
1212.64	41.4226
1214.26	43.7411
1215.87	47.0034
1217.49	50.5689
1219.1	53.6399
1220.71	56.2134
1222.33	57.8999
1223.94	61.4422
1225.55	63.0456
1227.16	65.1267
1228.78	66.4813
1230.39	69.2376
1232	73.2295
1233.61	76.5351
1235.22	78.88
1236.83	83.1152
1238.44	86.5308
1240.05	88.9244
1241.66	91.6112
1243.27	95.7822
1244.88	100.526
1246.49	103.73
1248.1	106.61
1249.71	108.802
1251.32	112.959
1252.92	115.094
1254.53	117.606
1256.14	118.195
1257.74	121.121
1259.35	123.061
1260.96	124.431
1262.56	127.053
1264.17	129.701
1265.77	132.753
1267.38	134.936
1268.98	137.282
1270.59	140.63
1272.19	144.127
1273.79	144.547
1275.4	146.3
1277	149.192
1278.6	150.985
1280.21	154.019
1281.81	157.042
1283.41	158.913
1285.01	161.736
1286.61	163.715
1288.21	164.902
1289.81	168.107
1291.41	169.743
1293.01	170.441
1294.61	172.177
1296.21	173.96
1297.81	174.947
1299.41	175.506
1301.01	177.112
1302.6	179.094
1304.2	180.1
1305.8	181.089
1307.4	181.833
1308.99	183.13
1310.59	185.203
1312.19	187.358
1313.78	187.513
1315.38	187.649
1316.97	188.028
1318.57	189.043
1320.16	190.699
1321.76	190.675
1323.35	190.259
1324.94	188.275
1326.54	186.177
1328.13	184.791
1329.72	182.781
1331.32	181.506
1332.91	178.484
1334.5	175.826
1336.09	170.719
1337.68	170.288
1339.27	165.978
1340.87	163.082
1342.45	159.744
1344.04	157.266
1345.64	152.785
1347.22	148.956
1348.81	146.141
1350.4	144.132
1351.99	141.096
1353.58	137.403
1355.17	134.024
1356.75	130.157
1358.34	127.492
1359.93	124.628
1361.51	121.844
1363.1	118.599
1364.69	117.162
1366.27	115.19
1367.86	112.062
1369.44	111.096
1371.03	108.875
1372.61	107.373
1374.2	105.519
1375.78	104.092
1377.37	103.933
1378.95	104.273
1380.53	103.705
1382.11	104.124
1383.7	104.076
1385.28	105.273
1386.86	105.187
1388.44	105.009
1390.02	103.722
1391.6	103.376
1393.19	103.477
1394.77	102.96
1396.35	103.289
1397.93	103.616
1399.51	103.475
1401.08	103.886
1402.66	105.256
1404.24	107.334
1405.82	110.901
1407.4	115.25
1408.97	119.392
1410.55	122.542
1412.13	126.854
1413.71	131.652
1415.28	135.976
1416.86	143.417
1418.43	148.558
1420.01	155.994
1421.59	161.994
1423.16	170.454
1424.73	177.778
1426.31	185.645
1427.88	193.996
1429.46	202.567
1431.03	209.912
1432.6	217.074
1434.18	225.584
1435.75	232.939
1437.32	240.932
1438.89	246.717
1440.46	252.553
1442.04	257.917
1443.61	262.436
1445.18	266.249
1446.75	267.497
1448.32	269.869
1449.89	269.351
1451.46	268.754
1453.03	267.472
1454.6	265.76
1456.16	263.862
1457.73	258.886
1459.3	253.79
1460.87	247.85
1462.44	240.923
1464	231.382
1465.57	222.464
1467.14	212.769
1468.7	203.356
1470.27	194.987
1471.83	185.738
1473.4	176.035
1474.96	166.967
1476.53	158.212
1478.09	150.697
1479.66	142.934
1481.22	135.298
1482.78	127.108
1484.35	119.644
1485.91	112.61
1487.47	103.788
1489.04	96.2361
1490.6	90.5419
1492.16	85.642
1493.72	79.8847
1495.28	76.066
1496.84	71.6995
1498.4	67.184
1499.96	63.7149
1501.52	60.2863
1503.08	57.2879
1504.64	55.2585
1506.2	54.1017
1507.76	51.9778
1509.32	49.882
1510.88	49.3993
1512.44	48.2879
1513.99	46.1196
1515.55	45.0378
1517.11	44.7666
1518.66	44.7507
1520.22	44.5377
1521.78	43.0803
1523.33	43.1497
1524.89	42.1747
1526.44	44.0547
1528	43.8931
1529.55	45.693
1531.11	46.4637
1532.66	47.1827
1534.21	47.8762
1535.77	47.834
1537.32	48.9765
1538.87	49.5412
1540.43	49.5721
1541.98	50.756
1543.53	52.1304
1545.08	53.7905
1546.63	56.2634
1548.18	57.3293
1549.74	60.1452
1551.29	61.9105
1552.84	63.3298
1554.39	64.6639
1555.94	66.6658
1557.48	67.2825
1559.03	69.2709
1560.58	70.5069
1562.13	72.7093
1563.68	73.9848
1565.23	75.2235
1566.78	78.1056
1568.32	79.9431
1569.87	81.8127
1571.42	82.7716
1572.96	86.0713
1574.51	88.0412
1576.05	90.9427
1577.6	93.4774
1579.14	96.0826
1580.69	100.149
1582.24	102.867
1583.78	105.727
1585.32	107.496
1586.87	110.359
1588.41	112.622
1589.95	114.729
1591.5	116.716
1593.04	118.663
1594.58	120.733
1596.12	121.495
1597.67	122.504
1599.21	122.944
1600.75	124.892
1602.29	126.002
1603.83	127.026
1605.37	127.405
1606.91	128.349
1608.45	128.094
1609.99	127.847
1611.53	127.554
1613.07	126.87
1614.6	126.785
1616.14	125.33
1617.68	125.812
1619.22	125.907
1620.75	125.863
1622.29	128.021
1623.83	128.459
1625.37	129.94
1626.9	131.678
1628.44	132.588
1629.97	132.801
1631.51	133.758
1633.04	135.501
1634.58	137.159
1636.11	139.417
1637.65	141.046
1639.18	143.186
1640.72	145.125
1642.25	147.711
1643.78	150.185
1645.31	152.126
1646.85	155.827
1648.38	158.468
1649.91	160.617
1651.44	162.33
1652.97	163.595
1654.5	164.321
1656.03	166.04
1657.56	166.06
1659.1	165.464
1660.62	164.654
1662.15	162.911
1663.68	161.849
1665.21	159.796
1666.74	158.609
1668.27	154.881
1669.8	150.084
1671.32	145.838
1672.85	141.867
1674.38	136.871
1675.91	132.081
1677.43	126.572
1678.96	121.108
1680.49	116.061
1682.01	111.354
1683.54	105.605
1685.06	99.5992
1686.59	93.3542
1688.11	87.4462
1689.64	81.7351
1691.16	76.4747
1692.68	71.0459
1694.21	68.3891
1695.73	62.6938
1697.25	60.2369
1698.78	56.9744
1700.3	52.9703
1701.82	50.0569
1703.34	46.0801
1704.86	43.5485
1706.39	40.6401
1707.91	38.5285
1709.43	36.8681
1710.95	34.9174
1712.47	32.7286
1713.99	31.3226
1715.51	31.4973
1717.02	30.101
1718.54	29.3654
1720.06	28.8655
1721.58	28.0098
1723.1	27.2538
1724.62	25.2532
1726.13	24.6672
1727.65	24.6444
1729.17	22.9762
1730.68	22.4056
1732.2	22.5551
1733.72	21.7981
1735.23	20.1438
1736.75	19.2319
1738.26	18.5336
1739.78	17.4663
1741.29	16.5492
1742.81	15.4056
1744.32	13.109
1745.84	12.5394
1747.35	12.1293
1748.86	11.6166
1750.37	10.6629
1751.89	9.76134
1753.4	8.72584
1754.91	9.48454
1756.42	9.70097
1757.93	9.05664
1759.45	8.19845
1760.96	7.88355
1762.47	8.28946
1763.98	7.97674
1765.49	8.3724
1767	8.79535
1768.51	9.4462
1770.02	9.57986
1771.53	9.02396
1773.03	9.63035
1774.54	8.7711
1776.05	8.81677
1777.56	9.18235
1779.07	9.01182
1780.57	8.98033
1782.08	9.12251
1783.59	9.05066
1785.09	9.23062
1786.6	8.36277
1788.11	8.23181
1789.61	8.65258
1791.12	8.88034
1792.62	7.3361
1794.13	6.48009
1795.63	6.17365
1797.13	5.93371
1798.64	5.40623
1800.14	5.4684
1801.65	5.82719
1803.15	4.70404
1804.65	4.03357
1806.15	3.92261
1807.66	3.96962
1809.16	2.46285
1810.66	1.67525
1812.16	1.31388
1813.66	1.07699
1815.16	1.45717
1816.66	1.67275
1818.16	1.51209
1819.66	1.50793
1821.16	1.49471
1822.66	1.17532
1824.16	1.1948
1825.66	1.26613
1827.16	0.390486
1828.66	1.12332
1830.16	1.35391
1831.65	1.20114
1833.15	1.29965
1834.65	1.28716
1836.14	1.55616
1837.64	1.31968
1839.14	0.931269
1840.63	1.45936
1842.13	1.34475
1843.62	0.977666
1845.12	0.357216
1846.61	-0.0934728
1848.11	-0.256992
1849.6	-0.773192
1851.1	-0.321612
1852.59	-0.442208
1854.08	-0.824808
1855.58	0.11384
1857.07	-0.0920949
1858.56	-0.606152
1860.05	-1.163
1861.55	-1.4744
1863.04	-0.350305
1864.53	0.0961695
1866.02	-0.0511726
1867.51	0.326199
1869	0.568948
1870.49	0.63308
1871.98	0.293951
1873.47	0.725324
1874.96	1.46145
1876.45	1.61483
1877.94	1.04186
1879.43	2.17848
1880.92	2.49284
1882.41	3.54734
1882.51	3.49461
1884	3.85312
1885.5	3.89654
1886.99	4.68177
1888.48	4.59684
1889.98	5.11177
1891.47	4.92904
1892.96	5.29521
1894.46	5.43472
1895.95	5.70499
1897.44	6.09926
1898.93	6.00033
1900.42	5.57113
1901.91	5.63636
1903.41	5.56102
1904.9	5.92888
1906.39	6.08621
1907.88	6.1653
1909.37	6.98027
1910.86	6.97718
1912.35	7.32155
1913.83	7.7455
1915.32	7.82958
1916.81	7.13096
1918.3	6.87286
1919.79	6.72827
1921.27	7.85589
1922.76	8.12057
1924.25	9.22868
1925.74	9.21771
1927.22	9.44288
1928.71	10.1292
1930.19	9.11984
1931.68	8.24833
1933.17	8.4254
1934.65	7.82336
1936.14	7.72042
1937.62	6.93187
1939.11	6.54751
1940.59	6.80985
1942.07	6.62397
1943.56	7.22773
1945.04	6.89938
1946.52	7.30738
1948.01	7.20408
1949.49	6.82813
1950.97	6.50803
1952.45	5.95827
1953.93	5.42183
1955.42	5.30114
1956.9	4.01129
1958.38	4.03317
1959.86	3.43806
1961.34	3.24196
1962.82	3.61088
1964.3	3.59163
1965.78	2.96367
1967.26	3.21459
1968.74	3.15643
1970.21	3.35769
1971.69	4.14331
1973.17	3.29742
1974.65	3.30296
1976.13	3.24124
1977.6	3.85654
1979.08	4.02916
1980.56	3.6639
1982.03	4.14408
1983.51	4.01166
1984.99	3.85502
1986.46	3.94049
1987.94	4.4347
1989.41	3.70256
1990.89	2.66124
1992.36	3.41696
1993.84	4.01746
1995.31	4.95186
1996.78	4.2872
1998.26	3.67281
1999.73	3.54529
2001.2	4.27578
2002.68	4.82764
2004.15	4.19924
2005.62	3.54901
2007.09	4.08921
2008.56	4.21984
2010.04	5.06872
2011.51	5.14481
2012.98	5.9709
2014.45	5.96121
2015.92	5.20141
2017.39	5.00269
2018.86	4.16588
2020.33	5.32983
2021.8	5.02153
2023.26	4.90181
2024.73	4.87871
2026.2	5.42631
2027.67	6.64368
2029.14	6.71958
2030.61	6.67156
2032.07	7.20688
2033.54	6.82534
2035.01	7.70536
2036.47	8.00712
2037.94	8.10952
2039.4	8.19448
2040.87	8.14014
2042.33	8.63945
2043.8	9.13606
2045.27	9.55817
2046.73	8.26675
2048.19	8.44957
2049.66	8.28256
2051.12	8.74412
2052.59	8.08189
2054.05	7.96016
2055.51	8.23849
2056.97	7.71222
2058.44	8.06947
2059.9	8.04921
2061.36	7.96543
2062.82	7.43497
2064.28	8.04906
2065.74	8.92206
2067.21	8.92114
2068.67	8.90481
2070.13	9.31646
2071.59	9.45292
2073.05	10.8876
2074.51	11.8748
2075.96	12.2069
2077.42	12.7133
2078.88	13.0548
2080.34	13.9431
2081.8	14.3761
2083.26	14.7233
2084.72	15.1555
2086.17	16.9097
2087.63	17.026
2089.09	17.5529
2090.54	19.2077
2092	19.7781
2093.45	19.9611
2094.91	20.9837
2096.37	22.8018
2097.82	23.5316
2099.28	24.549
2100.73	25.1238
2102.19	25.4875
2103.64	26.3573
2105.09	27.9533
2106.55	28.8858
2108	30.3454
2109.45	31.2088
2110.91	32.7919
2112.36	33.3743
2113.81	34.9192
2115.26	36.8441
2116.72	37.631
2118.17	39.0945
2119.62	40.4915
2121.07	42.1189
2122.52	43.0172
2123.97	44.741
2125.42	45.9229
2126.87	48.1393
2128.32	49.912
2129.77	51.9906
2131.22	54.4354
2132.67	56.5046
2134.11	58.1477
