#Acq. time (s)=	45
#Accumulations=	2
#Range (cm-¹)=	200...3150
#Windows=	2
#Auto scanning=	Off
#Autofocus=	Off
#Macrospot=	Off
#AutoExposure=	Off
#Spike filter=	Multiple accum.
#Delay time (s)=	0
#Binning=	1
#Readout mode=	Signal
#DeNoise=	Off
#ICS correction=	On
#Dark correction=	Off
#Inst. Process=	Off
#Detector Gain=	Best Dynamic Range
#Detector ADC=	20 kHz       
#Detector temperature (°C)=	-70.08
#Instrument=	LabRAM HR Evol
#Detector=	Synapse
#Objective=	x100
#Grating=	600 gr/mm
#ND Filter=	100%
#Laser (nm)=	532 
#Hole=	100.021
#Range=	Auto
#Laser Pol.=	No
#Raman. Pol.=	No
#Laser Pol. (°)=	-0.0007625
#Raman Pol. (°)=	89.9995
#Collection=	Microscope
#StageXY=	Marzhauser
#StageZ=	Marzhauser
#X (µm)=	491.8
#Y (µm)=	2978.9
#Z (µm)=	-8.9
#Full time(mm:ss)=	3:14
#Project=	
#Sample=	
#Site=	
#Title=	Mb_20_23_46_2x_45s_532 nm_x100_100%_600 gr_mm
#Remark=	
#Date=	14.07.2022 09:50
#Acquired=	14.07.2022 09:50:19
#Base:Fit=	10.08.2022 10:29:37
#Base:Sub=	10.08.2022 10:35:48
#Filter:Polynom=	16.08.2022 10:13:29
#AxisType[0]=Intens
#AxisUnit[0]=Cnt
#AxisType[1]=Spectr
#AxisUnit[1]=1/cm
200.554	-0.570233
202.369	4.00161
204.183	6.60779
205.999	7.766
207.813	9.24302
209.626	10.3403
211.439	11.0864
213.253	11.4034
215.065	12.8405
216.877	14.4092
218.688	16.6521
220.5	16.0136
222.312	17.1243
224.123	17.6036
225.933	16.1391
227.742	15.1231
229.552	14.1482
231.361	14.4191
233.171	15.1301
234.98	15.5309
236.787	15.427
238.595	15.1406
240.402	15.7913
242.209	15.9557
244.015	16.4312
245.822	16.4867
247.627	15.9838
249.435	15.7252
251.24	14.8206
253.045	14.9853
254.849	14.4789
256.653	13.8432
258.457	14.3158
260.26	14.3533
262.063	12.9521
263.866	13.2024
265.668	12.0365
267.47	13.4772
269.271	13.5691
271.073	14.1829
272.873	13.8789
274.674	12.7706
276.474	11.5887
278.274	10.3855
280.073	10.7082
281.872	10.4006
283.671	8.63527
285.47	9.30925
287.268	8.8537
289.065	8.59335
290.863	8.68539
292.66	7.65859
294.456	6.9848
296.253	5.25954
298.049	5.69909
299.844	5.86075
301.637	5.3276
303.432	5.68192
305.227	6.7417
307.021	6.97474
308.815	6.96485
310.609	6.29363
312.402	7.85646
314.195	7.6004
315.987	6.48792
317.777	7.58805
319.569	8.34017
321.36	9.95929
323.151	9.96207
324.942	9.44159
326.733	10.5007
328.521	11.4751
330.31	12.8295
332.1	14.5094
333.889	16.0657
335.677	16.3626
337.464	16.2962
339.252	17.9951
341.039	19.642
342.826	21.8972
344.611	22.252
346.398	23.5943
348.184	24.9967
349.97	24.18
351.754	25.815
353.539	25.8402
355.324	25.6485
357.106	25.9246
358.89	25.4531
360.674	24.886
362.455	24.6394
364.239	25.979
366.021	27.2518
367.804	27.5282
369.584	27.8609
371.366	26.913
373.145	26.9063
374.926	26.773
376.707	25.1744
378.485	25.0421
380.265	24.2946
382.045	24.0011
383.822	23.8219
385.601	24.451
387.378	25.6533
389.156	24.8798
390.934	25.161
392.71	25.3953
394.487	26.3901
396.262	25.453
398.038	25.0553
399.813	24.2329
401.588	23.5759
403.362	20.9598
405.137	20.178
406.912	20.2069
408.685	19.2733
410.459	19.748
412.23	18.9821
414.004	20.2173
415.775	21.0057
417.548	21.2388
419.318	22.3143
421.089	22.1696
422.86	21.2344
424.63	20.742
426.401	20.8351
428.17	21.7004
429.94	22.3163
431.708	21.5979
433.478	21.8403
435.245	20.9177
437.012	20.1423
438.781	18.7597
440.547	19.0343
442.315	18.3731
444.081	20.3777
445.846	20.3327
447.613	20.0668
449.378	20.0312
451.142	22.0093
452.908	22.9221
454.672	23.664
456.435	22.2149
458.2	22.4428
459.963	22.2181
461.725	22.9017
463.489	22.3054
465.251	22.9173
467.012	24.4244
468.775	25.8501
470.536	25.6662
472.296	26.1992
474.056	27.5305
475.817	27.806
477.576	29.4872
479.335	29.8808
481.094	30.1127
482.854	31.2208
484.612	30.6475
486.37	32.6881
488.127	33.1038
489.886	34.8347
491.642	35.0812
493.398	37.3901
495.154	38.4456
496.91	39.8053
498.667	41.4409
500.422	42.4607
502.176	43.6187
503.93	43.9024
505.684	44.1741
507.438	44.592
509.191	43.2994
510.946	44.8334
512.698	45.3661
514.45	45.0596
516.202	45.8099
517.954	45.5523
519.705	43.8035
521.456	43.8994
523.206	43.4119
524.956	42.1627
526.706	41.1588
528.456	41.451
530.207	41.8702
531.956	41.1939
533.704	39.6273
535.452	38.4728
537.2	38.6463
538.947	39.4321
540.694	37.5471
542.441	35.4442
544.188	33.7174
545.934	32.4783
547.68	30.915
549.425	29.5319
551.17	28.9865
552.915	28.5253
554.659	27.4455
556.403	26.4773
558.145	25.31
559.889	24.921
561.632	23.8326
563.375	22.0073
565.117	21.3868
566.859	19.7611
568.601	19.0222
570.342	17.2362
572.083	15.8421
573.824	14.649
575.565	13.9487
577.303	13.0643
579.043	11.9046
580.782	11.2043
582.521	12.0276
584.26	12.0319
585.998	10.9948
587.734	9.60982
589.472	8.63033
591.21	7.89416
592.947	7.54312
594.684	6.91311
596.418	5.89379
598.154	7.39953
599.89	6.78457
601.626	6.15428
603.361	7.39957
605.094	6.48726
606.828	7.07245
608.562	8.28158
610.296	7.65633
612.027	6.89364
613.761	8.16432
615.493	9.70055
617.224	9.81007
618.956	9.08048
620.688	9.21125
622.419	9.07416
624.149	9.62454
625.879	10.473
627.61	9.82986
629.338	9.47575
631.068	10.2773
632.797	9.28387
634.525	9.35953
636.254	9.66317
637.98	8.83973
639.708	7.08383
641.436	7.0749
643.162	7.07582
644.889	7.15736
646.614	6.514
648.34	6.86211
650.067	6.68786
651.791	6.65371
653.516	5.45326
655.239	4.43241
656.964	4.60047
658.687	4.81475
660.411	4.75187
662.133	4.61061
663.857	4.14551
665.58	4.85267
667.301	4.88642
669.024	5.99038
670.744	4.48032
672.464	3.8193
674.186	2.99752
675.905	3.39195
677.626	2.91166
679.345	2.96564
681.065	2.90111
682.783	3.98147
684.503	5.61303
686.22	5.72168
687.939	6.72042
689.656	8.5591
691.372	7.33186
693.09	7.87466
694.806	7.71326
696.523	7.55809
698.239	8.70416
699.953	8.57427
701.67	9.1386
703.384	9.51945
705.098	11.1093
706.813	11.1334
708.526	12.2617
710.239	12.8022
711.954	12.8593
713.666	13.285
715.378	13.5377
717.091	14.0685
718.802	13.8868
720.513	14.1465
722.226	14.4388
723.936	14.015
725.646	15.6144
727.355	17.4122
729.067	18.5067
730.776	19.3821
732.484	20.5598
734.192	21.5174
735.902	21.3005
737.61	21.6123
739.317	21.9922
741.024	22.6968
742.731	24.7431
744.439	24.8579
746.145	25.5521
747.851	27.5752
749.556	29.8863
751.262	31.1117
752.966	32.0576
754.673	33.0003
756.377	34.0861
758.081	34.7502
759.784	34.6631
761.487	36.386
763.19	37.3009
764.892	38.4816
766.594	40.6628
768.296	41.5291
770	42.9361
771.701	43.8847
773.402	45.1435
775.102	46.0468
776.803	45.5331
778.503	45.8035
780.202	46.5904
781.901	47.5596
783.6	48.3247
785.299	48.2342
786.997	49.673
788.695	50.6742
790.393	51.7548
792.09	50.887
793.787	52.0132
795.484	51.595
797.18	51.9149
798.877	53.1547
800.572	52.2176
802.268	52.5373
803.963	54.1151
805.658	54.3786
807.35	55.9103
809.044	57.3363
810.738	58.7506
812.432	59.1165
814.125	59.925
815.818	59.1632
817.51	60.0442
819.202	60.3026
820.894	60.41
822.584	60.716
824.275	61.2156
825.966	61.9086
827.657	62.3924
829.347	61.9147
831.037	62.4889
832.725	63.659
834.414	63.7101
836.103	64.207
837.792	64.3764
839.481	65.2209
841.167	66.1262
842.854	65.885
844.542	65.7411
846.229	65.4348
847.914	65.1973
849.6	65.0984
851.287	65.1869
852.973	63.8514
854.656	63.0948
856.341	62.3408
858.026	61.4299
859.711	60.3986
861.393	58.6001
863.077	57.6232
864.761	57.2218
866.442	55.8707
868.125	54.4814
869.808	53.947
871.489	53.8689
873.171	54.1047
874.85	53.6503
876.532	51.3133
878.213	50.5166
879.892	49.7418
881.572	48.7717
883.251	48.2968
884.931	47.993
886.61	47.9267
888.287	46.9218
889.966	45.4749
891.643	46.4559
893.321	47.161
894.997	45.5039
896.675	44.5101
898.352	44.3615
900.028	43.4468
901.704	44.1719
903.379	43.841
905.055	42.696
906.729	41.5669
908.404	39.9764
910.077	39.6985
911.75	38.4107
913.425	38.265
915.097	37.895
916.771	37.6029
918.443	37.6213
920.116	37.2396
921.787	35.9239
923.46	36.1202
925.13	35.1
926.8	34.5417
928.472	33.2169
930.141	31.6726
931.813	30.9475
933.481	30.0404
935.15	29.1667
936.82	27.2323
938.488	25.5159
940.156	24.0182
941.825	23.5099
943.492	21.0888
945.158	18.7544
946.827	15.8505
948.493	14.4742
950.158	13.5523
951.824	12.5896
953.491	12.756
955.156	10.5997
956.82	9.22506
958.486	6.97202
960.15	5.41627
961.814	5.22248
963.477	6.48139
965.142	6.96312
966.804	8.19452
968.467	8.50238
970.129	8.16723
971.79	9.27343
973.454	11.1176
975.115	12.6867
976.776	13.1511
978.436	13.3992
980.096	14.6394
981.756	15.3998
983.417	16.4791
985.077	17.8114
986.736	17.9357
988.394	17.7419
990.052	18.1924
991.71	17.8387
993.368	19.0409
995.025	19.397
996.682	19.901
998.341	21.113
999.998	22.0104
1001.65	23.0249
1003.31	23.0616
1004.97	23.8606
1006.62	25.1979
1008.28	26.3332
1009.93	27.9635
1011.58	28.1208
1013.24	28.8218
1014.89	30.8596
1016.54	32.1416
1018.2	32.2913
1019.85	33.3778
1021.5	36.0679
1023.16	36.8499
1024.81	39.4268
1026.46	40.4691
1028.11	43.6681
1029.76	47.0012
1031.41	52.1345
1033.06	54.859
1034.71	57.382
1036.36	58.8563
1038.01	61.3025
1039.66	64.8436
1041.31	68.6627
1042.95	72.191
1044.6	75.1386
1046.25	79.2658
1047.9	80.0513
1049.54	83.1104
1051.19	84.6159
1052.84	87.1238
1054.48	90.0535
1056.13	91.8921
1057.77	92.7954
1059.42	93.1349
1061.06	93.557
1062.71	92.9262
1064.35	93.4438
1066	94.4948
1067.64	93.1977
1069.28	90.3262
1070.93	88.4266
1072.57	86.7371
1074.21	83.521
1075.85	81.4529
1077.49	78.7167
1079.13	74.5344
1080.78	71.2265
1082.42	65.8013
1084.06	61.0594
1085.7	57.4062
1087.34	55.1788
1088.97	53.8341
1090.61	52.6161
1092.25	51.3105
1093.89	50.5935
1095.53	49.79
1097.17	49.3935
1098.8	49.0835
1100.44	48.9667
1102.08	49.9153
1103.71	50.0465
1105.35	48.734
1106.99	50.0404
1108.62	50.1023
1110.26	50.5853
1111.89	50.4063
1113.52	49.3111
1115.16	48.4274
1116.79	47.6066
1118.43	48.3277
1120.06	49.2692
1121.69	47.6274
1123.32	47.3047
1124.96	46.3305
1126.59	45.6089
1128.22	45.8655
1129.85	44.5947
1131.48	44.8221
1133.11	42.7778
1134.75	42.1672
1136.37	40.7002
1138	38.5357
1139.63	36.3529
1141.26	35.0963
1142.89	33.5166
1144.52	31.3205
1146.15	28.4867
1147.78	25.9373
1149.4	22.2951
1151.03	19.7323
1152.66	18.0147
1154.28	15.5879
1155.91	11.4912
1157.54	8.34372
1159.16	5.32164
1160.79	1.69297
1162.41	0.23377
1164.04	-1.67341
1165.66	-2.1188
1167.29	-1.04151
1168.91	0.524323
1170.53	1.53175
1172.16	1.66672
1173.78	3.1917
1175.4	3.89923
1177.02	4.57037
1178.65	5.77557
1180.27	6.49759
1181.89	7.34517
1183.51	8.22114
1185.13	8.09696
1186.75	8.45042
1188.37	9.06254
1189.99	9.15198
1191.61	9.62967
1193.23	10.2532
1194.85	11.3813
1196.47	13.27
1198.08	14.2945
1199.7	14.659
1201.32	14.1639
1202.94	15.064
1204.55	16.3002
1206.17	17.4678
1207.79	19.0487
1209.4	21.0341
1211.02	21.8789
1212.63	23.1181
1214.25	24.6633
1215.86	26.6198
1217.48	28.0328
1219.09	29.2814
1220.71	30.6932
1222.32	32.7357
1223.93	33.6987
1225.54	36.1571
1227.16	38.0659
1228.77	41.5372
1230.38	42.8728
1231.99	44.2818
1233.6	45.7703
1235.22	47.4222
1236.83	49.4166
1238.44	51.312
1240.05	53.4727
1241.66	55.0714
1243.26	57.6004
1244.87	58.7593
1246.48	60.7065
1248.09	64.0576
1249.7	66.5257
1251.31	67.8948
1252.92	67.9928
1254.52	69.2398
1256.13	70.5565
1257.74	73.8219
1259.34	76.2506
1260.95	78.1742
1262.55	82.6048
1264.16	85.1708
1265.76	87.2073
1267.37	91.5121
1268.97	95.8417
1270.58	100.283
1272.18	105.47
1273.78	110.393
1275.39	115.046
1276.99	118.627
1278.59	122.56
1280.2	126.538
1281.8	131.101
1283.4	135.712
1285	139.543
1286.6	143.198
1288.2	146.802
1289.8	150.432
1291.4	152.604
1293	156.202
1294.6	159.518
1296.2	162.397
1297.8	163.987
1299.4	165.763
1301	167.401
1302.6	169.127
1304.19	168.86
1305.79	169.015
1307.39	167.581
1308.99	167.111
1310.58	165.118
1312.18	163.779
1313.77	162.297
1315.37	160.265
1316.96	157.696
1318.56	154.164
1320.15	150.299
1321.75	147.06
1323.34	143.844
1324.94	138.577
1326.53	134.81
1328.12	130.82
1329.72	126.58
1331.31	122.244
1332.9	117.953
1334.49	116.059
1336.08	114.162
1337.67	111.699
1339.27	108.51
1340.86	106.424
1342.45	105.504
1344.04	102.303
1345.63	101.078
1347.22	100.226
1348.8	98.9702
1350.39	98.1783
1351.98	96.9123
1353.57	95.323
1355.16	94.1719
1356.75	92.5905
1358.33	92.7003
1359.92	91.914
1361.51	91.1131
1363.09	90.9667
1364.68	89.9523
1366.27	88.5793
1367.85	88.4566
1369.44	89.1089
1371.02	89.2167
1372.61	89.8223
1374.19	89.3251
1375.77	89.4462
1377.36	89.3135
1378.94	90.1656
1380.52	89.9466
1382.11	90.0278
1383.69	89.16
1385.27	89.804
1386.85	91.3195
1388.43	92.4932
1390.02	93.2462
1391.6	93.1323
1393.18	93.5827
1394.76	94.1602
1396.34	93.5426
1397.92	93.5319
1399.5	94.8243
1401.08	97.2114
1402.65	101.414
1404.23	106.172
1405.81	112.703
1407.39	119.662
1408.97	127.533
1410.54	133.902
1412.12	141.237
1413.7	149.079
1415.27	156.999
1416.85	164.836
1418.43	174.15
1420	183.803
1421.58	193.094
1423.15	203.504
1424.73	213.919
1426.3	223.713
1427.87	234.701
1429.45	244.343
1431.02	252.536
1432.6	261.921
1434.17	270.209
1435.74	278.182
1437.31	285.839
1438.89	291.144
1440.46	296.964
1442.03	300.56
1443.6	302.988
1445.17	304.92
1446.74	306.169
1448.31	307.275
1449.88	306.307
1451.45	302.967
1453.02	299.929
1454.59	295.622
1456.16	288.97
1457.72	281.697
1459.29	272.625
1460.86	264.397
1462.43	254.023
1463.99	243.434
1465.56	232.228
1467.13	219.508
1468.69	206.059
1470.26	191.519
1471.83	178.82
1473.39	165.754
1474.95	153.813
1476.52	143.097
1478.08	133.701
1479.65	123.919
1481.21	115.793
1482.78	107.492
1484.34	98.3257
1485.9	91.0174
1487.47	83.4528
1489.03	76.078
1490.59	70.2065
1492.15	63.7952
1493.71	58.8497
1495.27	54.8796
1496.84	51.5298
1498.39	49.3691
1499.96	47.1394
1501.52	45.7362
1503.07	43.025
1504.64	42.5663
1506.19	41.191
1507.75	39.2641
1509.31	39.1266
1510.87	38.3139
1512.43	37.8109
1513.98	37.1247
1515.54	37.0564
1517.1	35.4469
1518.65	35.1429
1520.21	34.5549
1521.77	34.5476
1523.32	34.6411
1524.88	34.6137
1526.44	35.4129
1527.99	35.0129
1529.54	34.8645
1531.1	35.36
1532.65	35.7443
1534.21	35.5403
1535.76	36.2721
1537.31	37.7722
1538.87	38.0249
1540.42	37.8823
1541.97	38.5544
1543.52	39.0245
1545.07	39.1993
1546.63	39.4317
1548.18	40.1791
1549.73	41.6003
1551.28	41.8075
1552.83	42.2762
1554.38	43.4851
1555.93	44.9203
1557.48	46.0256
1559.03	48.0378
1560.57	50.7465
1562.12	52.0531
1563.67	54.8219
1565.22	56.8633
1566.77	59.2709
1568.31	61.2327
1569.86	63.579
1571.41	66.7173
1572.95	69.3741
1574.5	71.7306
1576.05	75.2707
1577.59	77.5541
1579.14	79.6345
1580.68	81.6831
1582.23	84.7368
1583.77	85.3579
1585.31	87.9095
1586.86	89.9761
1588.4	90.607
1589.95	92.5846
1591.49	92.9432
1593.03	94.5453
1594.57	94.5895
1596.11	96.283
1597.66	97.3155
1599.2	97.5702
1600.74	98.0783
1602.28	98.4905
1603.82	99.4954
1605.36	98.988
1606.9	98.9955
1608.44	98.0527
1609.98	97.293
1611.52	96.2176
1613.06	95.909
1614.6	95.1114
1616.13	93.3106
1617.67	92.3895
1619.21	91.1418
1620.75	89.5164
1622.28	88.644
1623.82	87.3681
1625.36	85.7284
1626.89	84.9463
1628.43	84.1797
1629.96	83.0976
1631.5	84.4564
1633.04	83.8026
1634.57	84.5472
1636.11	86.0451
1637.64	87.7202
1639.17	88.9915
1640.71	90.129
1642.24	90.7354
1643.77	91.6803
1645.31	93.1856
1646.84	94.9917
1648.37	95.8845
1649.9	96.0342
1651.43	97.2686
1652.96	97.7965
1654.5	97.3293
1656.03	96.8894
1657.56	97.2852
1659.09	96.7208
1660.62	96.3921
1662.15	96.1407
1663.67	94.7192
1665.2	93.055
1666.73	91.5862
1668.26	89.6377
1669.79	87.619
1671.32	85.3979
1672.84	83.3381
1674.37	81.4138
1675.9	78.606
1677.43	76.2395
1678.95	73.5014
1680.48	70.2777
1682	66.5747
1683.53	63.68
1685.05	60.7701
1686.58	58.7143
1688.1	56.8581
1689.63	54.0007
1691.15	51.9126
1692.68	49.7897
1694.2	47.9017
1695.72	46.7245
1697.25	44.7584
1698.77	43.6211
1700.29	42.3475
1701.81	41.1859
1703.33	40.6048
1704.86	39.6992
1706.38	39.2446
1707.9	40.5346
1709.42	40.1268
1710.94	40.6873
1712.46	40.0665
1713.98	39.2166
1715.5	38.2469
1717.02	37.2723
1718.54	36.0146
1720.06	36.035
1721.57	36.145
1723.09	35.6412
1724.61	35.6132
1726.13	34.6839
1727.64	34.2311
1729.16	33.4301
1730.68	32.9564
1732.19	32.0181
1733.71	32.1563
1735.23	30.8451
1736.74	30.4443
1738.26	29.0052
1739.77	27.861
1741.29	26.7318
1742.8	26.479
1744.31	25.4241
1745.83	24.8955
1747.34	24.7388
1748.85	24.0023
1750.37	23.0712
1751.88	21.5317
1753.39	20.4458
1754.91	19.2639
1756.42	18.1595
1757.93	17.8569
1759.44	16.9839
1760.95	16.1292
1762.46	15.0259
1763.97	13.7634
1765.48	13.2395
1766.99	13.5307
1768.5	12.2069
1770.01	11.6355
1771.52	10.6168
1773.03	9.60385
1774.54	9.02975
1776.04	8.31248
1777.55	7.32323
1779.06	6.82676
1780.57	6.65773
1782.07	6.78324
1783.58	6.26186
1785.09	5.28076
1786.59	4.16165
1788.1	2.73914
1789.6	2.13349
1791.11	1.80323
1792.61	1.38459
1794.12	0.731012
1795.62	1.2013
1797.13	1.34159
1798.63	0.764184
1800.13	1.06071
1801.64	0.903305
1803.14	0.699068
1804.64	1.13019
1806.15	1.53376
1807.65	1.68647
1809.15	2.67689
1810.65	1.98583
1812.15	2.61463
1813.65	2.69608
1815.16	2.86856
1816.66	3.33658
1818.15	3.09633
1819.66	2.35536
1821.16	3.03742
1822.65	3.49844
1824.15	3.27841
1825.65	3.28318
1827.15	3.65135
1828.65	3.56774
1830.15	3.52584
1831.64	3.665
1833.14	3.7092
1834.64	3.18441
1836.14	3.41418
1837.63	2.84155
1839.13	3.29529
1840.62	3.36147
1842.12	2.71708
1843.62	2.39433
1845.11	2.97816
1846.61	3.03272
1848.1	3.12099
1849.6	2.96328
1851.09	2.46982
1852.58	2.94313
1854.08	3.22713
1855.57	3.42311
1857.06	3.48555
1858.55	3.64178
1860.05	3.86011
1861.54	3.40978
1863.03	3.59563
1864.52	3.23028
1866.01	3.75009
1867.5	3.6132
1869	3.99717
1870.49	4.59767
1871.98	4.70486
1873.47	5.42361
1874.96	6.31993
1876.44	6.15835
1877.93	5.1345
1879.42	5.05134
1880.91	5.24245
1882.4	4.8051
1882.47	4.2378
1883.96	4.1483
1885.46	4.28328
1886.95	3.74123
1888.44	3.19059
1889.94	2.55117
1891.43	2.33241
1892.93	3.02214
1894.42	4.1728
1895.91	4.53836
1897.4	4.26173
1898.89	4.72536
1900.39	5.1788
1901.88	4.56349
1903.37	4.23193
1904.86	4.46135
1906.35	4.71566
1907.84	4.91486
1909.33	4.94385
1910.82	4.08484
1912.31	5.01764
1913.8	4.57989
1915.29	4.57053
1916.77	5.33783
1918.26	5.78992
1919.75	5.30319
1921.24	5.25965
1922.73	5.26724
1924.21	5.09886
1925.7	5.69552
1927.19	5.30764
1928.67	5.3069
1930.16	5.3485
1931.64	5.75698
1933.13	5.98952
1934.61	5.48688
1936.1	4.85978
1937.58	4.37677
1939.07	5.22971
1940.55	4.72324
1942.04	4.74956
1943.52	4.92783
1945	4.63673
1946.49	4.36292
1947.97	3.73349
1949.45	2.36119
1950.93	2.83265
1952.42	3.76214
1953.9	3.71971
1955.38	3.45433
1956.86	3.51583
1958.34	4.26929
1959.82	3.70631
1961.3	3.65497
1962.78	3.99806
1964.26	4.62876
1965.74	5.54029
1967.22	5.97262
1968.7	5.91271
1970.18	5.75816
1971.65	5.4668
1973.13	5.23602
1974.61	4.77992
1976.09	4.8954
1977.57	5.17298
1979.04	4.92401
1980.52	5.00464
1982	4.81997
1983.47	4.19366
1984.95	4.00241
1986.42	3.88991
1987.9	3.5206
1989.37	3.39244
1990.85	3.9921
1992.32	3.4592
1993.8	2.48472
1995.27	2.85145
1996.75	2.67393
1998.22	2.49899
1999.69	2.9249
2001.17	3.20394
2002.64	3.18658
2004.11	3.0198
2005.58	2.52293
2007.05	2.58101
2008.53	1.46697
2010	1.02971
2011.47	1.42171
2012.94	1.55707
2014.41	1.4086
2015.88	2.2148
2017.35	1.93202
2018.82	1.32199
2020.29	1.85944
2021.76	3.16269
2023.23	3.69107
2024.7	5.67051
2026.16	6.02864
2027.63	5.92797
2029.1	6.59256
2030.57	7.8712
2032.03	8.55396
2033.5	8.9318
2034.97	9.99513
2036.44	10.5762
2037.9	10.0613
2039.37	10.0319
2040.83	10.302
2042.3	10.3137
2043.76	10.4148
2045.23	10.8881
2046.69	11.1561
2048.16	11.5072
2049.62	12.6422
2051.08	12.2137
2052.55	11.586
2054.01	12.0562
2055.47	12.1106
2056.94	12.283
2058.4	11.69
2059.86	12.3874
2061.32	12.7533
2062.79	12.9656
2064.25	13.2786
2065.71	12.5072
2067.17	12.3147
2068.63	13.385
2070.09	13.2485
2071.55	12.7376
2073.01	11.6779
2074.47	10.788
2075.93	8.89415
2077.39	8.19509
2078.85	8.20176
2080.31	8.97813
2081.76	8.93974
2083.22	8.67591
2084.68	8.58447
2086.13	8.60273
2087.59	8.77055
2089.05	9.64591
2090.51	9.44986
2091.96	10.5544
2093.42	11.3164
2094.87	12.91
2096.33	12.9719
2097.78	13.6074
2099.24	13.981
2100.69	14.5564
2102.15	15.5812
2103.6	16.2274
2105.06	16.7348
2106.51	17.6102
2107.96	17.2834
2109.42	17.0251
2110.87	16.6484
2112.32	18.2063
2113.77	18.6428
2115.23	18.9319
2116.68	19.6314
2118.13	20.5611
2119.58	20.5513
2121.03	21.6476
2122.48	22.7096
2123.93	22.8222
2125.38	24.1391
2126.83	25.7693
2128.28	26.7297
2129.73	27.3772
2131.18	28.4684
2132.63	30.7948
2134.08	31.1828
2135.53	32.3259
2136.97	33.4553
2138.42	34.4947
2139.87	35.4349
2141.32	36.9619
