#Acq. time (s)=	45
#Accumulations=	2
#Range (cm-¹)=	200...3150
#Windows=	2
#Auto scanning=	Off
#Autofocus=	Off
#Macrospot=	Off
#AutoExposure=	Off
#Spike filter=	Multiple accum.
#Delay time (s)=	0
#Binning=	1
#Readout mode=	Signal
#DeNoise=	Off
#ICS correction=	On
#Dark correction=	Off
#Inst. Process=	Off
#Detector Gain=	Best Dynamic Range
#Detector ADC=	20 kHz       
#Detector temperature (°C)=	-69.85
#Instrument=	LabRAM HR Evol
#Detector=	Synapse
#Objective=	x100
#Grating=	600 gr/mm
#ND Filter=	100%
#Laser (nm)=	532 
#Hole=	100.021
#Range=	Auto
#Laser Pol.=	No
#Raman. Pol.=	No
#Laser Pol. (°)=	-0.0007625
#Raman Pol. (°)=	89.9995
#Collection=	Microscope
#StageXY=	Marzhauser
#StageZ=	Marzhauser
#X (µm)=	-6987.9
#Y (µm)=	2089.2
#Z (µm)=	-75.05
#Full time(mm:ss)=	3:18
#Project=	
#Sample=	
#Site=	
#Title=	Mb_20_23_15_2x_45s_532 nm_x100_100%_600 gr_mm
#Remark=	
#Date=	13.07.2022 14:01
#Acquired=	13.07.2022 14:01:04
#Edit:Spike=	13.07.2022 14:03:54
#Base:Fit=	10.08.2022 10:29:37
#Base:Sub=	10.08.2022 10:32:28
#Filter:Polynom=	16.08.2022 10:13:29
#AxisType[0]=Intens
#AxisUnit[0]=Cnt
#AxisType[1]=Spectr
#AxisUnit[1]=1/cm
200.563	146.591
202.377	142.049
204.194	135.908
206.008	131.212
207.821	126.485
209.634	121.648
211.449	117.262
213.262	113.015
215.074	109.121
216.885	105.084
218.699	99.1547
220.51	94.9081
222.321	90.362
224.131	85.4146
225.941	81.2828
227.751	75.9361
229.562	72.1723
231.371	68.1885
233.18	65.0273
234.988	62.613
236.796	61.0678
238.603	58.2848
240.411	55.5857
242.219	53.3953
244.026	51.1222
245.832	49.7154
247.638	47.5842
249.443	44.9092
251.248	42.5371
253.053	40.8863
254.857	37.515
256.661	36.0366
258.465	35.4462
260.268	33.2923
262.071	32.0499
263.874	32.1157
265.678	30.5107
267.48	28.211
269.282	27.1643
271.083	24.8048
272.884	23.5475
274.684	20.7843
276.484	18.7047
278.284	14.5965
280.084	12.6898
281.883	11.1256
283.682	11.2521
285.48	10.4904
287.276	8.69275
289.074	7.44894
290.871	6.72181
292.668	7.83547
294.465	9.22034
296.261	9.31661
298.057	10.2266
299.853	10.726
301.648	10.8669
303.443	11.7567
305.237	11.8221
307.032	11.7675
308.823	12.5562
310.617	14.2602
312.41	15.0749
314.203	15.8638
315.995	17.3307
317.788	18.5422
319.579	20.9234
321.369	22.5323
323.16	24.3737
324.951	25.5096
326.741	26.3757
328.531	25.6838
330.321	28.2514
332.108	29.9691
333.897	30.4822
335.686	31.2376
337.474	29.6649
339.26	28.5793
341.048	28.4408
342.835	27.7786
344.622	27.6887
346.406	27.0304
348.192	24.5601
349.978	22.9987
351.764	22.4341
353.547	19.9783
355.332	17.5471
357.116	15.765
358.901	13.5984
360.682	11.4702
362.466	8.69736
364.249	6.24005
366.03	4.77178
367.812	4.76381
369.594	6.17992
371.374	7.21752
373.155	6.43194
374.936	7.30395
376.715	6.91072
378.495	7.92013
380.273	10.0631
382.053	11.3702
383.832	11.6139
385.609	12.4837
387.388	13.5717
389.164	14.0185
390.942	15.9816
392.72	18.439
394.495	19.4479
396.272	21.0171
398.047	23.3551
399.823	23.5661
401.597	24.8553
403.372	25.0209
405.145	26.1207
406.92	27.7593
408.693	29.3602
410.467	30.3006
412.239	30.9381
414.012	32.0929
415.783	32.8378
417.556	33.968
419.327	35.7473
421.099	35.1145
422.869	34.3589
424.64	35.5901
426.409	33.6087
428.18	34.8691
429.948	34.615
431.718	34.2869
433.486	34.5074
435.253	33.6248
437.022	34.5551
438.789	34.8057
440.558	34.5309
442.324	32.5413
444.089	33.5482
445.857	33.7654
447.622	32.8608
449.386	34.385
451.153	35.0115
452.917	36.9787
454.682	37.7518
456.446	38.6862
458.208	39.146
459.973	38.8076
461.735	38.4337
463.497	39.1612
465.259	39.1689
467.022	40.5299
468.783	41.235
470.544	41.6456
472.306	41.8596
474.066	42.6066
475.825	41.8508
477.585	42.0027
479.346	43.5446
481.104	44.2193
482.862	43.965
484.62	43.9066
486.38	43.0675
488.137	41.5402
489.894	41.765
491.65	42.0976
493.407	43.1804
495.164	45.0871
496.92	45.4532
498.675	45.2083
500.43	45.5524
502.184	46.5655
503.939	47.1913
505.694	47.6705
507.448	47.2893
509.201	48.0642
510.954	48.259
512.706	49.6958
514.459	49.2029
516.21	51.1176
517.962	50.6352
519.715	52.1231
521.466	52.7881
523.216	52.7544
524.966	52.6638
526.716	51.308
528.466	50.1412
530.215	50.4293
531.964	51.4238
533.712	51.3833
535.46	51.3816
537.208	53.4205
538.955	53.0426
540.703	51.184
542.449	50.7628
544.196	50.3304
545.942	49.9798
547.688	49.2257
549.433	47.4822
551.178	45.8318
552.923	44.6621
554.667	44.6623
556.412	42.0963
558.155	41.1454
559.899	39.3599
561.642	38.1053
563.385	36.101
565.127	35.219
566.867	33.264
568.609	30.6528
570.35	28.3279
572.092	26.9973
573.832	24.372
575.573	22.9501
577.313	22.75
579.053	22.6975
580.79	21.33
582.529	21.5047
584.268	19.0935
586.006	18.6185
587.745	17.9432
589.482	17.6317
591.218	16.5032
592.955	14.8008
594.692	15.9899
596.428	17.3547
598.164	18.1075
599.898	18.9709
601.634	19.768
603.369	19.0491
605.104	20.1759
606.836	20.5759
608.57	20.6204
610.304	22.1664
612.037	21.4427
613.769	20.6972
615.501	20.348
617.234	21.0689
618.966	21.3259
620.696	22.1232
622.427	22.9721
624.159	24.0603
625.887	24.379
627.618	24.3016
629.348	25.234
631.076	24.4802
632.806	24.8719
634.535	24.2139
636.262	23.3227
637.99	23.4343
639.716	22.7058
641.444	22.1736
643.172	20.586
644.897	20.092
646.624	18.9433
648.348	19.4078
650.075	18.7018
651.801	17.5827
653.524	17.7368
655.249	18.0595
656.972	16.9673
658.697	16.4488
660.419	14.7346
662.143	14.8868
663.865	15.2767
665.588	13.5177
667.309	11.2936
669.032	10.2637
670.752	9.53418
672.474	9.97025
674.194	8.47217
675.915	7.91904
677.634	6.60302
679.355	5.96557
681.073	8.16142
682.793	7.43323
684.511	6.47043
686.23	6.1899
687.947	6.11206
689.664	6.05937
691.382	8.46478
693.098	9.09405
694.816	10.1287
696.531	11.1266
698.247	10.8994
699.963	12.5389
701.678	15.5187
703.392	18.2188
705.108	19.5367
706.821	22.1087
708.534	24.4382
710.249	26.0583
711.962	26.0856
713.674	27.4676
715.388	28.8764
717.099	29.4766
718.81	29.12
720.523	29.1831
722.234	29.9799
723.944	29.322
725.654	29.7442
727.365	31.0263
729.075	31.8525
730.784	33.3741
732.492	34.7337
734.202	36.3582
735.91	36.043
737.618	35.6338
739.325	37.7516
741.034	39.3638
742.741	38.445
744.447	39.9802
746.153	39.9514
747.859	40.112
749.564	40.5704
751.271	39.0192
752.976	39.285
754.681	39.2276
756.385	40.5469
758.088	39.9755
759.792	40.2092
761.495	41.514
763.2	43.238
764.902	46.0116
766.604	47.9645
768.306	47.8893
770.008	49.2758
771.709	52.1326
773.41	53.2599
775.11	55.3243
776.811	56.0534
778.51	56.9199
780.21	57.8081
781.909	60.5292
783.608	63.7723
785.307	64.8883
787.005	65.8413
788.703	67.3839
790.401	67.513
792.098	70.3675
793.795	70.6984
795.492	70.6789
797.188	71.4137
798.884	73.9647
800.58	72.4961
802.276	72.117
803.971	71.6813
805.665	73.323
807.36	73.2605
809.054	73.7189
810.748	74.4887
812.441	75.4129
814.135	75.1874
815.826	74.5587
817.518	75.998
819.21	78.1804
820.902	77.4557
822.594	78.2574
824.285	79.0839
825.976	77.8407
827.665	75.7536
829.355	76.0086
831.045	74.7285
832.735	73.5475
834.424	74.0733
836.111	72.2523
837.8	72.0243
839.488	72.2297
841.177	72.3293
842.864	72.1595
844.55	72.2007
846.237	73.1909
847.924	72.1479
849.61	70.2613
851.295	68.1407
852.98	67.5869
854.666	65.4215
856.349	64.2447
858.034	62.7153
859.719	61.8944
861.403	61.2802
863.085	61.5133
864.769	60.1467
866.452	59.3954
868.133	59.1303
869.816	58.9632
871.498	58.2049
873.179	58.4174
874.86	57.0787
876.54	56.5961
878.221	55.6648
879.902	56.3296
881.58	56.2687
883.26	55.7614
884.938	53.8678
886.618	54.4759
888.297	54.6
889.974	56.4578
891.653	58.5748
893.329	59.7823
895.007	59.2001
896.683	60.3208
898.36	61.7915
900.035	62.5174
901.712	64.5542
903.387	63.9234
905.063	62.9262
906.737	63.4571
908.412	62.6627
910.085	62.1276
911.76	64.0148
913.433	64.7824
915.107	64.8634
916.779	65.4481
918.452	66.9338
920.124	66.6523
921.797	66.9759
923.467	68.1742
925.138	66.899
926.81	67.7282
928.48	67.3188
930.151	66.5329
931.82	62.965
933.489	60.7819
935.16	59.8977
936.828	57.9783
938.496	54.4532
940.165	52.0723
941.833	50.0371
943.5	44.8914
945.168	42.042
946.834	39.9164
948.5	39.4676
950.168	41.7962
951.834	44.6801
953.499	46.7892
955.163	48.3841
956.83	50.516
958.494	52.9949
960.158	55.4336
961.821	59.8283
963.487	66.7617
965.15	72.5454
966.812	78.3279
968.474	86.7327
970.138	96.3052
971.8	105.59
973.461	113.894
975.123	122.589
976.783	128.724
978.446	135.057
980.106	142.723
981.766	149.187
983.425	153.585
985.084	159.266
986.743	162.538
988.402	166.419
990.06	168.593
991.72	171.518
993.378	172.899
995.035	173.436
996.692	172.201
998.349	171.314
1000.01	168.229
1001.66	164.231
1003.32	158.811
1004.97	154.177
1006.63	149.966
1008.28	145.122
1009.94	142.22
1011.59	137.498
1013.25	132.813
1014.9	127.857
1016.55	124.53
1018.21	122.62
1019.86	118.316
1021.51	113.69
1023.16	111.935
1024.81	110.819
1026.47	109.162
1028.12	110.789
1029.77	113.305
1031.42	114.484
1033.07	115.655
1034.72	115.813
1036.37	115.246
1038.02	116.351
1039.67	116.714
1041.31	118.633
1042.96	120.616
1044.61	123.848
1046.26	126.406
1047.91	128.049
1049.55	130.612
1051.2	133.851
1052.84	135.1
1054.49	135.159
1056.14	134.705
1057.78	135.06
1059.43	134.631
1061.07	133.826
1062.72	132.394
1064.36	131.357
1066	128.63
1067.65	125.18
1069.29	120.741
1070.93	117.363
1072.58	114.144
1074.22	110.359
1075.86	105.487
1077.5	100.11
1079.14	96.5955
1080.78	92.0874
1082.42	87.2715
1084.06	83.1904
1085.7	82.2971
1087.34	82.4748
1088.98	84.6542
1090.62	83.5664
1092.26	84.3283
1093.9	84.968
1095.54	85.5283
1097.17	86.4699
1098.81	87.8281
1100.45	89.6419
1102.09	90.4258
1103.72	92.2765
1105.36	95.2082
1106.99	95.6756
1108.63	95.9819
1110.27	95.8449
1111.9	96.3818
1113.53	94.9928
1115.17	94.6588
1116.8	94.4515
1118.43	92.4732
1120.07	92.4398
1121.7	90.8474
1123.33	88.7378
1124.97	86.7827
1126.6	85.4941
1128.23	84.3906
1129.86	83.5685
1131.49	81.7477
1133.12	79.6567
1134.75	78.0383
1136.38	75.5182
1138.01	74.0377
1139.64	72.8005
1141.27	72.5694
1142.9	70.2485
1144.53	67.7018
1146.16	64.5375
1147.78	60.3991
1149.41	56.3353
1151.04	52.5533
1152.67	49.4773
1154.29	47.0837
1155.92	43.1398
1157.54	38.8211
1159.17	34.5677
1160.8	32.5684
1162.42	29.7985
1164.05	27.5501
1165.67	24.2364
1167.29	24.7074
1168.92	24.0001
1170.54	23.0005
1172.16	19.3177
1173.79	19.5561
1175.41	18.7414
1177.03	18.4558
1178.65	19.2491
1180.28	19.1146
1181.9	21.3975
1183.52	21.7263
1185.14	22.2384
1186.76	24.5185
1188.38	23.1894
1190	23.973
1191.62	25.2239
1193.24	26.9359
1194.86	28.5463
1196.47	31.8214
1198.09	34.8682
1199.71	36.8096
1201.33	40.3988
1202.95	43.609
1204.56	47.5944
1206.18	51.7384
1207.8	57.0175
1209.41	60.7882
1211.03	64.728
1212.64	69.2483
1214.26	73.6864
1215.87	78.5426
1217.49	82.8886
1219.1	86.4844
1220.71	92.0257
1222.33	96.5181
1223.94	99.7227
1225.55	102.933
1227.16	105.905
1228.78	109.604
1230.39	112.369
1232	116.146
1233.61	120.32
1235.22	122.66
1236.83	125.555
1238.44	129.468
1240.05	133.343
1241.66	137.671
1243.27	140.759
1244.88	143.772
1246.49	145.993
1248.1	149.096
1249.71	150.988
1251.32	152.062
1252.92	152.952
1254.53	155.083
1256.14	156.417
1257.74	160.024
1259.35	163.009
1260.96	165.674
1262.56	168.583
1264.17	172.247
1265.77	175.818
1267.38	180.191
1268.98	180.643
1270.59	185.115
1272.19	187.941
1273.79	192.152
1275.4	196.151
1277	200.051
1278.6	203.21
1280.21	207.397
1281.81	210.429
1283.41	214.205
1285.01	219.116
1286.61	222.521
1288.21	224.224
1289.81	226.44
1291.41	228.76
1293.01	230.124
1294.61	233.168
1296.21	236.289
1297.81	238.365
1299.41	240.357
1301.01	243.368
1302.6	243.493
1304.2	244.436
1305.8	244.923
1307.4	245.783
1308.99	245.806
1310.59	246.849
1312.19	248.037
1313.78	249.873
1315.38	249.707
1316.97	251.094
1318.57	250.352
1320.16	248.322
1321.76	247.593
1323.35	245.955
1324.94	243.285
1326.54	240.119
1328.13	238.584
1329.72	234.96
1331.32	231.142
1332.91	228.247
1334.5	226.961
1336.09	224.679
1337.68	223.819
1339.27	221.721
1340.87	219.458
1342.45	216.993
1344.04	215.479
1345.64	212.43
1347.22	210.832
1348.81	206.893
1350.4	205.359
1351.99	204.02
1353.58	203.411
1355.17	201.522
1356.75	199.895
1358.34	197.937
1359.93	196.471
1361.51	194.472
1363.1	194.56
1364.69	191.485
1366.27	188.128
1367.86	185.915
1369.44	185.329
1371.03	183.948
1372.61	182.443
1374.2	181.635
1375.78	180.853
1377.37	178.445
1378.95	177.245
1380.53	176.607
1382.11	175.615
1383.7	175.755
1385.28	175.268
1386.86	175.153
1388.44	174.845
1390.02	175.71
1391.6	174.157
1393.19	172.55
1394.77	170.456
1396.35	170.283
1397.93	169.098
1399.51	170.265
1401.08	172.3
1402.66	173.664
1404.24	174.477
1405.82	178.835
1407.4	182.983
1408.97	186.529
1410.55	191.734
1412.13	199.599
1413.71	206.195
1415.28	213.277
1416.86	221.092
1418.43	231.206
1420.01	240.997
1421.59	250.432
1423.16	260.961
1424.73	272.895
1426.31	283.946
1427.88	294.032
1429.46	305.19
1431.03	316.831
1432.6	326.923
1434.18	335.096
1435.75	344.196
1437.32	352.01
1438.89	361.249
1440.46	366.924
1442.04	371.523
1443.61	374.871
1445.18	378.732
1446.75	380.808
1448.32	379.907
1449.89	378.719
1451.46	376.211
1453.03	374.284
1454.6	370.469
1456.16	364.574
1457.73	357.936
1459.3	351.231
1460.87	341.083
1462.44	332.759
1464	322.532
1465.57	312.84
1467.14	301.591
1468.7	289.004
1470.27	275.021
1471.83	264.72
1473.4	253.079
1474.96	242.158
1476.53	230.799
1478.09	220.527
1479.66	208.262
1481.22	197.099
1482.78	187.102
1484.35	177.487
1485.91	167.658
1487.47	158.647
1489.04	148.919
1490.6	141.598
1492.16	133.349
1493.72	127.296
1495.28	120.199
1496.84	115.322
1498.4	109.231
1499.96	103.93
1501.52	99.43
1503.08	95.5431
1504.64	91.9338
1506.2	87.7642
1507.76	84.1862
1509.32	81.9349
1510.88	77.2243
1512.44	73.7923
1513.99	71.4423
1515.55	69.8085
1517.11	68.0243
1518.66	64.574
1520.22	62.5157
1521.78	61.9529
1523.33	59.6895
1524.89	58.5077
1526.44	57.2108
1528	58.3558
1529.55	58.0711
1531.11	59.5739
1532.66	59.1213
1534.21	60.4291
1535.77	61.6696
1537.32	64.6736
1538.87	65.9325
1540.43	70.1641
1541.98	72.6609
1543.53	75.2926
1545.08	76.8147
1546.63	79.8479
1548.18	83.4147
1549.74	87.2422
1551.29	90.363
1552.84	93.3011
1554.39	95.7888
1555.94	98.2372
1557.48	100.35
1559.03	103.401
1560.58	106.336
1562.13	108.777
1563.68	112.323
1565.23	114.672
1566.78	116.776
1568.32	120.481
1569.87	123.862
1571.42	126.877
1572.96	127.706
1574.51	131.982
1576.05	134.906
1577.6	138.367
1579.14	141.095
1580.69	144.791
1582.24	148.032
1583.78	150.443
1585.32	153.018
1586.87	156.38
1588.41	157.35
1589.95	159.703
1591.5	161.844
1593.04	162.94
1594.58	163.524
1596.12	164.686
1597.67	166.343
1599.21	168.666
1600.75	169.203
1602.29	169.05
1603.83	168.572
1605.37	167.616
1606.91	166.824
1608.45	168.316
1609.99	166.964
1611.53	168.031
1613.07	169.482
1614.6	170.686
1616.14	171.578
1617.68	173.205
1619.22	175.14
1620.75	176.236
1622.29	178.089
1623.83	179.926
1625.37	181.721
1626.9	183.515
1628.44	185.837
1629.97	186.821
1631.51	190.252
1633.04	192.629
1634.58	195.167
1636.11	199.217
1637.65	202.205
1639.18	204.737
1640.72	208.493
1642.25	211.823
1643.78	214.248
1645.31	218.089
1646.85	220.961
1648.38	222.484
1649.91	225.236
1651.44	227.222
1652.97	228.872
1654.5	230.439
1656.03	229.552
1657.56	229.046
1659.1	228.042
1660.62	226.798
1662.15	223.413
1663.68	221.014
1665.21	217.667
1666.74	214.304
1668.27	210.735
1669.8	204.79
1671.32	200.235
1672.85	193.52
1674.38	187.107
1675.91	179.161
1677.43	172.315
1678.96	164.993
1680.49	156.68
1682.01	149.318
1683.54	142.539
1685.06	135.38
1686.59	128.825
1688.11	123.145
1689.64	116.272
1691.16	108.709
1692.68	103.26
1694.21	97.7109
1695.73	92.307
1697.25	86.4441
1698.78	81.509
1700.3	75.4942
1701.82	71.3558
1703.34	67.6019
1704.86	63.6469
1706.39	59.8561
1707.91	56.3895
1709.43	53.0682
1710.95	51.2093
1712.47	48.6899
1713.99	45.7207
1715.51	43.691
1717.02	42.2761
1718.54	40.0423
1720.06	38.5539
1721.58	38.1335
1723.1	36.1316
1724.62	34.5074
1726.13	33.3415
1727.65	31.3123
1729.17	31.4111
1730.68	29.3131
1732.2	27.026
1733.72	26.0077
1735.23	25.1709
1736.75	24.3413
1738.26	22.7556
1739.78	22.3938
1741.29	21.0375
1742.81	18.9685
1744.32	17.3732
1745.84	15.4285
1747.35	14.7636
1748.86	14.0038
1750.37	14.0634
1751.89	12.7963
1753.4	12.8084
1754.91	11.0303
1756.42	9.18075
1757.93	7.97235
1759.45	7.32469
1760.96	7.10489
1762.47	6.32531
1763.98	5.55613
1765.49	5.11368
1767	5.34438
1768.51	5.27848
1770.02	5.30422
1771.53	4.5118
1773.03	3.41262
1774.54	2.71203
1776.05	2.208
1777.56	2.74138
1779.07	2.3646
1780.57	1.61042
1782.08	1.51139
1783.59	2.0624
1785.09	2.03873
1786.6	2.66677
1788.11	2.46799
1789.61	2.46293
1791.12	2.23589
1792.62	2.31476
1794.13	3.87363
1795.63	4.15203
1797.13	4.49625
1798.64	4.14115
1800.14	4.16694
1801.65	3.90557
1803.15	3.54369
1804.65	2.7721
1806.15	2.33707
1807.66	1.76309
1809.16	2.11445
1810.66	2.53108
1812.16	2.65862
1813.66	2.86247
1815.16	2.7131
1816.66	2.16312
1818.16	1.36516
1819.66	1.20993
1821.16	0.941924
1822.66	0.247458
1824.16	0.0334112
1825.66	0.150801
1827.16	-0.0210842
1828.66	-0.520873
1830.16	-0.199043
1831.65	-0.145774
1833.15	-0.582229
1834.65	-0.0135126
1836.14	0.578022
1837.64	0.604139
1839.14	1.03559
1840.63	1.1135
1842.13	0.250748
1843.62	-0.71899
1845.12	0.615074
1846.61	0.803696
1848.11	0.598139
1849.6	1.38871
1851.1	1.36316
1852.59	1.28728
1854.08	0.967862
1855.58	0.998161
1857.07	2.12167
1858.56	2.72739
1860.05	2.63898
1861.55	3.31306
1863.04	3.51363
1864.53	3.91249
1866.02	4.55911
1867.51	4.65792
1869	4.71919
1870.49	3.98379
1871.98	3.22085
1873.47	3.47758
1874.96	2.59398
1876.45	2.9035
1877.94	2.80955
1879.43	3.54312
1880.92	4.36484
1882.41	4.52063
1882.51	4.85403
1884	5.06946
1885.5	4.75221
1886.99	4.37639
1888.48	3.44814
1889.98	2.76316
1891.47	2.07526
1892.96	1.97113
1894.46	2.45276
1895.95	2.44835
1897.44	3.20288
1898.93	2.56921
1900.42	2.40575
1901.91	2.3113
1903.41	3.24305
1904.9	3.11363
1906.39	3.74251
1907.88	4.37352
1909.37	5.2658
1910.86	5.68802
1912.35	6.789
1913.83	8.09045
1915.32	8.67052
1916.81	10.5813
1918.3	12.4939
1919.79	13.4698
1921.27	12.7508
1922.76	13.7526
1924.25	14.2508
1925.74	15.0119
1927.22	15.0148
1928.71	14.8743
1930.19	14.9456
1931.68	14.393
1933.17	13.5536
1934.65	13.2701
1936.14	12.9257
1937.62	12.9508
1939.11	12.2727
1940.59	12.0399
1942.07	11.3184
1943.56	11.6748
1945.04	11.496
1946.52	11.4383
1948.01	10.7927
1949.49	11.7484
1950.97	10.5456
1952.45	11.0407
1953.93	11.1983
1955.42	10.2167
1956.9	9.44485
1958.38	8.0471
1959.86	6.58636
1961.34	5.98052
1962.82	5.80293
1964.3	5.65422
1965.78	5.12943
1967.26	5.07769
1968.74	5.0052
1970.21	4.82995
1971.69	4.98043
1973.17	5.40279
1974.65	5.76186
1976.13	6.93726
1977.6	9.12323
1979.08	9.42542
1980.56	10.5668
1982.03	11.574
1983.51	13.3624
1984.99	14.9823
1986.46	15.7382
1987.94	15.9017
1989.41	16.2031
1990.89	16.7307
1992.36	17.9097
1993.84	17.7783
1995.31	17.6732
1996.78	17.2462
1998.26	17.0158
1999.73	17.2037
2001.2	17.4609
2002.68	17.5202
2004.15	17.9092
2005.62	18.3223
2007.09	17.8203
2008.56	18.323
2010.04	19.0601
2011.51	20.2076
2012.98	18.9644
2014.45	19.1076
2015.92	17.4608
2017.39	17.8864
2018.86	18.8671
2020.33	17.6234
2021.8	18.3496
2023.26	19.0322
2024.73	18.4275
2026.2	18.9729
2027.67	18.6376
2029.14	18.7618
2030.61	18.5248
2032.07	19.9435
2033.54	20.9056
2035.01	22.6261
2036.47	23.1541
2037.94	23.7848
2039.4	24.0011
2040.87	24.8232
2042.33	26.2626
2043.8	26.8071
2045.27	27.0208
2046.73	27.9979
2048.19	28.7332
2049.66	30.6369
2051.12	30.1536
2052.59	28.1954
2054.05	28.0051
2055.51	27.6822
2056.97	27.9812
2058.44	26.8463
2059.9	25.9382
2061.36	25.2692
2062.82	26.5179
2064.28	26.9349
2065.74	27.6407
2067.21	27.6383
2068.67	27.7382
2070.13	26.9132
2071.59	27.3602
2073.05	27.4783
2074.51	27.8609
2075.96	27.53
2077.42	27.279
2078.88	27.1205
2080.34	27.79
2081.8	28.7663
2083.26	29.0512
2084.72	28.0211
2086.17	26.3451
2087.63	27.0976
2089.09	27.1548
2090.54	29.1126
2092	29.9062
2093.45	29.7103
2094.91	30.4107
2096.37	30.6595
2097.82	31.732
2099.28	33.6944
2100.73	35.6004
2102.19	37.1442
2103.64	38.1205
2105.09	40.3177
2106.55	41.0954
2108	42.6605
2109.45	43.8527
2110.91	46.9422
2112.36	47.603
2113.81	49.769
2115.26	51.4369
2116.72	51.9676
2118.17	53.8569
2119.62	55.3062
2121.07	56.4872
2122.52	58.0528
2123.97	59.4061
2125.42	61.4308
2126.87	63.4176
2128.32	67.0813
2129.77	70.4118
2131.22	70.8382
2132.67	73.6473
