#Acq. time (s)=	45
#Accumulations=	2
#Range (cm-¹)=	200...3150
#Windows=	2
#Auto scanning=	Off
#Autofocus=	Off
#Macrospot=	Off
#AutoExposure=	Off
#Spike filter=	Multiple accum.
#Delay time (s)=	0
#Binning=	1
#Readout mode=	Signal
#DeNoise=	Off
#ICS correction=	On
#Dark correction=	Off
#Inst. Process=	Off
#Detector Gain=	Best Dynamic Range
#Detector ADC=	20 kHz       
#Detector temperature (°C)=	-69.85
#Instrument=	LabRAM HR Evol
#Detector=	Synapse
#Objective=	x100
#Grating=	600 gr/mm
#ND Filter=	100%
#Laser (nm)=	532 
#Hole=	100.021
#Range=	Auto
#Laser Pol.=	No
#Raman. Pol.=	No
#Laser Pol. (°)=	-0.0007625
#Raman Pol. (°)=	89.9995
#Collection=	Microscope
#StageXY=	Marzhauser
#StageZ=	Marzhauser
#X (µm)=	-6913.2
#Y (µm)=	2067.5
#Z (µm)=	-75.1
#Full time(mm:ss)=	3:18
#Project=	
#Sample=	
#Site=	
#Title=	Mb_20_23_21_2x_45s_532 nm_x100_100%_600 gr_mm
#Remark=	
#Date=	13.07.2022 14:47
#Acquired=	13.07.2022 14:47:00
#Base:Fit=	10.08.2022 10:29:37
#Base:Sub=	10.08.2022 10:33:46
#Filter:Polynom=	16.08.2022 10:13:29
#AxisType[0]=Intens
#AxisUnit[0]=Cnt
#AxisType[1]=Spectr
#AxisUnit[1]=1/cm
200.563	9.26244
202.377	7.87807
204.194	8.6256
206.008	8.52147
207.821	7.71923
209.634	6.60172
211.449	5.88087
213.262	5.16389
215.074	5.23102
216.885	5.58882
218.699	6.13438
220.51	6.45274
222.321	8.36445
224.131	7.55855
225.941	8.84568
227.751	8.58601
229.562	8.91165
231.371	8.4474
233.18	7.87895
234.988	7.22534
236.796	7.25373
238.603	6.93843
240.411	7.81953
242.219	8.77382
244.026	8.01981
245.832	7.93947
247.638	7.86025
249.443	8.94341
251.248	9.44555
253.053	9.38617
254.857	8.13006
256.661	8.53308
258.465	9.15673
260.268	8.92062
262.071	8.76181
263.874	8.29575
265.678	7.09712
267.48	6.49148
269.282	5.06463
271.083	5.3885
272.884	5.19534
274.684	4.13935
276.484	3.99035
278.284	3.7206
280.084	3.28359
281.883	3.8755
283.682	3.9895
285.48	3.32655
287.276	2.9688
289.074	2.18799
290.871	3.22656
292.668	3.13478
294.465	3.8984
296.261	4.10492
298.057	6.73579
299.853	6.97361
301.648	8.97683
303.443	10.0712
305.237	12.4712
307.032	14.8623
308.823	16.1764
310.617	16.9725
312.41	18.425
314.203	17.4784
315.995	19.9476
317.788	20.3016
319.579	21.422
321.369	22.0068
323.16	22.318
324.951	23.3103
326.741	25.2013
328.531	25.9631
330.321	27.5683
332.108	28.2548
333.897	28.1086
335.686	28.3327
337.474	28.2239
339.26	27.7843
341.048	27.2839
342.835	26.8762
344.622	25.6137
346.406	24.1979
348.192	22.3385
349.978	20.2937
351.764	19.0245
353.547	17.1715
355.332	15.7656
357.116	15.7031
358.901	14.3528
360.682	14.6909
362.466	14.0842
364.249	12.9029
366.03	12.3546
367.812	11.1724
369.594	10.9858
371.374	10.3942
373.155	10.2054
374.936	10.8997
376.715	11.5906
378.495	12.4573
380.273	14.6716
382.053	15.8807
383.832	15.7839
385.609	15.7851
387.388	16.2857
389.164	16.4435
390.942	18.4995
392.72	19.3056
394.495	19.3584
396.272	19.988
398.047	19.0338
399.823	18.879
401.597	19.4748
403.372	19.4876
405.145	20.0792
406.92	19.3751
408.693	18.675
410.467	17.5719
412.239	16.2876
414.012	16.8182
415.783	15.8865
417.556	15.6837
419.327	15.9539
421.099	14.0441
422.869	13.4994
424.64	11.8225
426.409	10.8743
428.18	9.75823
429.948	9.52208
431.718	7.57178
433.486	6.14996
435.253	3.38973
437.022	3.27559
438.789	2.82504
440.558	3.20962
442.324	4.47722
444.089	4.83823
445.857	3.67887
447.622	3.85453
449.386	4.97235
451.153	5.01371
452.917	5.46551
454.682	6.82557
456.446	8.07585
458.208	9.05327
459.973	10.0303
461.735	12.2283
463.497	12.919
465.259	14.5291
467.022	15.0199
468.783	16.4417
470.544	16.8779
472.306	17.343
474.066	19.5533
475.825	20.5718
477.585	22.9247
479.346	23.8882
481.104	25.1805
482.862	25.3375
484.62	27.9181
486.38	28.8637
488.137	29.9073
489.894	30.921
491.65	31.421
493.407	32.7824
495.164	33.7256
496.92	34.327
498.675	35.2252
500.43	36.2038
502.184	38.8313
503.939	39.7383
505.694	41.8444
507.448	42.754
509.201	43.4087
510.954	45.625
512.706	44.7561
514.459	45.0236
516.21	46.5948
517.962	46.6308
519.715	45.8897
521.466	45.2001
523.216	44.4057
524.966	45.7861
526.716	45.0759
528.466	44.5343
530.215	44.1797
531.964	43.349
533.712	41.4505
535.46	42.6956
537.208	42.0283
538.955	41.61
540.703	40.5059
542.449	39.7244
544.196	38.8047
545.942	38.0159
547.688	37.6576
549.433	36.2322
551.178	34.9354
552.923	33.746
554.667	32.8987
556.412	31.9575
558.155	30.7376
559.899	28.9171
561.642	28.2094
563.385	27.0617
565.127	26.5357
566.867	25.7372
568.609	24.2965
570.35	22.3904
572.092	22.4883
573.832	20.4384
575.573	18.9683
577.313	17.4566
579.053	16.6178
580.79	15.6718
582.529	13.9912
584.268	13.8053
586.006	12.6907
587.745	11.7075
589.482	12.8501
591.218	11.4064
592.955	10.6328
594.692	9.15729
596.428	7.56606
598.164	7.15687
599.898	5.98345
601.634	7.09821
603.369	7.37644
605.104	4.26221
606.836	3.6045
608.57	3.09119
610.304	2.9536
612.037	4.09987
613.769	3.97972
615.501	3.41747
617.234	2.38637
618.966	2.68568
620.696	2.88737
622.427	2.83146
624.159	2.18896
625.887	2.34324
627.618	2.65982
629.348	2.45696
631.076	3.64307
632.806	4.4283
634.535	4.54177
636.262	4.36477
637.99	3.4546
639.716	3.90895
641.444	4.45748
643.172	2.58576
644.897	2.90916
646.624	3.87986
648.348	5.50065
650.075	6.17394
651.801	7.04828
653.524	6.36888
655.249	6.58324
656.972	6.83275
658.697	6.47056
660.419	5.88477
662.143	6.04512
663.865	4.68211
665.588	5.66163
667.309	6.43164
669.032	6.89137
670.752	6.70942
672.474	6.48868
674.194	7.29222
675.915	8.05366
677.634	6.99845
679.355	7.52562
681.073	7.65222
682.793	9.33205
684.511	10.3325
686.23	10.5689
687.947	11.8015
689.664	10.3471
691.382	9.17011
693.098	10.058
694.816	9.80288
696.531	10.7427
698.247	12.0845
699.963	11.3092
701.678	11.6258
703.392	12.1983
705.108	13.4386
706.821	13.8417
708.534	13.6306
710.249	14.903
711.962	14.8888
713.674	17.1029
715.388	17.6403
717.099	18.6835
718.81	18.789
720.523	20.0403
722.234	18.9288
723.944	19.1418
725.654	21.7511
727.365	22.9955
729.075	24.1348
730.784	25.5356
732.492	27.266
734.202	26.5088
735.91	26.793
737.618	28.1118
739.325	27.3301
741.034	28.0149
742.741	27.8828
744.447	28.3707
746.153	29.7194
747.859	30.7019
749.564	31.9167
751.271	34.4064
752.976	35.7436
754.681	36.9906
756.385	37.7651
758.088	39.7147
759.792	40.8804
761.495	42.3198
763.2	42.4456
764.902	43.8804
766.604	44.1399
768.306	44.4653
770.008	44.6772
771.709	45.4028
773.41	45.0261
775.11	45.6461
776.811	46.3978
778.51	48.5885
780.21	50.0715
781.909	51.6953
783.608	51.5604
785.307	52.0546
787.005	53.0408
788.703	54.177
790.401	55.6077
792.098	56.5476
793.795	57.9004
795.492	59.3638
797.188	60.8316
798.884	62.9737
800.58	64.3812
802.276	67.9192
803.971	71.2
805.665	73.4159
807.36	73.7775
809.054	75.891
810.748	78.7406
812.441	80.2454
814.135	81.7492
815.826	82.3687
817.518	83.0816
819.21	83.8442
820.902	86.2758
822.594	87.5852
824.285	88.2204
825.976	90.8484
827.665	91.9504
829.355	94.5745
831.045	94.8051
832.735	96.3402
834.424	97.6605
836.111	99.1791
837.8	98.3832
839.488	97.4554
841.177	96.3745
842.864	96.5557
844.55	95.2572
846.237	93.3021
847.924	91.2883
849.61	89.4765
851.295	86.5686
852.98	84.7391
854.666	83.7521
856.349	82.0834
858.034	80.7556
859.719	79.714
861.403	78.3951
863.085	78.5165
864.769	76.7459
866.452	74.6811
868.133	73.9961
869.816	73.8576
871.498	73.1647
873.179	74.2029
874.86	74.56
876.54	74.1382
878.221	74.7661
879.902	75.2185
881.58	76.2127
883.26	76.143
884.938	76.9175
886.618	76.7106
888.297	74.177
889.974	73.7145
891.653	72.8746
893.329	72.8935
895.007	73.8018
896.683	73.5668
898.36	72.839
900.035	72.0041
901.712	71.6109
903.387	72.6869
905.063	72.9745
906.737	73.5848
908.412	72.9081
910.085	72.8504
911.76	72.1958
913.433	72.6001
915.107	71.4123
916.779	72.1423
918.452	71.9063
920.124	70.316
921.797	67.7605
923.467	68.1751
925.138	68.5914
926.81	67.5977
928.48	66.2399
930.151	64.8249
931.82	64.0738
933.489	62.5315
935.16	63.4338
936.828	62.892
938.496	62.6208
940.165	62.5462
941.833	61.3871
943.5	59.0196
945.168	58.5976
946.834	57.2863
948.5	55.8849
950.168	56.1735
951.834	57.0861
953.499	57.158
955.163	57.3062
956.83	57.3895
958.494	55.3502
960.158	52.0443
961.821	51.1469
963.487	50.6567
965.15	50.8012
966.812	50.0358
968.474	51.4122
970.138	52.1296
971.8	54.1426
973.461	56.1972
975.123	57.0999
976.783	58.7334
978.446	60.5609
980.106	62.0282
981.766	61.8839
983.425	63.3321
985.084	64.9686
986.743	67.2142
988.402	69.1424
990.06	68.4549
991.72	66.9921
993.378	69.1372
995.035	70.3524
996.692	71.1851
998.349	72.3643
1000.01	73.5092
1001.66	73.9898
1003.32	74.5938
1004.97	75.2985
1006.63	77.2208
1008.28	78.7322
1009.94	78.8315
1011.59	80.2822
1013.25	80.3968
1014.9	80.4272
1016.55	80.5627
1018.21	80.9752
1019.86	79.292
1021.51	78.5547
1023.16	76.6254
1024.81	73.7819
1026.47	72.7397
1028.12	73.8487
1029.77	74.3933
1031.42	73.9657
1033.07	73.6319
1034.72	72.3468
1036.37	71.3316
1038.02	69.3848
1039.67	67.9681
1041.31	67.8192
1042.96	69.329
1044.61	71.5452
1046.26	73.0136
1047.91	74.7637
1049.55	76.4368
1051.2	78.4446
1052.84	78.6046
1054.49	78.7437
1056.14	77.9248
1057.78	79.4063
1059.43	79.9023
1061.07	79.5753
1062.72	80.76
1064.36	79.8688
1066	80.319
1067.65	80.3658
1069.29	79.3147
1070.93	78.3443
1072.58	76.3446
1074.22	76.1554
1075.86	77.2382
1077.5	75.5534
1079.14	73.9639
1080.78	72.854
1082.42	72.6992
1084.06	71.9877
1085.7	71.7995
1087.34	70.9262
1088.98	71.9983
1090.62	70.5758
1092.26	69.9095
1093.9	69.6757
1095.54	67.4875
1097.17	67.2277
1098.81	66.6744
1100.45	65.5832
1102.09	64.5382
1103.72	63.5342
1105.36	62.079
1106.99	61.3577
1108.63	61.1279
1110.27	60.5431
1111.9	58.2316
1113.53	55.7551
1115.17	55.1103
1116.8	54.0365
1118.43	52.1404
1120.07	50.4729
1121.7	50.1164
1123.33	48.651
1124.97	47.1029
1126.6	44.7733
1128.23	44.5751
1129.86	43.9329
1131.49	43.2554
1133.12	41.5584
1134.75	39.8121
1136.38	38.6419
1138.01	37.5686
1139.64	36.8735
1141.27	35.4588
1142.9	32.8803
1144.53	31.5402
1146.16	28.6985
1147.78	26.6762
1149.41	24.4763
1151.04	20.9909
1152.67	19.6241
1154.29	16.7413
1155.92	14.0087
1157.54	11.5284
1159.17	8.14758
1160.8	6.46254
1162.42	5.8823
1164.05	5.82304
1165.67	5.19088
1167.29	4.59318
1168.92	5.42633
1170.54	5.58986
1172.16	4.64943
1173.79	5.63333
1175.41	5.94671
1177.03	6.45458
1178.65	7.42384
1180.28	8.85971
1181.9	10.5004
1183.52	11.965
1185.14	11.6733
1186.76	12.2358
1188.38	13.5781
1190	14.9181
1191.62	16.1361
1193.24	16.7261
1194.86	17.579
1196.47	20.0477
1198.09	21.3387
1199.71	22.9854
1201.33	26.274
1202.95	29.5847
1204.56	33.5878
1206.18	38.0993
1207.8	41.2522
1209.41	45.7332
1211.03	49.2931
1212.64	51.6638
1214.26	54.0844
1215.87	57.4664
1217.49	60.4964
1219.1	62.9939
1220.71	66.6958
1222.33	69.5289
1223.94	70.944
1225.55	74.8732
1227.16	77.8083
1228.78	80.8766
1230.39	83.3424
1232	86.3523
1233.61	89.7748
1235.22	91.9825
1236.83	94.1004
1238.44	97.2011
1240.05	99.8984
1241.66	103.35
1243.27	107.15
1244.88	109.077
1246.49	110.153
1248.1	112.031
1249.71	113.922
1251.32	114.578
1252.92	115.212
1254.53	116.217
1256.14	118.126
1257.74	120.002
1259.35	122.646
1260.96	125.312
1262.56	127.761
1264.17	128.122
1265.77	130.395
1267.38	134.722
1268.98	138.912
1270.59	142.566
1272.19	147.083
1273.79	151.2
1275.4	155.907
1277	162.507
1278.6	165.825
1280.21	171.191
1281.81	177.14
1283.41	181.608
1285.01	186.357
1286.61	189.467
1288.21	193.135
1289.81	198.551
1291.41	201.228
1293.01	203.971
1294.61	206.758
1296.21	209.875
1297.81	213.12
1299.41	215.798
1301.01	218.034
1302.6	219.308
1304.2	221.008
1305.8	222.253
1307.4	222.253
1308.99	223.293
1310.59	222.981
1312.19	223.288
1313.78	222.744
1315.38	221.852
1316.97	220.152
1318.57	217.88
1320.16	214.324
1321.76	211.508
1323.35	206.68
1324.94	201.126
1326.54	196.889
1328.13	192.463
1329.72	186.314
1331.32	181.668
1332.91	175.185
1334.5	170.739
1336.09	166.109
1337.68	160.879
1339.27	156.113
1340.87	150.9
1342.45	147.96
1344.04	143.191
1345.64	142.007
1347.22	138.109
1348.81	134.957
1350.4	131.678
1351.99	128.665
1353.58	124.838
1355.17	121.27
1356.75	118.417
1358.34	115.441
1359.93	113.758
1361.51	111.532
1363.1	108.267
1364.69	106.143
1366.27	104.123
1367.86	102.123
1369.44	100.057
1371.03	97.7099
1372.61	96.3228
1374.2	94.2464
1375.78	93.9561
1377.37	93.1748
1378.95	91.9663
1380.53	91.4253
1382.11	91.6845
1383.7	91.4306
1385.28	91.0521
1386.86	93.1003
1388.44	94.0131
1390.02	93.7739
1391.6	94.0212
1393.19	93.9225
1394.77	92.7661
1396.35	91.8824
1397.93	92.5028
1399.51	94.2813
1401.08	95.5971
1402.66	96.6482
1404.24	100.496
1405.82	104.386
1407.4	107.892
1408.97	113.092
1410.55	119.121
1412.13	124.534
1413.71	133.464
1415.28	142.837
1416.86	152.264
1418.43	162.164
1420.01	172.553
1421.59	184.356
1423.16	195.473
1424.73	208.526
1426.31	220.144
1427.88	232.587
1429.46	244.469
1431.03	254.837
1432.6	264.823
1434.18	275.341
1435.75	285.003
1437.32	294.484
1438.89	301.305
1440.46	308.286
1442.04	314.068
1443.61	318.684
1445.18	322.405
1446.75	324.416
1448.32	325.818
1449.89	324.967
1451.46	322.76
1453.03	320.297
1454.6	317.271
1456.16	312.63
1457.73	306.343
1459.3	298.905
1460.87	289.981
1462.44	279.212
1464	268.02
1465.57	255.233
1467.14	240.842
1468.7	226.714
1470.27	212.235
1471.83	197.338
1473.4	182.671
1474.96	169.29
1476.53	156.263
1478.09	142.961
1479.66	130.256
1481.22	118.454
1482.78	107.739
1484.35	96.676
1485.91	86.0849
1487.47	77.0184
1489.04	69.1413
1490.6	61.6898
1492.16	54.9551
1493.72	47.2561
1495.28	40.6659
1496.84	35.5557
1498.4	32.3169
1499.96	30.297
1501.52	28.1598
1503.08	26.1356
1504.64	23.5403
1506.2	21.179
1507.76	19.9451
1509.32	18.6846
1510.88	18.4819
1512.44	18.1195
1513.99	16.9279
1515.55	17.1533
1517.11	16.9829
1518.66	17.3139
1520.22	17.3703
1521.78	17.6597
1523.33	18.4852
1524.89	18.2476
1526.44	19.1256
1528	20.5262
1529.55	22.2679
1531.11	23.6503
1532.66	25.1301
1534.21	25.8607
1535.77	26.8044
1537.32	28.6645
1538.87	29.9835
1540.43	30.8831
1541.98	31.9387
1543.53	33.919
1545.08	35.9808
1546.63	36.7642
1548.18	38.3998
1549.74	40.1682
1551.29	41.7404
1552.84	43.6757
1554.39	45.5593
1555.94	48.001
1557.48	48.9773
1559.03	49.0445
1560.58	50.7875
1562.13	51.8228
1563.68	52.6329
1565.23	54.6582
1566.78	55.7959
1568.32	57.2054
1569.87	59.8423
1571.42	62.205
1572.96	66.1017
1574.51	69.4754
1576.05	72.2863
1577.6	75.675
1579.14	78.7854
1580.69	81.1861
1582.24	84.2719
1583.78	87.5305
1585.32	91.1321
1586.87	94.0417
1588.41	95.185
1589.95	96.6407
1591.5	99.3964
1593.04	101.541
1594.58	104.244
1596.12	105.088
1597.67	106.83
1599.21	109.208
1600.75	109.434
1602.29	110.251
1603.83	112.748
1605.37	113.325
1606.91	113.101
1608.45	113.413
1609.99	114.071
1611.53	114.479
1613.07	115.444
1614.6	116.907
1616.14	117.867
1617.68	118.105
1619.22	120.005
1620.75	122.479
1622.29	122.934
1623.83	124.846
1625.37	127.836
1626.9	129.642
1628.44	131.178
1629.97	134.216
1631.51	136.753
1633.04	138.942
1634.58	141.02
1636.11	144.093
1637.65	148.529
1639.18	151.962
1640.72	156.547
1642.25	160.474
1643.78	163.336
1645.31	167.105
1646.85	170.347
1648.38	173.125
1649.91	177.012
1651.44	180.099
1652.97	181.811
1654.5	184.369
1656.03	185.617
1657.56	185.983
1659.1	186.169
1660.62	185.293
1662.15	184.541
1663.68	182.103
1665.21	179.109
1666.74	176.372
1668.27	172.629
1669.8	168.344
1671.32	163.882
1672.85	157.708
1674.38	152.502
1675.91	145.823
1677.43	138.819
1678.96	132.794
1680.49	127.491
1682.01	121.03
1683.54	114.215
1685.06	107.22
1686.59	101.475
1688.11	95.2363
1689.64	89.959
1691.16	84.5576
1692.68	78.9716
1694.21	72.9909
1695.73	69.302
1697.25	63.9635
1698.78	58.9915
1700.3	56.1781
1701.82	52.1554
1703.34	48.3897
1704.86	45.2113
1706.39	43.368
1707.91	40.8578
1709.43	38.9768
1710.95	38.9571
1712.47	37.6665
1713.99	37.4328
1715.51	37.057
1717.02	36.5978
1718.54	35.3386
1720.06	34.3636
1721.58	34.7805
1723.1	36.015
1724.62	36.6321
1726.13	36.8461
1727.65	36.5057
1729.17	35.4047
1730.68	34.8903
1732.2	33.9911
1733.72	33.2523
1735.23	31.7594
1736.75	31.0293
1738.26	30.3976
1739.78	28.7507
1741.29	27.2114
1742.81	26.1373
1744.32	25.9214
1745.84	25.158
1747.35	24.1377
1748.86	23.7658
1750.37	23.2965
1751.89	22.1108
1753.4	22.0452
1754.91	21.3123
1756.42	20.9757
1757.93	19.2079
1759.45	16.7573
1760.96	15.6559
1762.47	14.6093
1763.98	13.5325
1765.49	12.5265
1767	10.9794
1768.51	9.60783
1770.02	8.71198
1771.53	7.84223
1773.03	6.61639
1774.54	6.28474
1776.05	6.07672
1777.56	4.65823
1779.07	5.11316
1780.57	4.90182
1782.08	4.86354
1783.59	4.75243
1785.09	5.3037
1786.6	5.62981
1788.11	4.30736
1789.61	4.76694
1791.12	4.45349
1792.62	4.34185
1794.13	3.64892
1795.63	2.88585
1797.13	3.17592
1798.64	2.74582
1800.14	1.66006
1801.65	1.22477
1803.15	0.623284
1804.65	0.433253
1806.15	0.578654
1807.66	0.429217
1809.16	-0.051108
1810.66	-0.717154
1812.16	-0.291833
1813.66	-0.614779
1815.16	-0.133875
1816.66	0.386891
1818.16	0.975754
1819.66	1.66057
1821.16	1.71532
1822.66	2.82354
1824.16	2.47357
1825.66	2.4111
1827.16	2.43834
1828.66	3.38997
1830.16	3.06435
1831.65	3.16756
1833.15	2.89493
1834.65	3.3944
1836.14	3.30184
1837.64	4.03623
1839.14	3.93499
1840.63	3.98413
1842.13	4.59942
1843.62	4.77716
1845.12	4.70328
1846.61	4.33055
1848.11	5.1522
1849.6	5.30512
1851.1	5.77163
1852.59	5.74867
1854.08	5.68264
1855.58	5.43992
1857.07	5.10488
1858.56	5.25633
1860.05	4.34276
1861.55	3.59778
1863.04	3.68962
1864.53	3.92975
1866.02	3.45702
1867.51	3.45213
1869	2.292
1870.49	2.695
1871.98	2.41537
1873.47	2.52144
1874.96	2.61268
1876.45	3.09894
1877.94	3.25123
1879.43	4.09707
1880.92	3.52112
1882.41	2.5687
1882.51	2.46267
1884	2.69582
1885.5	2.73219
1886.99	2.47403
1888.48	1.84944
1889.98	1.34679
1891.47	1.15874
1892.96	0.689985
1894.46	-0.0042918
1895.95	-0.641
1897.44	-1.2693
1898.93	-1.10369
1900.42	-1.55438
1901.91	-1.18485
1903.41	-2.06181
1904.9	-1.08791
1906.39	-0.768127
1907.88	0.104309
1909.37	-0.0363273
1910.86	0.221993
1912.35	0.997064
1913.83	1.89868
1915.32	3.12169
1916.81	3.0696
1918.3	3.40296
1919.79	4.11689
1921.27	5.14053
1922.76	4.84091
1924.25	4.85859
1925.74	4.50371
1927.22	4.66635
1928.71	5.07944
1930.19	5.30871
1931.68	5.15545
1933.17	5.30719
1934.65	6.27499
1936.14	6.91995
1937.62	6.71938
1939.11	6.96454
1940.59	7.03755
1942.07	7.29067
1943.56	8.94549
1945.04	8.72384
1946.52	9.69298
1948.01	9.41199
1949.49	9.40167
1950.97	9.59326
1952.45	10.234
1953.93	9.97098
1955.42	10.4586
1956.9	10.6589
1958.38	10.9168
1959.86	10.5807
1961.34	10.3033
1962.82	9.50691
1964.3	9.31771
1965.78	9.72208
1967.26	8.54964
1968.74	8.68703
1970.21	8.32887
1971.69	8.68833
1973.17	7.75533
1974.65	7.84864
1976.13	8.36659
1977.6	8.05035
1979.08	8.66163
1980.56	7.88985
1982.03	7.75712
1983.51	8.19108
1984.99	8.75682
1986.46	9.80871
1987.94	9.58198
1989.41	9.4391
1990.89	8.85658
1992.36	8.30823
1993.84	7.81211
1995.31	7.91432
1996.78	7.28959
1998.26	7.141
1999.73	7.52112
2001.2	7.48711
2002.68	7.14531
2004.15	7.3188
2005.62	7.26895
2007.09	7.69062
2008.56	7.86269
2010.04	7.59428
2011.51	7.04354
2012.98	8.01657
2014.45	7.8785
2015.92	9.07628
2017.39	9.50201
2018.86	9.23042
2020.33	9.87426
2021.8	10.5695
2023.26	11.5933
2024.73	12.5601
2026.2	12.9301
2027.67	13.2002
2029.14	13.1305
2030.61	13.0032
2032.07	13.821
2033.54	13.6693
2035.01	13.3083
2036.47	12.9619
2037.94	14.1454
2039.4	14.2166
2040.87	14.7978
2042.33	15.3401
2043.8	15.663
2045.27	16.4053
2046.73	16.2833
2048.19	16.8351
2049.66	16.2425
2051.12	16.0967
2052.59	17.0772
2054.05	17.9007
2055.51	18.4576
2056.97	18.9384
2058.44	18.3827
2059.9	17.4988
2061.36	17.0986
2062.82	16.7375
2064.28	16.7805
2065.74	16.8987
2067.21	17.0107
2068.67	17.1977
2070.13	16.8148
2071.59	16.5478
2073.05	17.1493
2074.51	17.3675
2075.96	18.0205
2077.42	18.5117
2078.88	19.1027
2080.34	18.9175
2081.8	19.3001
2083.26	19.0163
2084.72	19.8239
2086.17	21.2147
2087.63	21.116
2089.09	22.0935
2090.54	22.0824
2092	22.799
2093.45	23.6462
2094.91	23.7308
2096.37	24.3014
2097.82	25.168
2099.28	25.8832
2100.73	27.3246
2102.19	27.9752
2103.64	28.8419
2105.09	30.0726
2106.55	30.7647
2108	32.2569
2109.45	34.1056
2110.91	36.1601
2112.36	36.7358
2113.81	37.9958
2115.26	38.9086
2116.72	40.2631
2118.17	39.9488
2119.62	41.4591
2121.07	42.4793
2122.52	44.1028
2123.97	46.0185
2125.42	47.5987
2126.87	47.9159
2128.32	48.2215
2129.77	50.0184
2131.22	51.9168
2132.67	53.0505
2134.11	54.9763
