#Acq. time (s)=	45
#Accumulations=	2
#Range (cm-¹)=	200...3150
#Windows=	2
#Auto scanning=	Off
#Autofocus=	Off
#Macrospot=	Off
#AutoExposure=	Off
#Spike filter=	Multiple accum.
#Delay time (s)=	0
#Binning=	1
#Readout mode=	Signal
#DeNoise=	Off
#ICS correction=	On
#Dark correction=	Off
#Inst. Process=	Off
#Detector Gain=	Best Dynamic Range
#Detector ADC=	20 kHz       
#Detector temperature (°C)=	-69.85
#Instrument=	LabRAM HR Evol
#Detector=	Synapse
#Objective=	x100
#Grating=	600 gr/mm
#ND Filter=	100%
#Laser (nm)=	532 
#Hole=	100.021
#Range=	Auto
#Laser Pol.=	No
#Raman. Pol.=	No
#Laser Pol. (°)=	-0.0007625
#Raman Pol. (°)=	89.9995
#Collection=	Microscope
#StageXY=	Marzhauser
#StageZ=	Marzhauser
#X (µm)=	-7081.2
#Y (µm)=	2197.1
#Z (µm)=	-74.5
#Full time(mm:ss)=	3:18
#Project=	
#Sample=	
#Site=	
#Title=	Mb_20_23_39_2x_45s_532 nm_x100_100%_600 gr_mm
#Remark=	
#Date=	13.07.2022 16:31
#Acquired=	13.07.2022 16:31:58
#Base:Fit=	10.08.2022 10:29:37
#Base:Sub=	10.08.2022 10:34:43
#Filter:Polynom=	16.08.2022 10:13:29
#AxisType[0]=Intens
#AxisUnit[0]=Cnt
#AxisType[1]=Spectr
#AxisUnit[1]=1/cm
200.563	41.6264
202.377	39.0749
204.194	38.9882
206.008	36.5721
207.821	34.8112
209.634	33.0021
211.449	31.7282
213.262	30.5151
215.074	30.1968
216.885	29.6785
218.699	30.0047
220.51	28.2872
222.321	27.8961
224.131	27.0357
225.941	27.9965
227.751	28.1943
229.562	28.6596
231.371	27.1291
233.18	25.4907
234.988	22.9222
236.796	22.2036
238.603	21.287
240.411	21.2542
242.219	20.6247
244.026	18.7722
245.832	17.814
247.638	17.7562
249.443	16.9449
251.248	16.0852
253.053	15.1197
254.857	14.548
256.661	13.8426
258.465	13.2544
260.268	12.7771
262.071	12.0251
263.874	11.2668
265.678	10.5189
267.48	9.85779
269.282	7.69584
271.083	5.99402
272.884	4.63528
274.684	5.57868
276.484	5.93863
278.284	4.36905
280.084	2.67657
281.883	1.20792
283.682	1.39113
285.48	0.876668
287.276	1.25513
289.074	0.0444954
290.871	0.0578577
292.668	-0.983559
294.465	-0.848419
296.261	0.503564
298.057	0.640294
299.853	3.26066
301.648	3.82137
303.443	5.97335
305.237	7.64408
307.032	8.71767
308.823	10.3877
310.617	11.3913
312.41	13.0573
314.203	13.4249
315.995	15.2957
317.788	15.4281
319.579	14.3283
321.369	13.7272
323.16	14.7816
324.951	15.405
326.741	16.7952
328.531	18.0865
330.321	18.8146
332.108	17.7859
333.897	17.7146
335.686	19.8448
337.474	21.0141
339.26	20.9469
341.048	20.6528
342.835	21.419
344.622	21.8353
346.406	20.9211
348.192	20.3983
349.978	19.8238
351.764	19.8043
353.547	17.9091
355.332	18.0851
357.116	17.9177
358.901	15.7598
360.682	16.3516
362.466	16.0915
364.249	15.5366
366.03	14.683
367.812	12.8683
369.594	12.3045
371.374	12.317
373.155	13.4908
374.936	12.7048
376.715	12.8957
378.495	12.1136
380.273	12.8866
382.053	13.5846
383.832	14.7795
385.609	14.1146
387.388	15.0864
389.164	15.8838
390.942	16.8626
392.72	17.1015
394.495	17.6353
396.272	18.8263
398.047	18.8416
399.823	18.5572
401.597	17.144
403.372	15.7724
405.145	16.1744
406.92	14.8306
408.693	14.0881
410.467	15.5794
412.239	16.0251
414.012	15.6349
415.783	16.0347
417.556	16.0778
419.327	15.589
421.099	15.5514
422.869	15.8296
424.64	15.9077
426.409	14.8559
428.18	14.5228
429.948	13.5383
431.718	12.8219
433.486	12.1072
435.253	11.4368
437.022	11.8272
438.789	11.3932
440.558	10.3588
442.324	10.6782
444.089	11.253
445.857	10.5013
447.622	10.0924
449.386	11.2889
451.153	11.311
452.917	12.3709
454.682	11.8571
456.446	11.0138
458.208	11.7881
459.973	11.7137
461.735	12.8507
463.497	14.4675
465.259	14.6404
467.022	14.6635
468.783	14.618
470.544	15.3345
472.306	15.5863
474.066	16.8926
475.825	18.9623
477.585	20.2129
479.346	22.1318
481.104	23.8754
482.862	27.7262
484.62	29.2706
486.38	29.9559
488.137	30.3181
489.894	31.2082
491.65	32.2755
493.407	35.1186
495.164	35.8812
496.92	37.3496
498.675	38.941
500.43	38.9218
502.184	39.2239
503.939	40.8825
505.694	40.8394
507.448	41.9314
509.201	41.9625
510.954	41.8477
512.706	44.125
514.459	44.3657
516.21	44.8041
517.962	44.4072
519.715	43.7522
521.466	45.4756
523.216	46.6923
524.966	46.7267
526.716	45.7707
528.466	44.4877
530.215	44.2167
531.964	42.1673
533.712	42.3144
535.46	42.0189
537.208	41.0641
538.955	40.3739
540.703	38.7646
542.449	35.9905
544.196	34.5924
545.942	33.9502
547.688	32.864
549.433	31.353
551.178	29.9444
552.923	28.7238
554.667	29.1453
556.412	28.5938
558.155	29.1866
559.899	28.4945
561.642	27.5937
563.385	27.2809
565.127	27.3366
566.867	26.8985
568.609	26.5635
570.35	24.7285
572.092	22.2867
573.832	20.0127
575.573	18.0884
577.313	18.1215
579.053	16.4694
580.79	15.9497
582.529	14.4011
584.268	13.1463
586.006	11.644
587.745	11.0534
589.482	11.8561
591.218	11.7887
592.955	11.019
594.692	9.92335
596.428	10.0427
598.164	9.64525
599.898	10.1065
601.634	8.02466
603.369	7.73597
605.104	6.98604
606.836	7.35242
608.57	6.94335
610.304	6.63466
612.037	5.69963
613.769	4.7082
615.501	3.61895
617.234	4.40864
618.966	5.16859
620.696	6.08743
622.427	4.7677
624.159	4.88825
625.887	4.3659
627.618	4.12747
629.348	4.33199
631.076	4.74022
632.806	5.11821
634.535	4.48733
636.262	4.36252
637.99	5.56523
639.716	7.77216
641.444	7.85683
643.172	7.5584
644.897	8.21339
646.624	8.77126
648.348	9.43328
650.075	10.62
651.801	10.9364
653.524	10.6668
655.249	12.0279
656.972	12.9987
658.697	13.9837
660.419	14.7058
662.143	15.7862
663.865	17.1087
665.588	16.9523
667.309	17.3518
669.032	16.6946
670.752	16.6678
672.474	16.73
674.194	18.4267
675.915	18.1631
677.634	18.4402
679.355	18.7904
681.073	17.9855
682.793	18.7109
684.511	18.0171
686.23	18.9062
687.947	18.0089
689.664	17.0037
691.382	15.2263
693.098	15.903
694.816	14.7489
696.531	15.8424
698.247	15.3993
699.963	15.2465
701.678	15.1794
703.392	15.4401
705.108	14.4365
706.821	14.5183
708.534	15.1044
710.249	17.2269
711.962	16.2926
713.674	16.5669
715.388	17.6659
717.099	16.9419
718.81	16.1553
720.523	16.3079
722.234	17.3858
723.944	18.4933
725.654	19.6061
727.365	19.5684
729.075	21.3161
730.784	22.3971
732.492	22.1459
734.202	23.1824
735.91	22.9941
737.618	23.5189
739.325	24.9511
741.034	26.155
742.741	25.7966
744.447	25.9569
746.153	26.5304
747.859	28.5869
749.564	30.8108
751.271	32.5266
752.976	33.668
754.681	34.6567
756.385	36.1569
758.088	38.1241
759.792	39.7757
761.495	42.0069
763.2	43.7987
764.902	44.3183
766.604	45.5947
768.306	48.6047
770.008	49.5314
771.709	50.887
773.41	51.3185
775.11	52.9259
776.811	55.9595
778.51	59.54
780.21	61.1737
781.909	61.3711
783.608	62.7328
785.307	63.2062
787.005	65.2718
788.703	67.1242
790.401	68.3111
792.098	70.637
793.795	71.1302
795.492	72.1376
797.188	70.5933
798.884	72.1747
800.58	72.4862
802.276	71.822
803.971	71.9492
805.665	71.5324
807.36	71.6993
809.054	72.0494
810.748	72.604
812.441	73.3863
814.135	75.5454
815.826	75.7105
817.518	75.4597
819.21	76.5474
820.902	76.8123
822.594	76.6188
824.285	77.3371
825.976	76.9956
827.665	78.2568
829.355	80.2441
831.045	81.454
832.735	81.9061
834.424	81.9852
836.111	81.0801
837.8	79.7032
839.488	78.5459
841.177	77.6618
842.864	75.7907
844.55	74.4359
846.237	74.0624
847.924	71.3447
849.61	70.913
851.295	71.0395
852.98	70.7504
854.666	68.3873
856.349	69.4016
858.034	68.9761
859.719	68.8711
861.403	67.6313
863.085	65.9865
864.769	62.9983
866.452	61.0602
868.133	63.138
869.816	62.3889
871.498	61.7453
873.179	59.7437
874.86	57.2301
876.54	56.6309
878.221	55.2298
879.902	55.818
881.58	54.1839
883.26	54.6456
884.938	53.088
886.618	52.935
888.297	53.0854
889.974	51.932
891.653	53.9369
893.329	53.1195
895.007	53.7833
896.683	53.5922
898.36	54.334
900.035	52.9869
901.712	52.0595
903.387	51.7523
905.063	51.0535
906.737	49.6758
908.412	49.7166
910.085	50.2859
911.76	50.3947
913.433	49.3352
915.107	46.8445
916.779	45.8332
918.452	44.87
920.124	42.6638
921.797	40.8022
923.467	39.0691
925.138	38.2035
926.81	37.5612
928.48	38.3303
930.151	37.3859
931.82	36.9837
933.489	36.7107
935.16	36.9155
936.828	35.2914
938.496	33.7766
940.165	32.8079
941.833	32.4094
943.5	31.0587
945.168	29.6285
946.834	28.521
948.5	27.8909
950.168	28.1926
951.834	28.4157
953.499	26.3824
955.163	24.9013
956.83	23.6301
958.494	22.3686
960.158	20.7072
961.821	18.9093
963.487	19.1022
965.15	18.1052
966.812	17.698
968.474	18.1196
970.138	18.6817
971.8	18.404
973.461	16.96
975.123	18.1138
976.783	17.4908
978.446	17.2093
980.106	15.8505
981.766	15.6638
983.425	14.9761
985.084	14.0367
986.743	14.3658
988.402	13.3075
990.06	12.969
991.72	13.6867
993.378	13.5716
995.035	12.7961
996.692	11.9921
998.349	11.3329
1000.01	11.1924
1001.66	11.4988
1003.32	11.9554
1004.97	13.3458
1006.63	14.9335
1008.28	15.8835
1009.94	16.3048
1011.59	17.3844
1013.25	18.4795
1014.9	19.4585
1016.55	20.9183
1018.21	22.3132
1019.86	23.046
1021.51	25.8472
1023.16	29.6845
1024.81	33.7514
1026.47	35.9954
1028.12	39.2886
1029.77	42.7919
1031.42	47.9077
1033.07	50.7967
1034.72	54.7972
1036.37	58.5276
1038.02	61.494
1039.67	63.3949
1041.31	66.5306
1042.96	69.8331
1044.61	74.2179
1046.26	79.3738
1047.91	82.4696
1049.55	84.1557
1051.2	86.13
1052.84	86.2286
1054.49	87.1564
1056.14	89.2296
1057.78	90.7134
1059.43	91.3589
1061.07	89.5648
1062.72	90.1555
1064.36	89.0343
1066	87.4264
1067.65	86.5024
1069.29	85.3327
1070.93	84.4677
1072.58	84.0785
1074.22	82.765
1075.86	79.0361
1077.5	77.4912
1079.14	75.5441
1080.78	74.3741
1082.42	71.2782
1084.06	68.9714
1085.7	65.3314
1087.34	62.0097
1088.98	60.035
1090.62	59.2141
1092.26	59.6937
1093.9	58.7532
1095.54	58.0715
1097.17	56.382
1098.81	56.257
1100.45	55.2701
1102.09	56.4262
1103.72	57.5698
1105.36	59.2331
1106.99	61.1485
1108.63	62.8979
1110.27	64.1896
1111.9	66.6213
1113.53	67.1593
1115.17	65.6664
1116.8	67.2822
1118.43	68.0745
1120.07	67.0206
1121.7	65.7234
1123.33	65.4862
1124.97	64.8688
1126.6	63.9732
1128.23	62.2577
1129.86	60.2887
1131.49	58.5412
1133.12	57.3203
1134.75	56.3417
1136.38	55.9012
1138.01	54.9001
1139.64	52.6302
1141.27	49.8199
1142.9	46.4309
1144.53	44.9972
1146.16	41.1423
1147.78	39.6273
1149.41	37.0207
1151.04	35.3033
1152.67	32.3775
1154.29	28.4635
1155.92	25.4692
1157.54	21.9348
1159.17	19.2946
1160.8	15.3655
1162.42	12.34
1164.05	7.4158
1165.67	5.51681
1167.29	3.73132
1168.92	3.8531
1170.54	4.14591
1172.16	3.52321
1173.79	1.13561
1175.41	-1.65581
1177.03	-1.95169
1178.65	-3.07583
1180.28	-2.64626
1181.9	-1.87515
1183.52	-1.14628
1185.14	0.213375
1186.76	1.81726
1188.38	3.16366
1190	3.01737
1191.62	2.42736
1193.24	3.67069
1194.86	3.70409
1196.47	4.29977
1198.09	5.53558
1199.71	5.43129
1201.33	6.70311
1202.95	8.17434
1204.56	9.97163
1206.18	12.0112
1207.8	13.2357
1209.41	14.8897
1211.03	17.8298
1212.64	20.5189
1214.26	22.8493
1215.87	24.9957
1217.49	27.7603
1219.1	30.0492
1220.71	32.1952
1222.33	35.1644
1223.94	37.2707
1225.55	40.4083
1227.16	41.4391
1228.78	43.7039
1230.39	46.3026
1232	49.8858
1233.61	51.6584
1235.22	54.7414
1236.83	57.0255
1238.44	58.0799
1240.05	59.867
1241.66	61.8935
1243.27	63.9173
1244.88	65.6784
1246.49	68.3852
1248.1	69.5269
1249.71	72.0997
1251.32	71.2109
1252.92	71.5479
1254.53	72.5483
1256.14	74.4537
1257.74	77.566
1259.35	80.6904
1260.96	84.6809
1262.56	89.0087
1264.17	92.9542
1265.77	98.598
1267.38	102.72
1268.98	107.65
1270.59	112.995
1272.19	117.205
1273.79	124.188
1275.4	127.3
1277	132.348
1278.6	136.623
1280.21	142.47
1281.81	146.947
1283.41	150.851
1285.01	154.074
1286.61	157.884
1288.21	161.169
1289.81	165.259
1291.41	167.956
1293.01	171.553
1294.61	174.635
1296.21	176.287
1297.81	177.557
1299.41	178.129
1301.01	179.994
1302.6	180.32
1304.2	178.559
1305.8	181.04
1307.4	181.412
1308.99	183.834
1310.59	185.333
1312.19	185.131
1313.78	185.081
1315.38	184.39
1316.97	185.108
1318.57	185.809
1320.16	184.955
1321.76	183.352
1323.35	181.434
1324.94	179.009
1326.54	176.277
1328.13	173.322
1329.72	170.33
1331.32	166.879
1332.91	165.819
1334.5	163.873
1336.09	161.385
1337.68	160.269
1339.27	159.315
1340.87	159.403
1342.45	157.719
1344.04	156.769
1345.64	154.781
1347.22	154.563
1348.81	154.838
1350.4	153.506
1351.99	151.881
1353.58	151.558
1355.17	148.118
1356.75	147.028
1358.34	143.916
1359.93	141.047
1361.51	137.554
1363.1	134.344
1364.69	131.697
1366.27	129.687
1367.86	127.353
1369.44	124.814
1371.03	122.411
1372.61	122.216
1374.2	118.88
1375.78	116.235
1377.37	113.652
1378.95	112.968
1380.53	113.901
1382.11	113.229
1383.7	113.775
1385.28	116.575
1386.86	115.968
1388.44	115.827
1390.02	116.374
1391.6	116.402
1393.19	115.884
1394.77	115.424
1396.35	115.205
1397.93	113.83
1399.51	112.879
1401.08	114.1
1402.66	116.605
1404.24	120.023
1405.82	124.538
1407.4	130.737
1408.97	136.107
1410.55	144.364
1412.13	150.718
1413.71	158.713
1415.28	168.411
1416.86	179.717
1418.43	192.314
1420.01	205.264
1421.59	216.388
1423.16	228.369
1424.73	241.821
1426.31	256.64
1427.88	269.902
1429.46	281.473
1431.03	293.252
1432.6	303.448
1434.18	312.688
1435.75	323.231
1437.32	332.496
1438.89	339.826
1440.46	347.277
1442.04	352.609
1443.61	357.485
1445.18	361.175
1446.75	364.372
1448.32	364.926
1449.89	366.423
1451.46	365.954
1453.03	362.084
1454.6	358.523
1456.16	352.218
1457.73	346.927
1459.3	340.588
1460.87	330.698
1462.44	320.84
1464	309.851
1465.57	297.818
1467.14	284.946
1468.7	271.452
1470.27	257.661
1471.83	243.741
1473.4	230.708
1474.96	218.604
1476.53	205.662
1478.09	193.33
1479.66	182.292
1481.22	170.423
1482.78	158.279
1484.35	145.799
1485.91	133.573
1487.47	120.676
1489.04	110.072
1490.6	100.351
1492.16	95.7888
1493.72	92.9622
1495.28	92.7673
1496.84	92.6881
1498.4	92.6576
1499.96	92.574
1501.52	93.6948
1503.08	95.7279
1504.64	97.1402
1506.2	98.9081
1507.76	99.0432
1509.32	99.9513
1510.88	101.217
1512.44	102.901
1513.99	104.904
1515.55	105.28
1517.11	105.002
1518.66	104.175
1520.22	104.933
1521.78	105.014
1523.33	106.928
1524.89	108.106
1526.44	108.594
1528	109.958
1529.55	109.422
1531.11	108.672
1532.66	109.198
1534.21	110.054
1535.77	110.702
1537.32	111.148
1538.87	110.149
1540.43	109.648
1541.98	108.431
1543.53	108.015
1545.08	107.224
1546.63	107.219
1548.18	106.295
1549.74	103.461
1551.29	100.328
1552.84	97.2309
1554.39	93.1788
1555.94	89.6466
1557.48	86.4878
1559.03	82.6087
1560.58	79.9797
1562.13	76.9608
1563.68	77.1947
1565.23	78.6601
1566.78	82.1756
1568.32	87.4847
1569.87	92.7005
1571.42	96.9072
1572.96	101.17
1574.51	103.383
1576.05	106.484
1577.6	109.778
1579.14	113.078
1580.69	115.232
1582.24	118.064
1583.78	120.644
1585.32	121.932
1586.87	122.932
1588.41	123.864
1589.95	125.304
1591.5	125.409
1593.04	125.263
1594.58	125.51
1596.12	125.129
1597.67	127.12
1599.21	127.051
1600.75	127.21
1602.29	127.508
1603.83	127.924
1605.37	128.382
1606.91	129.143
1608.45	128.519
1609.99	128.71
1611.53	128.495
1613.07	126.213
1614.6	125.986
1616.14	125.929
1617.68	126.222
1619.22	126.755
1620.75	127.33
1622.29	127.746
1623.83	127.915
1625.37	127.276
1626.9	127.372
1628.44	127.237
1629.97	127.026
1631.51	127.023
1633.04	127.746
1634.58	127.608
1636.11	127.228
1637.65	127.931
1639.18	128.108
1640.72	130.108
1642.25	131.114
1643.78	132.816
1645.31	133.27
1646.85	134.058
1648.38	134.604
1649.91	136.369
1651.44	136.661
1652.97	137.447
1654.5	137.734
1656.03	135.663
1657.56	133.967
1659.1	133.178
1660.62	131.866
1662.15	129.067
1663.68	127.031
1665.21	124.55
1666.74	123.223
1668.27	120.106
1669.8	116.924
1671.32	114.076
1672.85	110.799
1674.38	108.676
1675.91	104.536
1677.43	100.043
1678.96	98.6549
1680.49	95.189
1682.01	91.0411
1683.54	87.1207
1685.06	82.5639
1686.59	79.2743
1688.11	75.7494
1689.64	72.4215
1691.16	70.1194
1692.68	67.2919
1694.21	63.7563
1695.73	61.6506
1697.25	59.8104
1698.78	56.5453
1700.3	54.1694
1701.82	51.2975
1703.34	48.9568
1704.86	46.444
1706.39	44.7179
1707.91	43.1055
1709.43	40.901
1710.95	38.4443
1712.47	38.2007
1713.99	38.2049
1715.51	37.2633
1717.02	37.6436
1718.54	37.065
1720.06	36.4266
1721.58	34.7273
1723.1	34.4583
1724.62	33.5398
1726.13	33.5869
1727.65	31.5322
1729.17	30.5184
1730.68	28.9767
1732.2	27.4655
1733.72	27.5729
1735.23	27.1708
1736.75	26.175
1738.26	24.952
1739.78	24.9622
1741.29	24.2579
1742.81	23.8796
1744.32	22.4864
1745.84	21.3537
1747.35	20.7111
1748.86	20.2718
1750.37	19.6896
1751.89	17.9111
1753.4	17.145
1754.91	16.4055
1756.42	15.4984
1757.93	14.9289
1759.45	14.1344
1760.96	12.8018
1762.47	11.282
1763.98	11.0354
1765.49	10.5836
1767	9.51183
1768.51	8.9895
1770.02	8.78488
1771.53	8.38918
1773.03	7.55162
1774.54	5.81572
1776.05	5.68919
1777.56	4.74958
1779.07	4.19132
1780.57	3.49387
1782.08	3.26153
1783.59	3.13994
1785.09	2.5872
1786.6	3.28588
1788.11	4.19662
1789.61	4.23206
1791.12	4.80849
1792.62	6.18085
1794.13	5.46534
1795.63	4.64368
1797.13	4.41233
1798.64	4.70038
1800.14	4.01403
1801.65	2.992
1803.15	2.94296
1804.65	3.82911
1806.15	3.90471
1807.66	4.04484
1809.16	4.25939
1810.66	4.05842
1812.16	3.99342
1813.66	4.09085
1815.16	4.19983
1816.66	3.69185
1818.16	3.24184
1819.66	3.20202
1821.16	3.07976
1822.66	3.51831
1824.16	3.10096
1825.66	2.23693
1827.16	1.24346
1828.66	0.980831
1830.16	1.07181
1831.65	1.84276
1833.15	1.62398
1834.65	1.04022
1836.14	1.11038
1837.64	1.04512
1839.14	1.91215
1840.63	1.48127
1842.13	1.34993
1843.62	0.512812
1845.12	0.651693
1846.61	0.523567
1848.11	1.03708
1849.6	0.944066
1851.1	1.63039
1852.59	2.10085
1854.08	3.15706
1855.58	4.89834
1857.07	5.56399
1858.56	7.83711
1860.05	8.35682
1861.55	10.0761
1863.04	11.284
1864.53	12.4175
1866.02	12.3016
1867.51	12.4228
1869	11.6777
1870.49	11.9862
1871.98	12.7419
1873.47	13.0643
1874.96	13.8978
1876.45	14.4429
1877.94	15.4006
1879.43	15.4147
1880.92	16.2913
1882.41	16.6832
1882.51	16.5555
1884	16.5294
1885.5	16.7926
1886.99	16.594
1888.48	16.2202
1889.98	16.1503
1891.47	15.7705
1892.96	15.2684
1894.46	15.5042
1895.95	15.1713
1897.44	14.3867
1898.93	13.8447
1900.42	14.1414
1901.91	14.4093
1903.41	15.3441
1904.9	14.8083
1906.39	14.2697
1907.88	14.0289
1909.37	13.8612
1910.86	13.8896
1912.35	14.7578
1913.83	14.5669
1915.32	14.6907
1916.81	16.08
1918.3	17.108
1919.79	18.2206
1921.27	19.1687
1922.76	20.032
1924.25	20.1474
1925.74	20.26
1927.22	20.0957
1928.71	20.1137
1930.19	19.9918
1931.68	20.6169
1933.17	18.1572
1934.65	18.3274
1936.14	17.594
1937.62	17.0705
1939.11	15.4253
1940.59	15.0424
1942.07	14.2892
1943.56	13.7648
1945.04	13.7658
1946.52	14.3247
1948.01	14.4583
1949.49	13.8106
1950.97	13.1127
1952.45	12.9519
1953.93	12.5851
1955.42	11.8176
1956.9	10.7987
1958.38	9.4508
1959.86	8.67003
1961.34	7.54741
1962.82	6.76065
1964.3	6.32969
1965.78	6.38959
1967.26	5.73452
1968.74	6.6169
1970.21	6.16462
1971.69	6.09148
1973.17	5.62513
1974.65	6.53364
1976.13	6.84724
1977.6	7.93008
1979.08	7.15613
1980.56	7.88151
1982.03	8.28665
1983.51	8.73032
1984.99	10.5148
1986.46	11.3645
1987.94	11.5501
1989.41	13.2684
1990.89	14.4679
1992.36	13.5135
1993.84	14.0628
1995.31	13.029
1996.78	12.5773
1998.26	11.291
1999.73	12.1294
2001.2	11.6615
2002.68	12.2409
2004.15	12.7065
2005.62	12.3881
2007.09	11.7531
2008.56	12.3856
2010.04	11.8512
2011.51	11.5705
2012.98	11.6756
2014.45	11.5797
2015.92	11.8588
2017.39	12.5446
2018.86	13.807
2020.33	13.7493
2021.8	13.2462
2023.26	12.9256
2024.73	12.6679
2026.2	12.2841
2027.67	12.6246
2029.14	12.6523
2030.61	10.9167
2032.07	11.0259
2033.54	11.3407
2035.01	11.0166
2036.47	11.3826
2037.94	12.5311
2039.4	13.1203
2040.87	12.2858
2042.33	12.8912
2043.8	12.871
2045.27	12.9896
2046.73	14.1998
2048.19	14.3468
2049.66	14.3045
2051.12	14.2525
2052.59	14.4695
2054.05	15.11
2055.51	15.1759
2056.97	16.5627
2058.44	16.8832
2059.9	15.8211
2061.36	15.5321
2062.82	15.7939
2064.28	15.3554
2065.74	15.4717
2067.21	16.224
2068.67	16.4654
2070.13	17.7507
2071.59	17.7632
2073.05	18.3255
2074.51	17.9096
2075.96	18.3473
2077.42	17.1679
2078.88	15.7018
2080.34	15.6193
2081.8	16.4895
2083.26	18.1614
2084.72	19.9597
2086.17	20.7963
2087.63	21.551
2089.09	22.9366
2090.54	23.6628
2092	24.0834
2093.45	24.2283
2094.91	24.4151
2096.37	25.5628
2097.82	25.9604
2099.28	25.9542
2100.73	27.4484
2102.19	29.0471
2103.64	29.6138
2105.09	31.808
2106.55	32.488
2108	33.4561
2109.45	34.4609
2110.91	35.443
2112.36	35.4235
2113.81	36.0419
2115.26	37.4458
2116.72	38.9339
2118.17	39.6482
2119.62	40.3772
2121.07	40.731
2122.52	42.5357
2123.97	44.4394
2125.42	46.4247
2126.87	46.1052
2128.32	47.4768
2129.77	48.2738
2131.22	49.0311
2132.67	49.6968
2134.11	51.767
2135.56	53.952
