#Acq. time (s)=	45
#Accumulations=	2
#Range (cm-¹)=	200...3150
#Windows=	2
#Auto scanning=	Off
#Autofocus=	Off
#Macrospot=	Off
#AutoExposure=	Off
#Spike filter=	Multiple accum.
#Delay time (s)=	0
#Binning=	1
#Readout mode=	Signal
#DeNoise=	Off
#ICS correction=	On
#Dark correction=	Off
#Inst. Process=	Off
#Detector Gain=	Best Dynamic Range
#Detector ADC=	20 kHz       
#Detector temperature (°C)=	-69.85
#Instrument=	LabRAM HR Evol
#Detector=	Synapse
#Objective=	x100
#Grating=	600 gr/mm
#ND Filter=	100%
#Laser (nm)=	532 
#Hole=	100.021
#Range=	Auto
#Laser Pol.=	No
#Raman. Pol.=	No
#Laser Pol. (°)=	-0.0007625
#Raman Pol. (°)=	89.9995
#Collection=	Microscope
#StageXY=	Marzhauser
#StageZ=	Marzhauser
#X (µm)=	-6958.5
#Y (µm)=	2179.2
#Z (µm)=	-74.45
#Full time(mm:ss)=	3:18
#Project=	
#Sample=	
#Site=	
#Title=	Mb_20_23_06_2x_45s_532 nm_x100_100%_600 gr_mm
#Remark=	
#Date=	13.07.2022 13:23
#Acquired=	13.07.2022 13:23:54
#Base:Fit=	10.08.2022 10:29:19
#Base:Fit=	10.08.2022 10:29:37
#Base:Sub=	10.08.2022 10:31:46
#Filter:Polynom=	16.08.2022 10:13:29
#AxisType[0]=Intens
#AxisUnit[0]=Cnt
#AxisType[1]=Spectr
#AxisUnit[1]=1/cm
200.563	27.7015
202.377	26.9564
204.194	28.458
206.008	27.9263
207.821	27.8894
209.634	27.5071
211.449	27.3808
213.262	27.3133
215.074	26.9964
216.885	26.6332
218.699	26.0331
220.51	25.6309
222.321	25.6756
224.131	25.7005
225.941	24.8108
227.751	24.9849
229.562	24.7104
231.371	23.6922
233.18	22.234
234.988	20.9438
236.796	19.5148
238.603	19.5543
240.411	18.7636
242.219	17.6087
244.026	16.6512
245.832	16.3094
247.638	16.0236
249.443	14.8043
251.248	13.3386
253.053	11.9298
254.857	11.3361
256.661	10.9312
258.465	9.34631
260.268	9.80687
262.071	9.2893
263.874	7.71936
265.678	7.88233
267.48	7.95061
269.282	7.76817
271.083	6.76032
272.884	5.51333
274.684	6.24947
276.484	4.7496
278.284	4.3889
280.084	4.31408
281.883	3.8937
283.682	1.63329
285.48	1.00293
287.276	0.454638
289.074	-0.965728
290.871	0.272406
292.668	1.54002
294.465	1.00644
296.261	2.51743
298.057	2.61445
299.853	3.87326
301.648	4.45698
303.443	4.02989
305.237	4.96096
307.032	5.73873
308.823	5.6514
310.617	6.41395
312.41	6.95957
314.203	7.20012
315.995	7.75982
317.788	8.48804
319.579	8.32312
321.369	8.44875
323.16	8.5866
324.951	8.46929
326.741	8.60276
328.531	9.679
330.321	9.47713
332.108	10.13
333.897	9.73579
335.686	10.0622
337.474	9.41541
339.26	9.00356
341.048	8.90496
342.835	8.67459
344.622	8.90877
346.406	8.61813
348.192	9.31241
349.978	8.63259
351.764	7.86293
353.547	7.61644
355.332	6.90287
357.116	7.0838
358.901	5.89908
360.682	4.86319
362.466	3.73483
364.249	3.01329
366.03	3.05373
367.812	4.23772
369.594	3.9184
371.374	4.91647
373.155	4.61669
374.936	6.33785
376.715	6.12587
378.495	6.62378
380.273	8.14315
382.053	7.82361
383.832	8.15356
385.609	8.32069
387.388	9.10753
389.164	8.87182
390.942	9.18949
392.72	10.1663
394.495	10.1164
396.272	9.72269
398.047	8.99072
399.823	9.59328
401.597	9.46085
403.372	9.05398
405.145	9.54816
406.92	9.24732
408.693	9.4551
410.467	9.20352
412.239	8.51818
414.012	7.5038
415.783	6.77067
417.556	6.94624
419.327	6.21047
421.099	5.48739
422.869	4.44635
424.64	4.91191
426.409	5.16337
428.18	4.99088
429.948	3.80439
431.718	2.86883
433.486	2.27587
435.253	0.933894
437.022	0.794635
438.789	0.590855
440.558	1.03926
442.324	0.390607
444.089	-0.034323
445.857	1.06134
447.622	1.00749
449.386	0.82134
451.153	1.00981
452.917	2.19189
454.682	3.59076
456.446	3.57445
458.208	3.81527
459.973	4.19274
461.735	4.2749
463.497	4.87225
465.259	5.35933
467.022	6.39055
468.783	7.47545
470.544	7.22709
472.306	9.17611
474.066	10.4662
475.825	12.4611
477.585	12.753
479.346	14.6411
481.104	15.2201
482.862	15.1545
484.62	15.765
486.38	16.6373
488.137	17.5683
489.894	19.496
491.65	21.0443
493.407	22.4672
495.164	23.4224
496.92	22.6741
498.675	22.8284
500.43	23.0648
502.184	24.5092
503.939	25.0972
505.694	26.8413
507.448	27.3532
509.201	28.0435
510.954	27.7701
512.706	28.4005
514.459	28.6932
516.21	28.5475
517.962	27.9373
519.715	27.9098
521.466	28.2005
523.216	28.1712
524.966	29.6543
526.716	30.3653
528.466	29.4432
530.215	29.9875
531.964	30.2093
533.712	30.2853
535.46	29.218
537.208	27.8411
538.955	27.2642
540.703	26.3724
542.449	25.5591
544.196	24.1985
545.942	24.7953
547.688	24.9864
549.433	25.1354
551.178	23.6896
552.923	22.7095
554.667	21.4422
556.412	21.6471
558.155	20.3033
559.899	20.1738
561.642	18.4391
563.385	17.6091
565.127	16.2609
566.867	14.9948
568.609	14.6202
570.35	13.5486
572.092	13.1505
573.832	12.4729
575.573	11.7441
577.313	12.0606
579.053	10.2294
580.79	8.65577
582.529	8.43541
584.268	7.35181
586.006	8.45746
587.745	8.50913
589.482	8.28709
591.218	6.36699
592.955	6.41131
594.692	5.75845
596.428	5.61493
598.164	5.54096
599.898	7.82425
601.634	8.39182
603.369	8.85639
605.104	9.27319
606.836	10.304
608.57	11.4126
610.304	12.248
612.037	14.0164
613.769	14.425
615.501	13.891
617.234	14.067
618.966	13.8044
620.696	13.9342
622.427	11.8835
624.159	11.5241
625.887	12.1969
627.618	13.5941
629.348	14.0648
631.076	13.6546
632.806	14.0267
634.535	14.0533
636.262	13.3432
637.99	11.612
639.716	11.4547
641.444	12.3913
643.172	11.8993
644.897	11.3187
646.624	10.387
648.348	10.6383
650.075	11.1484
651.801	10.438
653.524	10.8618
655.249	12.0597
656.972	11.069
658.697	11.3291
660.419	10.1921
662.143	10.6827
663.865	10.3582
665.588	9.73588
667.309	10.0343
669.032	11.1696
670.752	10.4423
672.474	10.5993
674.194	10.1976
675.915	9.89614
677.634	9.86483
679.355	10.9893
681.073	11.6232
682.793	13.4799
684.511	14.6553
686.23	15.9142
687.947	15.984
689.664	15.932
691.382	16.1601
693.098	17.0205
694.816	18.746
696.531	19.873
698.247	21.2092
699.963	21.7178
701.678	22.052
703.392	22.989
705.108	23.2185
706.821	23.5977
708.534	23.7913
710.249	26.8041
711.962	29.9276
713.674	31.8353
715.388	32.0315
717.099	33.4147
718.81	35.6194
720.523	37.1777
722.234	36.5876
723.944	36.9746
725.654	38.2462
727.365	39.9641
729.075	40.5676
730.784	42.5847
732.492	42.9508
734.202	44.3519
735.91	45.4805
737.618	46.147
739.325	47.5545
741.034	48.483
742.741	47.6721
744.447	48.877
746.153	49.8199
747.859	51.1406
749.564	51.3429
751.271	52.7467
752.976	54.2254
754.681	54.8778
756.385	54.9611
758.088	55.7567
759.792	55.7839
761.495	56.4235
763.2	56.6
764.902	57.2871
766.604	57.9976
768.306	58.6512
770.008	58.9814
771.709	60.0299
773.41	61.1755
775.11	62.3658
776.811	63.9392
778.51	65.8588
780.21	66.4275
781.909	67.5941
783.608	68.3028
785.307	68.6351
787.005	70.1961
788.703	71.6242
790.401	72.9978
792.098	75.4149
793.795	75.9124
795.492	78.2566
797.188	79.0695
798.884	79.3388
800.58	80.7921
802.276	81.1255
803.971	81.8928
805.665	82.5147
807.36	83.7491
809.054	85.5104
810.748	87.4369
812.441	88.3502
814.135	89.4799
815.826	89.3142
817.518	89.4222
819.21	90.6898
820.902	92.557
822.594	92.2482
824.285	93.1081
825.976	93.4144
827.665	94.1633
829.355	95.4349
831.045	95.4836
832.735	95.9186
834.424	96.3065
836.111	96.4735
837.8	95.7351
839.488	95.0022
841.177	94.315
842.864	93.2786
844.55	92.7077
846.237	92.1609
847.924	91.3785
849.61	90.0707
851.295	89.6942
852.98	89.3935
854.666	88.5282
856.349	87.0777
858.034	85.5436
859.719	83.9244
861.403	81.9064
863.085	81.7895
864.769	81.7104
866.452	80.7834
868.133	79.4432
869.816	78.5421
871.498	77.7959
873.179	76.5916
874.86	74.8623
876.54	73.5571
878.221	72.6045
879.902	73.3288
881.58	72.1254
883.26	72.175
884.938	72.4834
886.618	71.0063
888.297	71.3397
889.974	71.0017
891.653	70.2868
893.329	68.4461
895.007	67.5537
896.683	67.1745
898.36	65.972
900.035	66.2356
901.712	67.818
903.387	68.1201
905.063	67.7831
906.737	66.6404
908.412	67.0268
910.085	66.6191
911.76	67.0368
913.433	66.402
915.107	66.102
916.779	65.9231
918.452	64.1968
920.124	61.6681
921.797	61.1579
923.467	60.436
925.138	59.4248
926.81	59.1958
928.48	57.5462
930.151	55.491
931.82	54.644
933.489	53.6526
935.16	53.2013
936.828	53.7305
938.496	53.0428
940.165	52.6366
941.833	51.8076
943.5	50.5938
945.168	49.6876
946.834	49.4487
948.5	47.3719
950.168	45.4428
951.834	46.0583
953.499	44.8797
955.163	44.6442
956.83	43.8374
958.494	42.8517
960.158	42.2665
961.821	42.9508
963.487	42.4995
965.15	42.3195
966.812	42.3315
968.474	42.3088
970.138	42.7722
971.8	43.4309
973.461	43.7658
975.123	44.8838
976.783	46.0903
978.446	48.0345
980.106	49.3689
981.766	49.4415
983.425	52.0847
985.084	52.1054
986.743	51.7634
988.402	52.2382
990.06	52.6905
991.72	53.4245
993.378	54.5504
995.035	54.0056
996.692	54.1425
998.349	54.2174
1000.01	54.5328
1001.66	54.7997
1003.32	54.8363
1004.97	55.9977
1006.63	56.0951
1008.28	57.2764
1009.94	58.4245
1011.59	59.0221
1013.25	60.4582
1014.9	61.4162
1016.55	62.2329
1018.21	62.3664
1019.86	62.9767
1021.51	62.4601
1023.16	61.0487
1024.81	60.235
1026.47	60.3685
1028.12	61.8404
1029.77	61.2408
1031.42	61.2035
1033.07	61.9721
1034.72	62.7018
1036.37	61.75
1038.02	61.7653
1039.67	61.0611
1041.31	62.0487
1042.96	63.3376
1044.61	64.3183
1046.26	65.2865
1047.91	66.1724
1049.55	65.8768
1051.2	67.1759
1052.84	67.5717
1054.49	67.0073
1056.14	67.0218
1057.78	66.9667
1059.43	66.5686
1061.07	66.0399
1062.72	65.0489
1064.36	64.789
1066	64.177
1067.65	62.9815
1069.29	63.2646
1070.93	63.6098
1072.58	62.1997
1074.22	61.2302
1075.86	60.5597
1077.5	58.7015
1079.14	57.7899
1080.78	56.3207
1082.42	55.1681
1084.06	54.7422
1085.7	52.3947
1087.34	52.3888
1088.98	51.5587
1090.62	51.3353
1092.26	52.1073
1093.9	50.3786
1095.54	48.4427
1097.17	48.0766
1098.81	48.0653
1100.45	47.0984
1102.09	46.9028
1103.72	47.0215
1105.36	45.6157
1106.99	46.4444
1108.63	47.2906
1110.27	46.9447
1111.9	45.0184
1113.53	44.3612
1115.17	43.8022
1116.8	42.69
1118.43	41.8658
1120.07	41.4307
1121.7	40.8308
1123.33	40.7615
1124.97	40.1547
1126.6	38.3333
1128.23	38.0955
1129.86	36.0088
1131.49	34.3704
1133.12	33.8793
1134.75	32.351
1136.38	32.0725
1138.01	32.0264
1139.64	31.4161
1141.27	31.1532
1142.9	30.8523
1144.53	29.3875
1146.16	29.0475
1147.78	27.2503
1149.41	27.3587
1151.04	26.9455
1152.67	25.6534
1154.29	23.781
1155.92	22.3643
1157.54	21.8106
1159.17	20.283
1160.8	17.7633
1162.42	16.9141
1164.05	16.047
1165.67	14.8058
1167.29	13.116
1168.92	13.9707
1170.54	13.6383
1172.16	14.0596
1173.79	15.1532
1175.41	13.2692
1177.03	12.9725
1178.65	13.2606
1180.28	12.8027
1181.9	12.844
1183.52	12.5455
1185.14	12.3587
1186.76	11.3447
1188.38	12.4697
1190	11.873
1191.62	10.412
1193.24	10.6548
1194.86	10.1314
1196.47	11.0243
1198.09	11.2789
1199.71	11.8216
1201.33	12.1308
1202.95	13.2489
1204.56	14.3878
1206.18	14.8511
1207.8	16.1891
1209.41	17.7289
1211.03	19.9742
1212.64	23.0011
1214.26	25.9726
1215.87	28.369
1217.49	31.3121
1219.1	34.0809
1220.71	36.5183
1222.33	37.9565
1223.94	40.2898
1225.55	41.5657
1227.16	45.1272
1228.78	47.3703
1230.39	50.9114
1232	52.4839
1233.61	54.7456
1235.22	56.5716
1236.83	58.5215
1238.44	60.8486
1240.05	62.1835
1241.66	64.0286
1243.27	66.2764
1244.88	68.283
1246.49	70.7824
1248.1	73.0995
1249.71	75.4813
1251.32	76.2192
1252.92	76.5579
1254.53	76.625
1256.14	76.4707
1257.74	76.2683
1259.35	79.1251
1260.96	80.5158
1262.56	81.7267
1264.17	82.8284
1265.77	84.983
1267.38	87.1698
1268.98	90.1788
1270.59	92.2774
1272.19	95.5239
1273.79	98.4884
1275.4	100.537
1277	103.879
1278.6	106.718
1280.21	109.593
1281.81	113.103
1283.41	116.537
1285.01	118.769
1286.61	121.27
1288.21	125.356
1289.81	127.691
1291.41	130.16
1293.01	132.064
1294.61	132.564
1296.21	133.379
1297.81	134.86
1299.41	135.643
1301.01	136.362
1302.6	136.753
1304.2	138.343
1305.8	139.488
1307.4	141.238
1308.99	141.952
1310.59	141.453
1312.19	140.788
1313.78	140.284
1315.38	139.7
1316.97	138.27
1318.57	137.342
1320.16	135.302
1321.76	133.458
1323.35	130.42
1324.94	128.197
1326.54	125.651
1328.13	121.346
1329.72	118.091
1331.32	114.495
1332.91	110.639
1334.5	107.993
1336.09	106.25
1337.68	103.125
1339.27	102.154
1340.87	98.6879
1342.45	96.9199
1344.04	94.8995
1345.64	94.3553
1347.22	92.9273
1348.81	90.8699
1350.4	88.7332
1351.99	87.2299
1353.58	85.1777
1355.17	84.2859
1356.75	82.0507
1358.34	80.239
1359.93	78.9357
1361.51	78.6195
1363.1	77.7885
1364.69	77.3113
1366.27	75.9277
1367.86	75.8577
1369.44	74.0482
1371.03	72.9068
1372.61	72.3915
1374.2	71.8676
1375.78	72.3757
1377.37	73.4883
1378.95	73.9859
1380.53	74.7756
1382.11	75.6908
1383.7	76.4624
1385.28	77.7834
1386.86	77.6703
1388.44	78.0301
1390.02	77.4909
1391.6	77.0807
1393.19	77.1573
1394.77	77.4356
1396.35	76.4916
1397.93	76.8666
1399.51	77.3078
1401.08	78.7578
1402.66	81.0715
1404.24	83.3797
1405.82	86.5992
1407.4	89.6436
1408.97	93.6201
1410.55	97.5319
1412.13	101.891
1413.71	106.488
1415.28	111.852
1416.86	116.452
1418.43	123.003
1420.01	128.477
1421.59	135.921
1423.16	142.267
1424.73	149.354
1426.31	155.946
1427.88	162.681
1429.46	169.407
1431.03	176.936
1432.6	182.381
1434.18	188.268
1435.75	193.683
1437.32	200.136
1438.89	205
1440.46	209.196
1442.04	212.103
1443.61	215.687
1445.18	217.407
1446.75	219.1
1448.32	219.573
1449.89	220.241
1451.46	219.455
1453.03	217.34
1454.6	215.129
1456.16	211.95
1457.73	208.294
1459.3	202.94
1460.87	196.308
1462.44	189.614
1464	181.928
1465.57	173.32
1467.14	164.873
1468.7	156.053
1470.27	146.53
1471.83	138.174
1473.4	128.962
1474.96	119.945
1476.53	111.908
1478.09	104.625
1479.66	97.4088
1481.22	90.7606
1482.78	83.6577
1484.35	77.3048
1485.91	69.6852
1487.47	63.3701
1489.04	56.9356
1490.6	51.2909
1492.16	46.0192
1493.72	42.3842
1495.28	38.7031
1496.84	35.7903
1498.4	32.4634
1499.96	30.7038
1501.52	27.8297
1503.08	26.3319
1504.64	24.5741
1506.2	22.8736
1507.76	21.1626
1509.32	20.1394
1510.88	18.8756
1512.44	18.6347
1513.99	18.2053
1515.55	17.6912
1517.11	17.1833
1518.66	17.7315
1520.22	19.303
1521.78	20.3216
1523.33	20.1834
1524.89	20.723
1526.44	21.5563
1528	21.738
1529.55	21.3763
1531.11	22.0867
1532.66	23.5079
1534.21	23.309
1535.77	23.5511
1537.32	23.7955
1538.87	24.8084
1540.43	27.0252
1541.98	28.1408
1543.53	29.4614
1545.08	30.5942
1546.63	31.9514
1548.18	32.8149
1549.74	34.157
1551.29	35.4623
1552.84	36.8609
1554.39	37.8475
1555.94	39.8791
1557.48	41.5369
1559.03	42.6057
1560.58	43.052
1562.13	43.9943
1563.68	44.829
1565.23	46.6288
1566.78	48.3011
1568.32	50.5082
1569.87	52.5923
1571.42	53.6735
1572.96	55.506
1574.51	56.6506
1576.05	58.5537
1577.6	60.4913
1579.14	61.0958
1580.69	62.4283
1582.24	63.5235
1583.78	64.7946
1585.32	65.6426
1586.87	66.7136
1588.41	66.8996
1589.95	67.2622
1591.5	69.2791
1593.04	70.4162
1594.58	70.9721
1596.12	71.6631
1597.67	72.2699
1599.21	71.7098
1600.75	71.6841
1602.29	71.4572
1603.83	71.0385
1605.37	71.0965
1606.91	71.3986
1608.45	71.2342
1609.99	70.6267
1611.53	70.2274
1613.07	70.6732
1614.6	70.8651
1616.14	70.953
1617.68	71.4656
1619.22	70.9168
1620.75	70.4563
1622.29	70.805
1623.83	71.1628
1625.37	70.5875
1626.9	71.4793
1628.44	71.6115
1629.97	72.9405
1631.51	74.3249
1633.04	76.1859
1634.58	77.8445
1636.11	78.2202
1637.65	80.0691
1639.18	82.5091
1640.72	83.3746
1642.25	85.4799
1643.78	86.8178
1645.31	88.3565
1646.85	90.0386
1648.38	91.2305
1649.91	93.3012
1651.44	93.6306
1652.97	95.5303
1654.5	96.0644
1656.03	96.2051
1657.56	97.3505
1659.1	97.6431
1660.62	97.2397
1662.15	97.6035
1663.68	96.6838
1665.21	96.6602
1666.74	97.5869
1668.27	97.5063
1669.8	96.1371
1671.32	94.5782
1672.85	92.8791
1674.38	90.6322
1675.91	88.3393
1677.43	85.1752
1678.96	82.6007
1680.49	80.2669
1682.01	77.646
1683.54	73.2058
1685.06	69.1911
1686.59	65.291
1688.11	62.56
1689.64	59.8622
1691.16	57.6722
1692.68	55.1705
1694.21	52.0655
1695.73	49.5614
1697.25	47.9289
1698.78	45.306
1700.3	42.6135
1701.82	39.8461
1703.34	39.5067
1704.86	37.522
1706.39	37.4381
1707.91	35.1878
1709.43	33.6998
1710.95	32.5527
1712.47	30.7434
1713.99	31.0006
1715.51	29.7352
1717.02	28.3248
1718.54	28.6243
1720.06	28.5378
1721.58	29.2338
1723.1	29.464
1724.62	29.0567
1726.13	29.062
1727.65	28.5948
1729.17	29.5641
1730.68	28.8679
1732.2	28.2081
1733.72	27.199
1735.23	26.8586
1736.75	26.9757
1738.26	27.0933
1739.78	26.7639
1741.29	27.7682
1742.81	26.999
1744.32	25.9258
1745.84	25.1288
1747.35	23.2335
1748.86	22.2681
1750.37	21.345
1751.89	20.4467
1753.4	18.7652
1754.91	18.0743
1756.42	17.1501
1757.93	15.7355
1759.45	14.1044
1760.96	14.0034
1762.47	13.2173
1763.98	13.3116
1765.49	12.6757
1767	11.5663
1768.51	10.3129
1770.02	9.73729
1771.53	8.8623
1773.03	7.89741
1774.54	6.76361
1776.05	6.05401
1777.56	5.20822
1779.07	5.5506
1780.57	4.91085
1782.08	4.91559
1783.59	4.01324
1785.09	4.20026
1786.6	4.26157
1788.11	3.4531
1789.61	3.41681
1791.12	3.27599
1792.62	3.49058
1794.13	3.96672
1795.63	4.12056
1797.13	4.29922
1798.64	3.9971
1800.14	3.39058
1801.65	3.90388
1803.15	3.6897
1804.65	4.0799
1806.15	3.53481
1807.66	3.53989
1809.16	3.49613
1810.66	4.25985
1812.16	4.42432
1813.66	4.42386
1815.16	4.81419
1816.66	4.73608
1818.16	4.49716
1819.66	4.34056
1821.16	4.17713
1822.66	3.76486
1824.16	4.13431
1825.66	3.6802
1827.16	3.29556
1828.66	2.8515
1830.16	3.30387
1831.65	3.07804
1833.15	2.5625
1834.65	2.52965
1836.14	2.84577
1837.64	2.81545
1839.14	3.32566
1840.63	2.84658
1842.13	3.11729
1843.62	3.65293
1845.12	3.39671
1846.61	3.04662
1848.11	3.41653
1849.6	3.01181
1851.1	2.55598
1852.59	2.91034
1854.08	3.79789
1855.58	4.01585
1857.07	3.85004
1858.56	3.9505
1860.05	4.04974
1861.55	4.39906
1863.04	4.99939
1864.53	6.07527
1866.02	7.69252
1867.51	7.42314
1869	7.19206
1870.49	8.54523
1871.98	8.45868
1873.47	8.83267
1874.96	9.47943
1876.45	9.81273
1877.94	10.116
1879.43	10.7489
1880.92	10.7369
1882.41	11.015
1882.51	11.1243
1884	11.0557
1885.5	11.3217
1886.99	11.3381
1888.48	11.1204
1889.98	11.1932
1891.47	11.2015
1892.96	10.8681
1894.46	11.0637
1895.95	11.0287
1897.44	11.0699
1898.93	11.606
1900.42	11.5305
1901.91	11.0303
1903.41	10.7942
1904.9	9.96461
1906.39	9.59866
1907.88	8.75891
1909.37	8.60557
1910.86	8.70382
1912.35	9.03489
1913.83	8.54581
1915.32	8.68789
1916.81	7.33827
1918.3	6.62999
1919.79	6.23313
1921.27	5.46971
1922.76	4.21461
1924.25	3.7524
1925.74	3.36206
1927.22	2.75411
1928.71	2.3771
1930.19	1.65156
1931.68	2.35983
1933.17	2.48544
1934.65	4.0109
1936.14	4.28361
1937.62	3.83787
1939.11	3.06921
1940.59	1.85456
1942.07	2.24314
1943.56	3.37921
1945.04	2.83129
1946.52	3.46222
1948.01	3.83068
1949.49	3.88873
1950.97	4.37108
1952.45	4.70079
1953.93	4.84573
1955.42	5.42921
1956.9	5.56067
1958.38	5.05524
1959.86	4.85593
1961.34	4.91764
1962.82	4.39631
1964.3	4.14889
1965.78	4.03207
1967.26	3.87569
1968.74	4.34907
1970.21	4.1211
1971.69	4.89699
1973.17	5.06236
1974.65	4.83449
1976.13	4.83284
1977.6	5.0663
1979.08	5.88511
1980.56	6.30156
1982.03	6.81297
1983.51	7.97466
1984.99	7.84253
1986.46	7.53045
1987.94	7.28575
1989.41	7.29603
1990.89	6.87335
1992.36	7.41552
1993.84	7.17581
1995.31	7.07061
1996.78	7.89299
1998.26	8.79846
1999.73	9.93252
2001.2	10.5032
2002.68	10.9396
2004.15	11.0929
2005.62	11.8586
2007.09	11.3406
2008.56	11.2706
2010.04	9.5413
2011.51	9.0926
2012.98	8.79709
2014.45	9.13525
2015.92	9.13596
2017.39	9.12565
2018.86	8.64952
2020.33	8.54806
2021.8	9.48769
2023.26	9.1309
2024.73	8.95997
2026.2	8.79287
2027.67	8.11224
2029.14	6.79774
2030.61	5.34569
2032.07	4.51253
2033.54	3.9799
2035.01	3.84303
2036.47	3.49961
2037.94	3.11371
2039.4	3.49798
2040.87	3.0249
2042.33	3.50083
2043.8	3.89878
2045.27	4.74486
2046.73	4.36287
2048.19	4.31206
2049.66	3.89204
2051.12	4.51426
2052.59	5.5971
2054.05	5.4726
2055.51	6.08952
2056.97	6.17191
2058.44	6.25148
2059.9	6.56291
2061.36	7.29233
2062.82	7.74998
2064.28	8.39455
2065.74	9.41238
2067.21	9.81827
2068.67	10.3277
2070.13	11.5029
2071.59	11.3215
2073.05	11.6854
2074.51	11.7947
2075.96	12.488
2077.42	13.2517
2078.88	12.8671
2080.34	12.7858
2081.8	13.2966
2083.26	12.8863
2084.72	13.4908
2086.17	14.2588
2087.63	15.218
2089.09	15.4725
2090.54	16.2578
2092	16.8694
2093.45	17.7126
2094.91	18.3061
2096.37	18.3873
2097.82	18.5828
2099.28	18.9281
2100.73	19.2803
2102.19	19.2999
2103.64	20.1168
2105.09	20.6038
2106.55	20.6802
2108	20.3555
2109.45	20.8794
2110.91	21.1722
2112.36	21.9219
2113.81	22.0441
2115.26	23.3219
2116.72	24.8703
2118.17	25.6805
2119.62	26.2206
2121.07	27.1369
2122.52	28.5804
2123.97	30.2847
2125.42	31.7308
2126.87	33.0155
2128.32	34.6427
2129.77	35.2839
2131.22	36.5381
2132.67	37.6542
2134.11	39.2297
2135.56	40.7334
