#Acq. time (s)=	45
#Accumulations=	2
#Range (cm-¹)=	200...3150
#Windows=	2
#Auto scanning=	Off
#Autofocus=	Off
#Macrospot=	Off
#AutoExposure=	Off
#Spike filter=	Multiple accum.
#Delay time (s)=	0
#Binning=	1
#Readout mode=	Signal
#DeNoise=	Off
#ICS correction=	On
#Dark correction=	Off
#Inst. Process=	Off
#Detector Gain=	Best Dynamic Range
#Detector ADC=	20 kHz       
#Detector temperature (°C)=	-69.85
#Instrument=	LabRAM HR Evol
#Detector=	Synapse
#Objective=	x100
#Grating=	600 gr/mm
#ND Filter=	100%
#Laser (nm)=	532 
#Hole=	100.021
#Range=	Auto
#Laser Pol.=	No
#Raman. Pol.=	No
#Laser Pol. (°)=	-0.0007625
#Raman Pol. (°)=	89.9995
#Collection=	Microscope
#StageXY=	Marzhauser
#StageZ=	Marzhauser
#X (µm)=	-6945.4
#Y (µm)=	2013.7
#Z (µm)=	-74.8
#Full time(mm:ss)=	3:18
#Project=	
#Sample=	
#Site=	
#Title=	Mb_20_23_28_2x_45s_532 nm_x100_100%_600 gr_mm
#Remark=	
#Date=	13.07.2022 15:20
#Acquired=	13.07.2022 15:20:31
#Base:Fit=	10.08.2022 10:29:37
#Edit:Spike=	10.08.2022 10:33:06
#Edit:Spike=	10.08.2022 10:33:07
#Edit:Spike=	10.08.2022 10:33:26
#Edit:Spike=	10.08.2022 10:33:27
#Edit:Spike=	10.08.2022 10:33:28
#Edit:Spike=	10.08.2022 10:33:31
#Edit:Spike=	10.08.2022 10:33:31
#Edit:Spike=	10.08.2022 10:33:32
#Base:Sub=	10.08.2022 10:33:46
#Filter:Polynom=	16.08.2022 10:13:29
#AxisType[0]=Intens
#AxisUnit[0]=Cnt
#AxisType[1]=Spectr
#AxisUnit[1]=1/cm
200.563	38.4253
202.377	35.4641
204.194	30.7202
206.008	27.2779
207.821	23.8501
209.634	21.2716
211.449	19.1722
213.262	17.7172
215.074	15.669
216.885	13.2752
218.699	12.2183
220.51	11.9782
222.321	10.9075
224.131	11.5431
225.941	12.4675
227.751	13.6653
229.562	12.4477
231.371	12.4888
233.18	12.4316
234.988	14.1738
236.796	13.8436
238.603	15.1775
240.411	15.6915
242.219	15.8762
244.026	16.2652
245.832	16.3882
247.638	17.2428
249.443	16.1716
251.248	17.1935
253.053	17.7111
254.857	19.1821
256.661	19.3087
258.465	19.3654
260.268	19.3343
262.071	16.9935
263.874	18.2696
265.678	17.4947
267.48	18.3211
269.282	17.9865
271.083	16.8264
272.884	15.5145
274.684	13.21
276.484	10.9109
278.284	9.41257
280.084	8.38366
281.883	7.79075
283.682	6.38527
285.48	4.64564
287.276	4.64416
289.074	3.15478
290.871	1.66453
292.668	2.13287
294.465	2.67156
296.261	2.44512
298.057	4.20626
299.853	4.11954
301.648	5.09181
303.443	6.56319
305.237	7.09293
307.032	8.80591
308.823	11.6295
310.617	13.9209
312.41	15.3291
314.203	16.9238
315.995	18.7289
317.788	18.9078
319.579	19.6886
321.369	21.8597
323.16	23.6884
324.951	25.8597
326.741	27.3048
328.531	29.9427
330.321	29.4536
332.108	30.7248
333.897	32.0547
335.686	32.3589
337.474	33.1956
339.26	34.1718
341.048	37.213
342.835	37.9156
344.622	38.2551
346.406	37.8907
348.192	38.6685
349.978	39.4557
351.764	39.4311
353.547	38.9416
355.332	39.3803
357.116	38.0668
358.901	37.0628
360.682	35.3696
362.466	34.0909
364.249	32.9409
366.03	31.7485
367.812	30.9174
369.594	29.6905
371.374	27.4986
373.155	25.4768
374.936	25.3854
376.715	25.6247
378.495	25.9881
380.273	26.4791
382.053	27.2714
383.832	27.4431
385.609	28.1039
387.388	29.9161
389.164	30.2091
390.942	31.2736
392.72	31.1522
394.495	31.6088
396.272	31.4808
398.047	30.9769
399.823	30.5181
401.597	30.4879
403.372	31.3296
405.145	32.249
406.92	32.3099
408.693	33.0099
410.467	33.1042
412.239	33.8359
414.012	34.5837
415.783	34.8522
417.556	33.7668
419.327	32.8611
421.099	34.1621
422.869	34.2077
424.64	34.3238
426.409	34.2434
428.18	34.9554
429.948	34.47
431.718	32.9803
433.486	32.4038
435.253	32.152
437.022	32.2361
438.789	30.8706
440.558	29.5762
442.324	29.1591
444.089	29.7896
445.857	29.254
447.622	29.4581
449.386	29.4835
451.153	29.1492
452.917	28.798
454.682	29.4768
456.446	29.333
458.208	30.32
459.973	31.9993
461.735	34.2581
463.497	36.252
465.259	37.8139
467.022	39.0004
468.783	39.4835
470.544	41.6756
472.306	43.828
474.066	46.0455
475.825	48.2891
477.585	48.6962
479.346	50.2191
481.104	50.7728
482.862	52.3041
484.62	53.5427
486.38	55.5286
488.137	57.5994
489.894	60.5181
491.65	61.7169
493.407	62.358
495.164	63.4357
496.92	63.6137
498.675	64.4955
500.43	65.3175
502.184	65.0853
503.939	64.841
505.694	65.2401
507.448	66.1165
509.201	67.8279
510.954	67.1277
512.706	66.6733
514.459	65.9207
516.21	65.473
517.962	64.5775
519.715	64.122
521.466	64.6732
523.216	64.1533
524.966	63.861
526.716	63.8167
528.466	64.1454
530.215	63.7368
531.964	64.1019
533.712	64.6731
535.46	63.6396
537.208	62.9995
538.955	61.7505
540.703	60.4674
542.449	59.5541
544.196	58.8822
545.942	59.1667
547.688	58.0357
549.433	57.4754
551.178	56.0082
552.923	53.2878
554.667	52.9109
556.412	51.982
558.155	51.1886
559.899	48.8792
561.642	47.2019
563.385	44.0825
565.127	42.1715
566.867	40.8713
568.609	38.2511
570.35	36.1548
572.092	35.8215
573.832	32.8139
575.573	31.3655
577.313	29.7403
579.053	27.8242
580.79	26.688
582.529	25.1765
584.268	23.1847
586.006	21.3103
587.745	19.8697
589.482	17.8264
591.218	16.2331
592.955	15.5676
594.692	14.8685
596.428	13.3213
598.164	9.29565
599.898	8.55978
601.634	9.2057
603.369	8.9083
605.104	9.25702
606.836	8.79579
608.57	9.43573
610.304	9.76484
612.037	9.77736
613.769	9.28636
615.501	9.18935
617.234	9.41915
618.966	10.3521
620.696	11.6875
622.427	11.9678
624.159	12.6605
625.887	12.1774
627.618	14.0075
629.348	16.7221
631.076	17.7384
632.806	19.6838
634.535	19.5949
636.262	20.1601
637.99	19.9279
639.716	19.8197
641.444	20.9173
643.172	19.7402
644.897	18.3587
646.624	18.6191
648.348	17.7971
650.075	18.2807
651.801	18.5502
653.524	17.314
655.249	16.0444
656.972	15.9844
658.697	17.2515
660.419	16.1326
662.143	16.1227
663.865	14.5519
665.588	13.6266
667.309	11.6688
669.032	10.2089
670.752	7.19788
672.474	7.06625
674.194	6.64187
675.915	6.13972
677.634	4.81236
679.355	5.17829
681.073	4.53175
682.793	3.49106
684.511	3.04642
686.23	6.24764
687.947	6.90999
689.664	6.19831
691.382	5.52589
693.098	7.13663
694.816	8.93873
696.531	9.29112
698.247	9.12502
699.963	11.3256
701.678	13.2394
703.392	14.2189
705.108	15.4325
706.821	16.5149
708.534	16.6416
710.249	17.4543
711.962	18.1986
713.674	20.0572
715.388	21.254
717.099	21.3941
718.81	22.8801
720.523	21.8424
722.234	23.1341
723.944	23.5176
725.654	23.673
727.365	23.987
729.075	24.6101
730.784	24.39
732.492	24.3062
734.202	24.175
735.91	25.2461
737.618	24.146
739.325	23.9343
741.034	25.0026
742.741	25.6071
744.447	27.0307
746.153	27.896
747.859	27.566
749.564	27.0249
751.271	27.7987
752.976	29.4242
754.681	31.0088
756.385	31.6731
758.088	34.5577
759.792	34.7367
761.495	34.9422
763.2	35.3224
764.902	36.9881
766.604	38.1679
768.306	39.4649
770.008	39.6614
771.709	40.8349
773.41	41.0559
775.11	41.7474
776.811	42.3064
778.51	44.7044
780.21	44.9186
781.909	45.126
783.608	45.1602
785.307	46.121
787.005	46.8614
788.703	47.4121
790.401	48.0617
792.098	47.8736
793.795	49.9472
795.492	51.3737
797.188	50.9886
798.884	52.5887
800.58	53.5455
802.276	54.6666
803.971	56.2251
805.665	56.0389
807.36	58.0076
809.054	57.0195
810.748	57.0443
812.441	57.918
814.135	58.0548
815.826	57.6991
817.518	59.1229
819.21	61.2384
820.902	60.7133
822.594	61.2895
824.285	62.3724
825.976	62.8206
827.665	62.746
829.355	64.2665
831.045	63.5568
832.735	62.9058
834.424	62.8494
836.111	63.6762
837.8	64.6704
839.488	63.5579
841.177	62.2711
842.864	61.8809
844.55	59.8883
846.237	59.0527
847.924	57.7549
849.61	56.7089
851.295	55.0297
852.98	53.1323
854.666	51.4775
856.349	52.8246
858.034	52.3438
859.719	51.5732
861.403	51.4931
863.085	50.8532
864.769	49.9519
866.452	49.4969
868.133	48.0729
869.816	48.4326
871.498	49.4352
873.179	47.3504
874.86	45.8039
876.54	45.3278
878.221	45.9945
879.902	45.02
881.58	44.0452
883.26	44.6549
884.938	45.4102
886.618	47.4885
888.297	46.8169
889.974	47.1761
891.653	47.8715
893.329	47.6823
895.007	48.2837
896.683	49.7939
898.36	49.567
900.035	50.7717
901.712	52.8501
903.387	53.3253
905.063	52.3037
906.737	52.6365
908.412	51.7077
910.085	51.9915
911.76	52.4425
913.433	52.1036
915.107	52.3501
916.779	51.9798
918.452	50.8834
920.124	50.664
921.797	49.7414
923.467	47.7603
925.138	47.5911
926.81	48.1069
928.48	44.972
930.151	44.8746
931.82	42.882
933.489	41.9404
935.16	40.2324
936.828	39.6061
938.496	38.4126
940.165	36.6197
941.833	33.1267
943.5	30.15
945.168	27.3499
946.834	24.2439
948.5	23.0915
950.168	21.0956
951.834	19.8863
953.499	18.7002
955.163	16.0232
956.83	12.7106
958.494	10.4243
960.158	8.95044
961.821	6.4469
963.487	6.77972
965.15	7.50545
966.812	10.5122
968.474	12.5312
970.138	14.1432
971.8	15.2961
973.461	17.5574
975.123	18.5922
976.783	20.0822
978.446	21.3385
980.106	22.1537
981.766	24.0498
983.425	25.1898
985.084	26.9062
986.743	28.0572
988.402	27.2885
990.06	26.6022
991.72	26.5244
993.378	26.6646
995.035	27.1977
996.692	28.1099
998.349	28.9647
1000.01	27.3618
1001.66	26.735
1003.32	27.3073
1004.97	27.8638
1006.63	28.6132
1008.28	31.0065
1009.94	33.2538
1011.59	34.5513
1013.25	40.0722
1014.9	42.4132
1016.55	45.6
1018.21	49.1392
1019.86	52.2452
1021.51	54.6429
1023.16	58.3773
1024.81	63.0614
1026.47	67.1358
1028.12	71.8159
1029.77	75.9282
1031.42	80.807
1033.07	84.0042
1034.72	87.0835
1036.37	88.9353
1038.02	91.7756
1039.67	94.2568
1041.31	96.7082
1042.96	101.212
1044.61	105.251
1046.26	110.629
1047.91	114.021
1049.55	116.118
1051.2	116.776
1052.84	118.563
1054.49	118.319
1056.14	117.95
1057.78	116.291
1059.43	114.389
1061.07	113.066
1062.72	111.86
1064.36	111.159
1066	108.356
1067.65	105.647
1069.29	101.401
1070.93	97.7027
1072.58	94.5903
1074.22	91.1805
1075.86	88.7323
1077.5	85.6777
1079.14	81.9973
1080.78	76.8324
1082.42	73.1241
1084.06	71.2137
1085.7	70.3936
1087.34	68.6915
1088.98	67.7108
1090.62	68.082
1092.26	68.944
1093.9	71.0874
1095.54	71.7946
1097.17	71.6925
1098.81	73.0805
1100.45	73.9109
1102.09	73.9099
1103.72	74.1909
1105.36	75.5844
1106.99	75.6662
1108.63	74.8046
1110.27	74.0322
1111.9	73.1652
1113.53	72.9426
1115.17	71.8915
1116.8	71.0388
1118.43	70.3102
1120.07	69.3409
1121.7	67.5514
1123.33	66.9198
1124.97	65.7917
1126.6	62.3656
1128.23	61.2091
1129.86	59.8755
1131.49	57.4737
1133.12	56.387
1134.75	54.2054
1136.38	51.3047
1138.01	49.1864
1139.64	46.7198
1141.27	45.1875
1142.9	43.8937
1144.53	41.9401
1146.16	39.2375
1147.78	35.9887
1149.41	33.5056
1151.04	30.87
1152.67	28.3251
1154.29	23.7277
1155.92	20.5251
1157.54	17.9372
1159.17	15.0206
1160.8	13.3626
1162.42	10.3726
1164.05	9.07288
1165.67	7.24589
1167.29	7.2213
1168.92	6.02667
1170.54	6.98532
1172.16	8.58296
1173.79	11.5852
1175.41	11.8251
1177.03	10.6972
1178.65	11.0234
1180.28	10.9886
1181.9	10.237
1183.52	8.97963
1185.14	9.09727
1186.76	10.2326
1188.38	10.043
1190	10.8053
1191.62	11.6238
1193.24	12.3086
1194.86	13.6676
1196.47	15.3474
1198.09	17.7083
1199.71	18.0432
1201.33	18.9428
1202.95	20.5412
1204.56	22.5481
1206.18	24.824
1207.8	27.7574
1209.41	31.9029
1211.03	34.4484
1212.64	37.7322
1214.26	41.7143
1215.87	45.9713
1217.49	50.5941
1219.1	55.9623
1220.71	59.8117
1222.33	63.5766
1223.94	66.8908
1225.55	70.2584
1227.16	74.0598
1228.78	77.8918
1230.39	83.2867
1232	85.8019
1233.61	89.0619
1235.22	93.3713
1236.83	98.3295
1238.44	102.096
1240.05	106.601
1241.66	109.987
1243.27	113.49
1244.88	118.096
1246.49	122.087
1248.1	126.255
1249.71	128.662
1251.32	133.344
1252.92	135.961
1254.53	137.374
1256.14	139.046
1257.74	141.52
1259.35	143.992
1260.96	146.138
1262.56	148.091
1264.17	150.961
1265.77	154.892
1267.38	159.701
1268.98	163.353
1270.59	167.792
1272.19	171.387
1273.79	174.891
1275.4	178.431
1277	183.13
1278.6	185.807
1280.21	187.634
1281.81	191.484
1283.41	195.596
1285.01	198.594
1286.61	202.406
1288.21	205.905
1289.81	208.719
1291.41	211.859
1293.01	216.658
1294.61	219.904
1296.21	221.966
1297.81	223.98
1299.41	226.094
1301.01	227.491
1302.6	229.108
1304.2	230.384
1305.8	232.189
1307.4	233.724
1308.99	234.605
1310.59	235.673
1312.19	232.897
1313.78	231.605
1315.38	231.659
1316.97	229.34
1318.57	228.162
1320.16	225.949
1321.76	223.719
1323.35	220.627
1324.94	217.776
1326.54	213.171
1328.13	210.592
1329.72	206.511
1331.32	203.158
1332.91	199.104
1334.5	196.247
1336.09	195.274
1337.68	192.085
1339.27	189.68
1340.87	186.631
1342.45	185.697
1344.04	184.041
1345.64	182.559
1347.22	181.559
1348.81	178.685
1350.4	177.399
1351.99	175.733
1353.58	173.608
1355.17	172.305
1356.75	171.113
1358.34	167.94
1359.93	165.425
1361.51	163.941
1363.1	163.209
1364.69	161.874
1366.27	160.783
1367.86	158.793
1369.44	157.771
1371.03	156.72
1372.61	157.307
1374.2	156.821
1375.78	156.134
1377.37	157.272
1378.95	157.614
1380.53	158.024
1382.11	157.682
1383.7	157.928
1385.28	159.497
1386.86	158.536
1388.44	158.784
1390.02	157.446
1391.6	154.498
1393.19	155.71
1394.77	154.754
1396.35	154.339
1397.93	154.688
1399.51	154.421
1401.08	156.275
1402.66	156.804
1404.24	160.563
1405.82	164.527
1407.4	170.625
1408.97	174.172
1410.55	181.938
1412.13	189.475
1413.71	198.252
1415.28	206.584
1416.86	215.195
1418.43	224.594
1420.01	234.563
1421.59	246.994
1423.16	258.182
1424.73	270.021
1426.31	281.801
1427.88	293.494
1429.46	305.657
1431.03	316.374
1432.6	326.731
1434.18	337.417
1435.75	346.499
1437.32	354.518
1438.89	363.082
1440.46	370.206
1442.04	376.34
1443.61	380.862
1445.18	383.339
1446.75	385.765
1448.32	388.189
1449.89	389.313
1451.46	388.404
1453.03	386.297
1454.6	381.979
1456.16	377.724
1457.73	372.312
1459.3	365.498
1460.87	357.493
1462.44	348.063
1464	337.486
1465.57	324.742
1467.14	312.792
1468.7	299.307
1470.27	287.41
1471.83	275.471
1473.4	261.57
1474.96	248.63
1476.53	236.967
1478.09	225.029
1479.66	213.601
1481.22	202.261
1482.78	193.135
1484.35	182.06
1485.91	171.996
1487.47	161.099
1489.04	152.86
1490.6	144.297
1492.16	137.054
1493.72	130.037
1495.28	124.728
1496.84	118.594
1498.4	114.309
1499.96	110.723
1501.52	104.249
1503.08	98.4464
1504.64	94.228
1506.2	89.5602
1507.76	85.7327
1509.32	82.1471
1510.88	78.0036
1512.44	74.474
1513.99	71.2395
1515.55	68.4795
1517.11	65.958
1518.66	62.5139
1520.22	61.5327
1521.78	59.591
1523.33	58.062
1524.89	57.8912
1526.44	57.6764
1528	57.4163
1529.55	56.9696
1531.11	58.3303
1532.66	59.1073
1534.21	60.4996
1535.77	61.4472
1537.32	63.4414
1538.87	65.6086
1540.43	65.5625
1541.98	66.7585
1543.53	68.822
1545.08	70.8243
1546.63	74.1145
1548.18	77.0187
1549.74	78.5702
1551.29	81.1003
1552.84	83.1962
1554.39	88.3776
1555.94	90.0016
1557.48	92.2505
1559.03	94.2155
1560.58	95.9099
1562.13	96.7125
1563.68	99.4187
1565.23	101.52
1566.78	105.004
1568.32	108.889
1569.87	112.826
1571.42	115.743
1572.96	118.324
1574.51	121.459
1576.05	124.739
1577.6	125.996
1579.14	127.329
1580.69	131.095
1582.24	133.396
1583.78	135.79
1585.32	138.302
1586.87	140.721
1588.41	142.556
1589.95	144.639
1591.5	147.033
1593.04	149.088
1594.58	149.797
1596.12	150.948
1597.67	152.111
1599.21	152.38
1600.75	152.946
1602.29	152.787
1603.83	153.222
1605.37	154.55
1606.91	155.228
1608.45	154.771
1609.99	155.544
1611.53	155.509
1613.07	156.881
1614.6	157.113
1616.14	155.495
1617.68	154.768
1619.22	155.958
1620.75	157.512
1622.29	158.981
1623.83	161.088
1625.37	162.026
1626.9	163.484
1628.44	166.037
1629.97	169.114
1631.51	172.368
1633.04	173.561
1634.58	176.77
1636.11	178.964
1637.65	182.352
1639.18	185.678
1640.72	190.409
1642.25	193.91
1643.78	196.875
1645.31	200.06
1646.85	204.041
1648.38	206.511
1649.91	208.613
1651.44	211.057
1652.97	212.182
1654.5	211.365
1656.03	212.452
1657.56	212.698
1659.1	211.282
1660.62	211.437
1662.15	209.332
1663.68	206.634
1665.21	202.983
1666.74	198.637
1668.27	195.512
1669.8	190.791
1671.32	184.823
1672.85	179.288
1674.38	173.053
1675.91	167.166
1677.43	160.839
1678.96	154.214
1680.49	148.845
1682.01	142.835
1683.54	135.627
1685.06	128.727
1686.59	123.042
1688.11	116.099
1689.64	110.22
1691.16	102.806
1692.68	97.1734
1694.21	93.3519
1695.73	88.2407
1697.25	84.7701
1698.78	80.9229
1700.3	77.179
1701.82	73.5704
1703.34	70.2873
1704.86	67.4376
1706.39	64.966
1707.91	61.3873
1709.43	58.6467
1710.95	55.974
1712.47	53.1174
1713.99	52.3793
1715.51	50.5067
1717.02	48.5152
1718.54	46.4195
1720.06	44.3287
1721.58	43.4295
1723.1	43.4473
1724.62	40.8782
1726.13	39.2515
1727.65	38.0805
1729.17	36.361
1730.68	35.0615
1732.2	35.1216
1733.72	33.8639
1735.23	32.2636
1736.75	32.1458
1738.26	30.006
1739.78	28.3295
1741.29	27.0003
1742.81	26.0727
1744.32	25.5231
1745.84	24.3598
1747.35	23.3057
1748.86	22.1062
1750.37	21.3085
1751.89	20.8027
1753.4	20.432
1754.91	19.3795
1756.42	18.9418
1757.93	17.4876
1759.45	16.4305
1760.96	15.0727
1762.47	15.0991
1763.98	14.1407
1765.49	13.936
1767	13.7059
1768.51	13.4737
1770.02	12.9512
1771.53	11.5642
1773.03	11.1909
1774.54	10.069
1776.05	9.07768
1777.56	8.5847
1779.07	8.07247
1780.57	7.64032
1782.08	7.43082
1783.59	6.72302
1785.09	6.17639
1786.6	5.58597
1788.11	5.67359
1789.61	5.65542
1791.12	4.66022
1792.62	4.41493
1794.13	4.67417
1795.63	4.95356
1797.13	4.87255
1798.64	4.64945
1800.14	3.47441
1801.65	3.76888
1803.15	3.53507
1804.65	3.5946
1806.15	3.69044
1807.66	3.61285
1809.16	3.68611
1810.66	3.42873
1812.16	3.29147
1813.66	2.60982
1815.16	2.60612
1816.66	3.55361
1818.16	3.48609
1819.66	3.52587
1821.16	3.72777
1822.66	3.71644
1824.16	3.10164
1825.66	3.37909
1827.16	3.39906
1828.66	2.89515
1830.16	1.92377
1831.65	2.09264
1833.15	1.76266
1834.65	2.01063
1836.14	1.69875
1837.64	2.16885
1839.14	1.91948
1840.63	2.15651
1842.13	1.47991
1843.62	1.43088
1845.12	1.31207
1846.61	1.25449
1848.11	0.857926
1849.6	0.721141
1851.1	0.266166
1852.59	-0.138197
1854.08	-0.68543
1855.58	-1.35111
1857.07	-1.2705
1858.56	-1.44564
1860.05	-1.69002
1861.55	-0.927534
1863.04	-1.36177
1864.53	-0.987039
1866.02	-0.28225
1867.51	0.840964
1869	1.29473
1870.49	1.12403
1871.98	1.66892
1873.47	2.76052
1874.96	3.70324
1876.45	4.19244
1877.94	5.41449
1879.43	5.85144
1880.92	6.93068
1882.41	7.88997
1882.51	7.42438
1884	7.66851
1885.5	7.83669
1886.99	8.39289
1888.48	8.47948
1889.98	8.81865
1891.47	8.29696
1892.96	8.5063
1894.46	8.87335
1895.95	8.6716
1897.44	7.82894
1898.93	8.55357
1900.42	9.1074
1901.91	10.0074
1903.41	10.0908
1904.9	10.1878
1906.39	9.76039
1907.88	9.88971
1909.37	10.2456
1910.86	10.5556
1912.35	10.449
1913.83	10.01
1915.32	10.2425
1916.81	10.7325
1918.3	10.167
1919.79	9.63056
1921.27	8.83612
1922.76	8.67901
1924.25	7.89866
1925.74	8.60737
1927.22	9.33323
1928.71	9.21151
1930.19	8.74667
1931.68	8.31793
1933.17	8.36992
1934.65	8.12873
1936.14	7.50746
1937.62	7.84048
1939.11	7.8348
1940.59	8.02948
1942.07	7.37295
1943.56	7.81056
1945.04	8.39567
1946.52	7.98924
1948.01	7.47454
1949.49	7.73494
1950.97	8.49303
1952.45	7.62502
1953.93	7.05796
1955.42	6.35158
1956.9	5.39499
1958.38	5.25026
1959.86	4.60494
1961.34	4.12243
1962.82	3.70056
1964.3	3.36918
1965.78	2.94479
1967.26	2.78817
1968.74	2.70777
1970.21	1.87157
1971.69	2.97253
1973.17	3.40452
1974.65	3.22537
1976.13	2.60882
1977.6	1.96533
1979.08	1.89878
1980.56	2.92589
1982.03	3.75569
1983.51	3.79631
1984.99	3.56106
1986.46	3.20648
1987.94	3.38953
1989.41	4.25684
1990.89	4.44084
1992.36	4.22531
1993.84	4.58512
1995.31	4.02991
1996.78	4.18872
1998.26	5.29083
1999.73	6.66007
2001.2	6.18456
2002.68	5.50084
2004.15	5.09312
2005.62	5.17543
2007.09	4.87908
2008.56	4.42642
2010.04	5.22038
2011.51	6.13355
2012.98	6.30192
2014.45	7.63182
2015.92	8.28273
2017.39	9.44193
2018.86	9.25226
2020.33	9.63354
2021.8	10.4718
2023.26	10.8518
2024.73	10.9897
2026.2	10.9952
2027.67	11.0784
2029.14	11.1608
2030.61	11.8492
2032.07	12.8708
2033.54	12.7941
2035.01	12.7312
2036.47	13.0661
2037.94	13.82
2039.4	14.4732
2040.87	14.77
2042.33	14.7302
2043.8	14.4624
2045.27	15.1696
2046.73	14.2812
2048.19	14.9848
2049.66	15.5047
2051.12	16.8558
2052.59	16.4437
2054.05	16.9346
2055.51	16.6308
2056.97	15.6231
2058.44	15.6875
2059.9	15.2717
2061.36	16.3896
2062.82	15.8492
2064.28	15.4447
2065.74	15.3205
2067.21	15.875
2068.67	15.6572
2070.13	16.4427
2071.59	16.6376
2073.05	16.1669
2074.51	15.4543
2075.96	15.186
2077.42	15.5921
2078.88	16.67
2080.34	17.061
2081.8	19.1469
2083.26	20.3019
2084.72	21.619
2086.17	21.9714
2087.63	24.1071
2089.09	24.9774
2090.54	25.8387
2092	25.473
2093.45	26.405
2094.91	27.897
2096.37	28.7341
2097.82	29.7086
2099.28	29.8683
2100.73	29.9721
2102.19	31.0345
2103.64	32.1183
2105.09	32.4952
2106.55	32.0026
2108	32.5281
2109.45	33.7254
2110.91	34.2199
2112.36	35.2413
