#Acq. time (s)=	45
#Accumulations=	2
#Range (cm-¹)=	200...3150
#Windows=	2
#Auto scanning=	Off
#Autofocus=	Off
#Macrospot=	Off
#AutoExposure=	Off
#Spike filter=	Multiple accum.
#Delay time (s)=	0
#Binning=	1
#Readout mode=	Signal
#DeNoise=	Off
#ICS correction=	On
#Dark correction=	Off
#Inst. Process=	Off
#Detector Gain=	Best Dynamic Range
#Detector ADC=	20 kHz       
#Detector temperature (°C)=	-69.85
#Instrument=	LabRAM HR Evol
#Detector=	Synapse
#Objective=	x100
#Grating=	600 gr/mm
#ND Filter=	100%
#Laser (nm)=	532 
#Hole=	100.021
#Range=	Auto
#Laser Pol.=	No
#Raman. Pol.=	No
#Laser Pol. (°)=	-0.0007625
#Raman Pol. (°)=	89.9995
#Collection=	Microscope
#StageXY=	Marzhauser
#StageZ=	Marzhauser
#X (µm)=	-6980.1
#Y (µm)=	2118.5
#Z (µm)=	-74.85
#Full time(mm:ss)=	3:18
#Project=	
#Sample=	
#Site=	
#Title=	Mb_20_23_13_2x_45s_532 nm_x100_100%_600 gr_mm
#Remark=	
#Date=	13.07.2022 13:52
#Acquired=	13.07.2022 13:52:33
#Base:Fit=	10.08.2022 10:29:19
#Base:Fit=	10.08.2022 10:29:37
#Base:Sub=	10.08.2022 10:32:28
#Filter:Polynom=	16.08.2022 10:13:29
#AxisType[0]=Intens
#AxisUnit[0]=Cnt
#AxisType[1]=Spectr
#AxisUnit[1]=1/cm
200.563	15.8796
202.377	15.991
204.194	14.3184
206.008	13.0156
207.821	11.1405
209.634	9.48316
211.449	8.30453
213.262	6.89149
215.074	5.29407
216.885	3.64967
218.699	3.62085
220.51	3.34694
222.321	3.91801
224.131	3.50276
225.941	4.03856
227.751	3.02425
229.562	3.82727
231.371	3.73702
233.18	5.63171
234.988	6.53167
236.796	7.26281
238.603	6.68366
240.411	7.13927
242.219	7.21735
244.026	8.7227
245.832	8.58946
247.638	9.48496
249.443	10.7601
251.248	11.583
253.053	12.0002
254.857	13.1596
256.661	14.2175
258.465	15.1116
260.268	16.0775
262.071	17.1813
263.874	17.6081
265.678	18.4783
267.48	18.7753
269.282	19.3719
271.083	19.2474
272.884	19.7609
274.684	18.3784
276.484	19.0639
278.284	18.4403
280.084	17.9116
281.883	16.9261
283.682	15.4931
285.48	14.6703
287.276	12.5709
289.074	11.9682
290.871	11.5658
292.668	11.8228
294.465	12.3001
296.261	11.1968
298.057	11.4167
299.853	11.9142
301.648	11.0914
303.443	11.0644
305.237	10.5669
307.032	10.068
308.823	11.1125
310.617	10.9631
312.41	11.4614
314.203	12.1856
315.995	12.3269
317.788	12.8286
319.579	13.5555
321.369	14.2486
323.16	15.2343
324.951	15.1048
326.741	14.8477
328.531	15.9845
330.321	18.2489
332.108	18.2791
333.897	19.6895
335.686	19.5512
337.474	20.1852
339.26	20.288
341.048	19.8191
342.835	19.8089
344.622	20.3712
346.406	19.5467
348.192	18.5966
349.978	18.233
351.764	16.3822
353.547	15.7998
355.332	14.4209
357.116	14.0394
358.901	13.7074
360.682	13.5998
362.466	13.383
364.249	11.4599
366.03	11.3145
367.812	9.64462
369.594	8.62944
371.374	7.52574
373.155	7.81449
374.936	8.09293
376.715	9.36359
378.495	10.6794
380.273	11.9685
382.053	13.0616
383.832	13.3361
385.609	12.4743
387.388	13.8294
389.164	13.4898
390.942	13.8728
392.72	13.7003
394.495	13.1269
396.272	12.6577
398.047	15.0858
399.823	16.0804
401.597	16.2769
403.372	17.2513
405.145	17.4974
406.92	19.1001
408.693	19.5796
410.467	21.2386
412.239	21.9283
414.012	23.2731
415.783	24.0705
417.556	25.8461
419.327	26.456
421.099	26.2574
422.869	26.0107
424.64	25.504
426.409	24.5217
428.18	24.8227
429.948	24.6518
431.718	24.4157
433.486	23.7907
435.253	23.1436
437.022	23.0652
438.789	23.4246
440.558	22.3456
442.324	22.1692
444.089	22.6188
445.857	24.2071
447.622	24.5467
449.386	24.5105
451.153	24.7627
452.917	23.986
454.682	25.4131
456.446	25.1294
458.208	26.3228
459.973	26.9612
461.735	26.9692
463.497	28.5436
465.259	30.1569
467.022	30.5836
468.783	31.4223
470.544	31.9956
472.306	31.9253
474.066	30.2779
475.825	30.7413
477.585	30.8343
479.346	31.0978
481.104	30.3012
482.862	30.1507
484.62	30.6667
486.38	32.071
488.137	31.7419
489.894	32.8735
491.65	34.9473
493.407	35.6023
495.164	36.2583
496.92	35.9721
498.675	36.9047
500.43	37.2373
502.184	37.8804
503.939	37.9769
505.694	38.4903
507.448	38.935
509.201	37.7
510.954	37.4939
512.706	38.9946
514.459	38.5224
516.21	38.5936
517.962	38.1465
519.715	38.3586
521.466	37.703
523.216	37.4418
524.966	36.5917
526.716	35.238
528.466	35.0807
530.215	34.4337
531.964	34.7215
533.712	34.8369
535.46	33.7618
537.208	32.3105
538.955	31.3374
540.703	31.2445
542.449	30.6077
544.196	29.1872
545.942	29.2957
547.688	28.4795
549.433	27.366
551.178	28.1842
552.923	25.9092
554.667	24.8771
556.412	24.2129
558.155	23.037
559.899	20.6355
561.642	19.7563
563.385	20.6593
565.127	20.9448
566.867	18.6835
568.609	18.2178
570.35	18.2547
572.092	18.3195
573.832	17.3838
575.573	17.4689
577.313	16.5213
579.053	15.4246
580.79	15.0258
582.529	13.621
584.268	13.3531
586.006	12.7319
587.745	12.2135
589.482	12.0567
591.218	11.6874
592.955	11.0465
594.692	10.2812
596.428	9.02692
598.164	9.84125
599.898	9.53529
601.634	9.10082
603.369	9.57662
605.104	9.32299
606.836	9.49978
608.57	9.48656
610.304	9.08197
612.037	8.6686
613.769	8.95051
615.501	10.0261
617.234	9.17743
618.966	9.58852
620.696	10.0868
622.427	9.48003
624.159	9.9522
625.887	10.8345
627.618	11.3768
629.348	11.0586
631.076	11.3869
632.806	11.9473
634.535	10.2556
636.262	8.70866
637.99	9.9651
639.716	9.3396
641.444	10.4423
643.172	10.3436
644.897	10.0217
646.624	9.8102
648.348	10.9446
650.075	11.1081
651.801	10.026
653.524	8.92048
655.249	8.67946
656.972	8.11488
658.697	6.87022
660.419	5.9261
662.143	5.4972
663.865	4.34699
665.588	4.43096
667.309	3.87768
669.032	2.86899
670.752	3.51333
672.474	2.18549
674.194	2.19958
675.915	1.94549
677.634	1.6688
679.355	0.638069
681.073	2.35802
682.793	3.21154
684.511	4.63063
686.23	4.67059
687.947	4.95403
689.664	5.17524
691.382	6.2753
693.098	7.71412
694.816	7.89226
696.531	8.31469
698.247	9.1174
699.963	9.77338
701.678	10.008
703.392	10.3664
705.108	11.606
706.821	12.6138
708.534	13.3464
710.249	15.3741
711.962	16.3332
713.674	16.3441
715.388	16.8176
717.099	17.1245
718.81	16.1834
720.523	15.8655
722.234	17.7331
723.944	19.806
725.654	18.9751
727.365	20.428
729.075	20.8812
730.784	21.1021
732.492	22.2216
734.202	22.2255
735.91	23.4366
737.618	24.4418
739.325	25.7653
741.034	26.2182
742.741	28.3247
744.447	29.3969
746.153	31.5192
747.859	32.7174
749.564	33.5253
751.271	34.3652
752.976	36.5933
754.681	38.4518
756.385	39.5124
758.088	39.7334
759.792	41.5298
761.495	43.8014
763.2	45.1739
764.902	46.4249
766.604	48.5885
768.306	49.2739
770.008	51.2138
771.709	51.3519
773.41	52.4739
775.11	53.8382
776.811	55.8682
778.51	55.7461
780.21	55.8479
781.909	57.0533
783.608	58.9052
785.307	59.8227
787.005	62.0221
788.703	63.5485
790.401	64.6051
792.098	66.4367
793.795	67.7134
795.492	68.8016
797.188	67.6834
798.884	66.9909
800.58	67.2526
802.276	68.2173
803.971	67.9986
805.665	69.4141
807.36	69.8516
809.054	70.2832
810.748	71.4353
812.441	73.4922
814.135	72.442
815.826	71.6938
817.518	72.0464
819.21	72.9941
820.902	74.0729
822.594	73.2036
824.285	72.4435
825.976	72.4033
827.665	72.6165
829.355	71.4565
831.045	71.013
832.735	70.2086
834.424	69.4815
836.111	69.2207
837.8	70.5452
839.488	69.8892
841.177	69.0204
842.864	69.3087
844.55	68.6607
846.237	68.5236
847.924	67.8313
849.61	67.002
851.295	65.3181
852.98	64.8396
854.666	64.4832
856.349	63.4523
858.034	64.3689
859.719	64.8566
861.403	65.2974
863.085	65.2158
864.769	66.1203
866.452	66.0712
868.133	66.9304
869.816	65.439
871.498	65.5306
873.179	65.2177
874.86	65.4746
876.54	64.1114
878.221	63.1085
879.902	60.6762
881.58	58.8999
883.26	59.0005
884.938	59.0348
886.618	58.8306
888.297	57.7779
889.974	57.5808
891.653	57.0337
893.329	57.42
895.007	56.6785
896.683	55.65
898.36	53.7264
900.035	53.5501
901.712	53.2018
903.387	53.4372
905.063	51.4802
906.737	50.5652
908.412	50.4887
910.085	50.8647
911.76	50.6098
913.433	49.9812
915.107	48.9194
916.779	48.6345
918.452	48.3564
920.124	49.1561
921.797	48.6995
923.467	48.6186
925.138	48.4393
926.81	48.5843
928.48	47.1089
930.151	47.064
931.82	45.4379
933.489	43.7211
935.16	42.4296
936.828	42.6147
938.496	41.9979
940.165	40.7387
941.833	39.961
943.5	38.0172
945.168	38.1975
946.834	36.3088
948.5	34.4628
950.168	34.2207
951.834	34.6107
953.499	34.9483
955.163	34.8198
956.83	32.897
958.494	31.3928
960.158	29.1577
961.821	29.4398
963.487	29.064
965.15	30.766
966.812	31.8058
968.474	32.906
970.138	34.2318
971.8	36.0293
973.461	38.5178
975.123	39.9104
976.783	42.4326
978.446	44.4456
980.106	46.1616
981.766	46.4933
983.425	48.193
985.084	49.3865
986.743	50.5613
988.402	50.9574
990.06	50.7253
991.72	51.6256
993.378	51.9113
995.035	52.6285
996.692	52.5063
998.349	52.7897
1000.01	54.9172
1001.66	54.9382
1003.32	55.4218
1004.97	54.686
1006.63	55.5726
1008.28	55.1662
1009.94	54.3047
1011.59	53.7564
1013.25	53.074
1014.9	53.2963
1016.55	53.3359
1018.21	53.1826
1019.86	53.8058
1021.51	54.0913
1023.16	54.0335
1024.81	54.8157
1026.47	54.9869
1028.12	57.0019
1029.77	56.6293
1031.42	58.5073
1033.07	59.6936
1034.72	58.4631
1036.37	58.594
1038.02	56.9442
1039.67	56.1354
1041.31	57.8703
1042.96	58.5865
1044.61	60.3075
1046.26	61.6534
1047.91	62.8005
1049.55	63.3785
1051.2	64.8047
1052.84	65.0481
1054.49	64.9617
1056.14	65.1389
1057.78	64.8242
1059.43	65.1873
1061.07	64.4998
1062.72	64.1117
1064.36	63.4818
1066	63.3425
1067.65	62.6742
1069.29	61.7715
1070.93	61.5417
1072.58	60.7068
1074.22	61.3944
1075.86	60.3016
1077.5	60.2292
1079.14	58.8383
1080.78	58.8128
1082.42	58.4654
1084.06	57.6917
1085.7	58.3525
1087.34	57.9054
1088.98	57.6723
1090.62	57.608
1092.26	57.7949
1093.9	58.6464
1095.54	57.8083
1097.17	58.4142
1098.81	57.2149
1100.45	56.5945
1102.09	57.1541
1103.72	56.1686
1105.36	55.554
1106.99	55.0219
1108.63	53.7418
1110.27	52.5183
1111.9	50.9472
1113.53	49.6768
1115.17	47.2039
1116.8	45.4499
1118.43	43.6021
1120.07	42.4338
1121.7	42.828
1123.33	41.6842
1124.97	40.1451
1126.6	39.8809
1128.23	38.5104
1129.86	36.4611
1131.49	35.1671
1133.12	33.9949
1134.75	32.6936
1136.38	33.0376
1138.01	32.552
1139.64	32.2849
1141.27	31.7814
1142.9	31.7789
1144.53	30.9416
1146.16	29.3262
1147.78	28.4959
1149.41	28.0597
1151.04	27.0812
1152.67	25.5373
1154.29	23.721
1155.92	22.5486
1157.54	20.1924
1159.17	19.9828
1160.8	19.0046
1162.42	18.518
1164.05	17.8642
1165.67	16.5018
1167.29	14.5984
1168.92	12.4899
1170.54	11.9837
1172.16	11.6588
1173.79	11.1894
1175.41	10.5545
1177.03	10.7366
1178.65	10.8027
1180.28	8.57571
1181.9	8.38205
1183.52	7.29191
1185.14	5.93334
1186.76	5.3125
1188.38	4.63558
1190	5.16606
1191.62	6.0596
1193.24	5.54032
1194.86	4.58302
1196.47	4.85952
1198.09	5.80351
1199.71	7.0735
1201.33	9.11247
1202.95	9.99918
1204.56	10.3344
1206.18	12.1079
1207.8	13.9218
1209.41	14.307
1211.03	16.0187
1212.64	18.2527
1214.26	21.7963
1215.87	24.6546
1217.49	26.9702
1219.1	28.2738
1220.71	31.3326
1222.33	33.6311
1223.94	35.6826
1225.55	37.169
1227.16	39.9027
1228.78	42.1297
1230.39	44.8991
1232	47.0621
1233.61	48.8068
1235.22	51.5199
1236.83	55.1368
1238.44	58.0908
1240.05	62.1686
1241.66	64.7344
1243.27	66.3616
1244.88	68.5729
1246.49	70.2168
1248.1	72.6561
1249.71	75.3201
1251.32	78.8358
1252.92	80.6948
1254.53	82.3167
1256.14	84.1991
1257.74	85.6902
1259.35	86.6836
1260.96	87.9753
1262.56	91.2641
1264.17	93.4972
1265.77	97.9609
1267.38	101.407
1268.98	104.587
1270.59	107.702
1272.19	109.849
1273.79	111.64
1275.4	114.808
1277	119.384
1278.6	123.378
1280.21	127.882
1281.81	130.718
1283.41	134.308
1285.01	137.467
1286.61	140.23
1288.21	142.367
1289.81	143.586
1291.41	145.563
1293.01	147.002
1294.61	149.212
1296.21	149.087
1297.81	150.897
1299.41	151.416
1301.01	152.557
1302.6	152.839
1304.2	152.887
1305.8	152.435
1307.4	152.764
1308.99	152.577
1310.59	153.661
1312.19	152.995
1313.78	151.456
1315.38	151.332
1316.97	150.25
1318.57	148.565
1320.16	147.434
1321.76	144.179
1323.35	141.178
1324.94	138.708
1326.54	135.576
1328.13	132.974
1329.72	131.009
1331.32	128.834
1332.91	125.481
1334.5	122.809
1336.09	120.524
1337.68	119.188
1339.27	118.528
1340.87	117.035
1342.45	115.576
1344.04	113.764
1345.64	112.334
1347.22	109.932
1348.81	107.914
1350.4	106.782
1351.99	105.699
1353.58	104.246
1355.17	103.801
1356.75	103.885
1358.34	102.857
1359.93	100.979
1361.51	98.9081
1363.1	96.8273
1364.69	94.1238
1366.27	92.9501
1367.86	91.3904
1369.44	89.7791
1371.03	89.7431
1372.61	89.4124
1374.2	88.3322
1375.78	87.4137
1377.37	88.0335
1378.95	85.8645
1380.53	85.217
1382.11	84.9397
1383.7	83.6073
1385.28	83.8889
1386.86	85.1879
1388.44	85.178
1390.02	85.1024
1391.6	83.4456
1393.19	82.4503
1394.77	82.629
1396.35	82.5321
1397.93	82.8801
1399.51	84.7015
1401.08	85.9275
1402.66	88.8745
1404.24	91.6504
1405.82	96.327
1407.4	102.3
1408.97	107.549
1410.55	112.217
1412.13	116.194
1413.71	121.582
1415.28	127.97
1416.86	135.327
1418.43	142.533
1420.01	148.662
1421.59	155.7
1423.16	162.756
1424.73	170.311
1426.31	178.627
1427.88	184.842
1429.46	192.806
1431.03	199.835
1432.6	206.627
1434.18	214.087
1435.75	220
1437.32	225.276
1438.89	229.406
1440.46	233.756
1442.04	237.261
1443.61	239.776
1445.18	242.347
1446.75	242.38
1448.32	242.308
1449.89	241.388
1451.46	238.498
1453.03	235.249
1454.6	231.347
1456.16	227.925
1457.73	221.899
1459.3	215.867
1460.87	209.569
1462.44	202.461
1464	195.219
1465.57	185.884
1467.14	176.222
1468.7	166.425
1470.27	156.487
1471.83	147.829
1473.4	139.694
1474.96	131.766
1476.53	123.006
1478.09	115.241
1479.66	106.958
1481.22	99.3072
1482.78	92.3201
1484.35	87.0306
1485.91	81.5975
1487.47	74.5979
1489.04	68.0612
1490.6	61.91
1492.16	58.3726
1493.72	54.5554
1495.28	50.7121
1496.84	47.5067
1498.4	43.766
1499.96	40.8777
1501.52	38.5761
1503.08	37.1831
1504.64	35.2275
1506.2	32.526
1507.76	32.2111
1509.32	31.2562
1510.88	30.1351
1512.44	29.1638
1513.99	27.2022
1515.55	25.9809
1517.11	25.1568
1518.66	25.1796
1520.22	24.4963
1521.78	23.2145
1523.33	22.8634
1524.89	22.6917
1526.44	23.9837
1528	24.4071
1529.55	24.7763
1531.11	25.8361
1532.66	26.1638
1534.21	27.2657
1535.77	27.2151
1537.32	28.6425
1538.87	30.5305
1540.43	31.4237
1541.98	32.4555
1543.53	33.1839
1545.08	35.661
1546.63	37.1269
1548.18	38.9674
1549.74	41.5179
1551.29	41.685
1552.84	43.4675
1554.39	45.1805
1555.94	47.2625
1557.48	49.4199
1559.03	52.1664
1560.58	53.6838
1562.13	55.6766
1563.68	56.9332
1565.23	57.4581
1566.78	59.6122
1568.32	60.8035
1569.87	63.4231
1571.42	65.2918
1572.96	67.1678
1574.51	69.221
1576.05	70.9855
1577.6	72.7048
1579.14	74.7495
1580.69	75.7228
1582.24	76.7113
1583.78	77.9996
1585.32	79.0245
1586.87	80.3686
1588.41	80.8781
1589.95	81.2897
1591.5	82.8585
1593.04	84.7016
1594.58	85.5985
1596.12	86.0882
1597.67	86.7349
1599.21	87.7088
1600.75	88.2022
1602.29	88.4356
1603.83	88.9802
1605.37	89.1613
1606.91	89.1132
1608.45	89.737
1609.99	89.5748
1611.53	89.934
1613.07	89.7061
1614.6	89.0483
1616.14	88.9644
1617.68	89.3067
1619.22	90.0554
1620.75	90.6546
1622.29	92.2868
1623.83	92.2653
1625.37	93.6269
1626.9	94.1572
1628.44	95.3624
1629.97	98.9503
1631.51	99.529
1633.04	100.946
1634.58	102.512
1636.11	105.307
1637.65	106.851
1639.18	109.727
1640.72	112.532
1642.25	114.626
1643.78	116.298
1645.31	116.966
1646.85	118.968
1648.38	120.243
1649.91	121.377
1651.44	121.757
1652.97	122.313
1654.5	123.086
1656.03	123.472
1657.56	123.829
1659.1	123.516
1660.62	122.648
1662.15	121.975
1663.68	121.065
1665.21	119.347
1666.74	116.431
1668.27	115.401
1669.8	112.505
1671.32	109.796
1672.85	106.683
1674.38	103.394
1675.91	100.162
1677.43	95.6977
1678.96	91.1048
1680.49	88.5529
1682.01	85.5258
1683.54	81.3361
1685.06	77.2869
1686.59	72.3752
1688.11	67.5491
1689.64	63.1464
1691.16	60.3958
1692.68	58.7638
1694.21	56.2085
1695.73	53.906
1697.25	51.5244
1698.78	49.3287
1700.3	47.7142
1701.82	46.8705
1703.34	45.4154
1704.86	45.1358
1706.39	43.7583
1707.91	42.2113
1709.43	41.945
1710.95	41.3445
1712.47	41.5467
1713.99	40.6232
1715.51	40.6776
1717.02	40.5021
1718.54	39.8534
1720.06	39.203
1721.58	38.7609
1723.1	38.8726
1724.62	39.2125
1726.13	38.5755
1727.65	38.4673
1729.17	38.4017
1730.68	38.2621
1732.2	36.298
1733.72	35.4311
1735.23	34.0725
1736.75	32.293
1738.26	30.9138
1739.78	28.9872
1741.29	28.1167
1742.81	27.1384
1744.32	27.2104
1745.84	25.6447
1747.35	24.0113
1748.86	22.481
1750.37	20.8912
1751.89	19.64
1753.4	17.9198
1754.91	16.6074
1756.42	16.1836
1757.93	14.7417
1759.45	13.5885
1760.96	12.1876
1762.47	11.0469
1763.98	9.97937
1765.49	9.53044
1767	8.87448
1768.51	7.5409
1770.02	6.68512
1771.53	6.38096
1773.03	5.19899
1774.54	4.44193
1776.05	3.81296
1777.56	2.97457
1779.07	2.39534
1780.57	1.97953
1782.08	1.39757
1783.59	1.58972
1785.09	1.55473
1786.6	2.10383
1788.11	1.91562
1789.61	1.77041
1791.12	2.02104
1792.62	2.14346
1794.13	1.89544
1795.63	1.35694
1797.13	1.22748
1798.64	1.40034
1800.14	1.0608
1801.65	0.586835
1803.15	0.826184
1804.65	0.356456
1806.15	-0.0737294
1807.66	-1.02258
1809.16	-0.517876
1810.66	-1.06859
1812.16	-1.44857
1813.66	-0.0740993
1815.16	0.925262
1816.66	1.47337
1818.16	1.10562
1819.66	0.824112
1821.16	0.479439
1822.66	0.684342
1824.16	1.25701
1825.66	1.68933
1827.16	2.74167
1828.66	3.68419
1830.16	4.42323
1831.65	5.02884
1833.15	5.62093
1834.65	5.89375
1836.14	5.43245
1837.64	6.14287
1839.14	5.9403
1840.63	5.79822
1842.13	6.61415
1843.62	6.52928
1845.12	7.54662
1846.61	8.1149
1848.11	8.09389
1849.6	8.26563
1851.1	8.40569
1852.59	8.88435
1854.08	9.0763
1855.58	8.86295
1857.07	9.07331
1858.56	9.79999
1860.05	9.99072
1861.55	10.4528
1863.04	10.5082
1864.53	10.8838
1866.02	11.5373
1867.51	11.7088
1869	11.7991
1870.49	11.4869
1871.98	11.0099
1873.47	10.3659
1874.96	9.46862
1876.45	8.85485
1877.94	8.97375
1879.43	9.05062
1880.92	8.3754
1882.41	8.04868
1882.51	7.7326
1884	7.6761
1885.5	7.75781
1886.99	8.54574
1888.48	8.14004
1889.98	7.36186
1891.47	7.12635
1892.96	7.07559
1894.46	6.94633
1895.95	7.13421
1897.44	7.19759
1898.93	7.19093
1900.42	6.53887
1901.91	6.37783
1903.41	6.0469
1904.9	5.49704
1906.39	5.72783
1907.88	6.36652
1909.37	5.75558
1910.86	5.28049
1912.35	5.20874
1913.83	5.14497
1915.32	5.82738
1916.81	5.6523
1918.3	6.22233
1919.79	5.90862
1921.27	5.55302
1922.76	5.24456
1924.25	5.46713
1925.74	5.65886
1927.22	5.87921
1928.71	5.57163
1930.19	5.48031
1931.68	5.39436
1933.17	5.51707
1934.65	4.70337
1936.14	4.48565
1937.62	3.8183
1939.11	3.79775
1940.59	3.20353
1942.07	2.97061
1943.56	2.96774
1945.04	2.69153
1946.52	2.92153
1948.01	2.7574
1949.49	2.93961
1950.97	3.67518
1952.45	3.19582
1953.93	2.41397
1955.42	2.20274
1956.9	1.81768
1958.38	2.39127
1959.86	2.24197
1961.34	2.80125
1962.82	2.21535
1964.3	2.20573
1965.78	2.087
1967.26	1.9239
1968.74	2.25966
1970.21	1.80865
1971.69	1.72422
1973.17	1.70876
1974.65	2.50275
1976.13	2.90671
1977.6	2.90919
1979.08	3.12961
1980.56	3.39205
1982.03	4.32806
1983.51	4.29333
1984.99	5.27548
1986.46	7.1073
1987.94	7.48853
1989.41	7.81178
1990.89	7.93227
1992.36	8.97532
1993.84	8.76439
1995.31	8.7811
1996.78	8.50743
1998.26	8.45327
1999.73	7.697
2001.2	7.47588
2002.68	6.95819
2004.15	6.80522
2005.62	6.92081
2007.09	7.41582
2008.56	7.68383
2010.04	7.72234
2011.51	8.20853
2012.98	8.1403
2014.45	7.32616
2015.92	7.40328
2017.39	7.47882
2018.86	6.32437
2020.33	6.12301
2021.8	5.49655
2023.26	5.32341
2024.73	5.05165
2026.2	4.34044
2027.67	4.48578
2029.14	4.11658
2030.61	4.23404
2032.07	5.00083
2033.54	4.78581
2035.01	4.89539
2036.47	5.031
2037.94	5.44282
2039.4	5.13793
2040.87	5.18071
2042.33	5.71975
2043.8	5.41597
2045.27	6.00349
2046.73	6.25525
2048.19	7.27396
2049.66	6.56237
2051.12	7.62901
2052.59	8.37343
2054.05	8.97914
2055.51	10.812
2056.97	11.1149
2058.44	11.2514
2059.9	12.2027
2061.36	11.747
2062.82	11.6917
2064.28	11.867
2065.74	11.6193
2067.21	10.6743
2068.67	10.3192
2070.13	10.4003
2071.59	10.8337
2073.05	11.0357
2074.51	11.4724
2075.96	12.5359
2077.42	12.8918
2078.88	13.5502
2080.34	14.3289
2081.8	14.7336
2083.26	14.7265
2084.72	15.2394
2086.17	14.2921
2087.63	14.8377
2089.09	15.7704
2090.54	15.3605
2092	15.9521
2093.45	16.8468
2094.91	16.6954
2096.37	16.2872
2097.82	16.4301
2099.28	16.4083
2100.73	17.0691
2102.19	17.8063
2103.64	19.3052
2105.09	19.6883
2106.55	19.6034
2108	20.7056
2109.45	22.2144
2110.91	21.9945
2112.36	22.9427
2113.81	24.4486
2115.26	26.0519
2116.72	26.7486
2118.17	27.5353
2119.62	28.5526
2121.07	29.7424
2122.52	30.8432
2123.97	32.0426
2125.42	32.9466
2126.87	33.9787
2128.32	35.3049
2129.77	35.2371
2131.22	36.4115
2132.67	37.9237
