#Acq. time (s)=	45
#Accumulations=	2
#Range (cm-¹)=	200...3150
#Windows=	2
#Auto scanning=	Off
#Autofocus=	Off
#Macrospot=	Off
#AutoExposure=	Off
#Spike filter=	Multiple accum.
#Delay time (s)=	0
#Binning=	1
#Readout mode=	Signal
#DeNoise=	Off
#ICS correction=	On
#Dark correction=	Off
#Inst. Process=	Off
#Detector Gain=	Best Dynamic Range
#Detector ADC=	20 kHz       
#Detector temperature (°C)=	-69.85
#Instrument=	LabRAM HR Evol
#Detector=	Synapse
#Objective=	x100
#Grating=	600 gr/mm
#ND Filter=	100%
#Laser (nm)=	532 
#Hole=	100.021
#Range=	Auto
#Laser Pol.=	No
#Raman. Pol.=	No
#Laser Pol. (°)=	-0.0007625
#Raman Pol. (°)=	89.9995
#Collection=	Microscope
#StageXY=	Marzhauser
#StageZ=	Marzhauser
#X (µm)=	-6945.2
#Y (µm)=	1946.6
#Z (µm)=	-75
#Full time(mm:ss)=	3:18
#Project=	
#Sample=	
#Site=	
#Title=	Mb_20_23_36_2x_45s_532 nm_x100_100%_600 gr_mm
#Remark=	
#Date=	13.07.2022 15:55
#Acquired=	13.07.2022 15:55:32
#Base:Fit=	10.08.2022 10:29:37
#Base:Sub=	10.08.2022 10:34:43
#Filter:Polynom=	16.08.2022 10:13:29
#AxisType[0]=Intens
#AxisUnit[0]=Cnt
#AxisType[1]=Spectr
#AxisUnit[1]=1/cm
200.563	107.513
202.377	103.915
204.194	100.274
206.008	96.85
207.821	93.8684
209.634	90.8978
211.449	87.8461
213.262	85.1287
215.074	82.8138
216.885	81.1164
218.699	78.8619
220.51	76.3348
222.321	74.6747
224.131	73.1533
225.941	69.85
227.751	67.6245
229.562	65.2224
231.371	62.875
233.18	60.433
234.988	58.6101
236.796	57.5884
238.603	56.6898
240.411	55.114
242.219	52.4135
244.026	49.4437
245.832	47.8601
247.638	46.4464
249.443	44.1989
251.248	41.8908
253.053	38.5093
254.857	36.521
256.661	36.3661
258.465	34.104
260.268	30.8248
262.071	29.7271
263.874	27.4716
265.678	24.8699
267.48	22.5986
269.282	21.5091
271.083	20.881
272.884	18.9566
274.684	18.6472
276.484	16.745
278.284	14.0304
280.084	11.0236
281.883	9.06119
283.682	8.30118
285.48	7.62473
287.276	6.75714
289.074	5.89969
290.871	6.40173
292.668	6.1032
294.465	7.4346
296.261	7.40057
298.057	7.79549
299.853	8.71031
301.648	10.4947
303.443	12.6531
305.237	15.2161
307.032	16.4745
308.823	19.0324
310.617	21.6008
312.41	24.1008
314.203	25.6969
315.995	26.4528
317.788	28.2085
319.579	28.603
321.369	30.5658
323.16	32.8706
324.951	35.6947
326.741	38.4781
328.531	38.5265
330.321	38.3742
332.108	38.4405
333.897	39.2185
335.686	40.5869
337.474	40.8095
339.26	40.3187
341.048	39.3514
342.835	38.7849
344.622	38.7
346.406	38.1052
348.192	37.4118
349.978	37.559
351.764	36.8684
353.547	35.9858
355.332	34.3927
357.116	32.2222
358.901	31.5913
360.682	30.6005
362.466	28.551
364.249	27.6635
366.03	24.4351
367.812	23.6208
369.594	22.932
371.374	21.51
373.155	21.6662
374.936	20.8833
376.715	20.2036
378.495	19.4793
380.273	19.7711
382.053	20.4379
383.832	20.743
385.609	19.5454
387.388	22.2815
389.164	23.9234
390.942	25.2959
392.72	26.6913
394.495	27.4961
396.272	27.1423
398.047	27.7499
399.823	27.1843
401.597	26.1366
403.372	24.82
405.145	23.4156
406.92	22.4735
408.693	23.0185
410.467	24.5316
412.239	24.6381
414.012	24.0535
415.783	23.3748
417.556	21.8989
419.327	20.8408
421.099	18.9734
422.869	18.2328
424.64	19.0843
426.409	17.7671
428.18	16.2236
429.948	14.1903
431.718	14.0997
433.486	13.9869
435.253	13.1917
437.022	13.4023
438.789	12.6961
440.558	12.1177
442.324	11.7902
444.089	10.9862
445.857	11.8836
447.622	12.4337
449.386	13.2261
451.153	12.8982
452.917	14.5906
454.682	14.6461
456.446	16.9868
458.208	18.0694
459.973	19.4702
461.735	22.4853
463.497	24.1419
465.259	26.3533
467.022	27.5658
468.783	30.4112
470.544	32.6441
472.306	34.3395
474.066	36.8414
475.825	39.9703
477.585	40.8657
479.346	42.545
481.104	43.7505
482.862	44.0986
484.62	44.6222
486.38	45.881
488.137	47.5836
489.894	49.1881
491.65	50.8075
493.407	52.5724
495.164	54.5912
496.92	55.6497
498.675	56.3434
500.43	56.524
502.184	56.9242
503.939	57.6886
505.694	58.1214
507.448	58.1263
509.201	59.6117
510.954	61.6881
512.706	61.2279
514.459	59.5933
516.21	59.0052
517.962	58.8441
519.715	57.978
521.466	57.3858
523.216	57.5493
524.966	57.5762
526.716	58.907
528.466	57.7008
530.215	57.4516
531.964	55.8084
533.712	55.5124
535.46	54.4299
537.208	53.6622
538.955	52.728
540.703	52.085
542.449	49.7126
544.196	49.1217
545.942	47.7299
547.688	47.109
549.433	46.1431
551.178	44.9804
552.923	44.0575
554.667	43.4698
556.412	43.4647
558.155	41.0166
559.899	41.01
561.642	39.9993
563.385	38.3357
565.127	36.9198
566.867	35.2111
568.609	32.7635
570.35	30.9097
572.092	30.4235
573.832	29.1582
575.573	29.0443
577.313	28.0614
579.053	26.0874
580.79	24.9817
582.529	24.4439
584.268	24.209
586.006	24.0385
587.745	22.8609
589.482	22.7439
591.218	21.6416
592.955	21.2952
594.692	20.2215
596.428	19.7467
598.164	19.7591
599.898	19.805
601.634	20.6211
603.369	20.1147
605.104	20.6608
606.836	19.4644
608.57	20.3467
610.304	20.0781
612.037	19.7846
613.769	19.9348
615.501	18.4017
617.234	19.2077
618.966	18.2235
620.696	18.1258
622.427	17.6159
624.159	17.9113
625.887	17.4921
627.618	17.7434
629.348	18.6506
631.076	20.0163
632.806	20.7774
634.535	21.8041
636.262	21.5726
637.99	21.0931
639.716	20.2609
641.444	19.6129
643.172	19.0269
644.897	18.4796
646.624	16.9518
648.348	15.1714
650.075	13.7898
651.801	13.1334
653.524	10.9081
655.249	11.1324
656.972	10.4744
658.697	10.1659
660.419	9.9364
662.143	9.85943
663.865	9.05839
665.588	8.45817
667.309	9.12199
669.032	10.0245
670.752	9.21988
672.474	7.36369
674.194	7.19252
675.915	7.20789
677.634	7.62296
679.355	8.02203
681.073	9.47441
682.793	11.1025
684.511	12.6864
686.23	13.8314
687.947	14.2757
689.664	14.147
691.382	13.8682
693.098	13.3757
694.816	14.6802
696.531	15.8964
698.247	17.5909
699.963	18.304
701.678	20.2875
703.392	21.2454
705.108	22.5118
706.821	24.3263
708.534	26.3733
710.249	27.7638
711.962	29.2092
713.674	30.8069
715.388	31.8239
717.099	32.8142
718.81	33.2523
720.523	33.7227
722.234	32.5871
723.944	32.9137
725.654	33.3305
727.365	34.3431
729.075	35.5383
730.784	35.3705
732.492	36.0485
734.202	37.4483
735.91	37.9793
737.618	37.3714
739.325	38.2539
741.034	40.2203
742.741	40.5135
744.447	41.7486
746.153	43.1741
747.859	43.5995
749.564	44.1201
751.271	45.4525
752.976	47.7286
754.681	48.9283
756.385	49.6065
758.088	49.6412
759.792	51.8904
761.495	52.0549
763.2	55.3656
764.902	56.1498
766.604	58.245
768.306	58.8391
770.008	59.5256
771.709	60.1076
773.41	61.4358
775.11	61.3406
776.811	61.3406
778.51	63.762
780.21	64.7444
781.909	64.9647
783.608	65.9518
785.307	67.3548
787.005	70.6997
788.703	70.8575
790.401	72.5399
792.098	74.4055
793.795	76.3178
795.492	77.7652
797.188	79.2533
798.884	79.8918
800.58	81.1644
802.276	81.7291
803.971	82.3613
805.665	82.8677
807.36	83.2337
809.054	84.7538
810.748	86.0537
812.441	87.763
814.135	89.6084
815.826	90.0299
817.518	90.9805
819.21	91.144
820.902	91.8093
822.594	92.1408
824.285	92.9086
825.976	92.3201
827.665	92.6446
829.355	92.6695
831.045	92.7097
832.735	91.9187
834.424	91.6719
836.111	92.3492
837.8	91.8781
839.488	90.5608
841.177	89.5171
842.864	87.7784
844.55	87.8662
846.237	85.2801
847.924	86.7017
849.61	84.0935
851.295	83.2877
852.98	83.9291
854.666	84.3412
856.349	85.6434
858.034	86.4216
859.719	84.7034
861.403	85.2999
863.085	86.5199
864.769	84.6582
866.452	84.9765
868.133	87.8504
869.816	88.1108
871.498	88.0594
873.179	86.7725
874.86	87.8023
876.54	88.7496
878.221	88.8993
879.902	88.2034
881.58	88.6744
883.26	88.6807
884.938	89.2042
886.618	89.232
888.297	90.2959
889.974	90.1148
891.653	89.7573
893.329	89.916
895.007	89.9108
896.683	89.7097
898.36	88.6023
900.035	87.217
901.712	87.1251
903.387	87.0089
905.063	86.661
906.737	85.0738
908.412	85.3095
910.085	85.1709
911.76	84.6477
913.433	83.6518
915.107	81.7484
916.779	81.3045
918.452	81.0647
920.124	79.6963
921.797	78.7971
923.467	76.1856
925.138	75.7683
926.81	75.5656
928.48	74.2582
930.151	74.2278
931.82	75.6183
933.489	74.3858
935.16	74.3565
936.828	73.1949
938.496	71.0654
940.165	69.403
941.833	65.9134
943.5	63.1947
945.168	60.7221
946.834	56.086
948.5	52.6997
950.168	51.9832
951.834	50.5436
953.499	46.5713
955.163	45.1199
956.83	43.6251
958.494	41.5215
960.158	40.0132
961.821	38.972
963.487	38.5202
965.15	38.0015
966.812	37.4331
968.474	37.4555
970.138	36.9457
971.8	36.8377
973.461	35.8959
975.123	37.6305
976.783	38.83
978.446	38.8968
980.106	40.5576
981.766	40.8111
983.425	41.8753
985.084	42.7719
986.743	43.8812
988.402	45.5354
990.06	46.5151
991.72	48.4441
993.378	48.6696
995.035	48.4946
996.692	49.6462
998.349	50.4253
1000.01	53.1907
1001.66	52.4417
1003.32	52.8581
1004.97	53.5173
1006.63	54.2026
1008.28	57.8085
1009.94	60.1419
1011.59	62.3097
1013.25	64.5053
1014.9	66.0342
1016.55	67.6838
1018.21	67.925
1019.86	69.946
1021.51	74.5399
1023.16	79.4977
1024.81	83.598
1026.47	90.0917
1028.12	96.1708
1029.77	102.852
1031.42	109.131
1033.07	115.028
1034.72	119.78
1036.37	125.542
1038.02	130.619
1039.67	134.426
1041.31	137.853
1042.96	141.877
1044.61	144.92
1046.26	147.718
1047.91	150.332
1049.55	152.359
1051.2	153.764
1052.84	155.011
1054.49	155.795
1056.14	155.19
1057.78	155.66
1059.43	153.216
1061.07	151.403
1062.72	149.404
1064.36	147.037
1066	145.205
1067.65	144.105
1069.29	142.786
1070.93	139.519
1072.58	135.881
1074.22	131.343
1075.86	127.19
1077.5	121.255
1079.14	118.364
1080.78	112.946
1082.42	107.182
1084.06	99.3633
1085.7	93.5905
1087.34	89.3506
1088.98	87.7415
1090.62	86.2322
1092.26	86.4046
1093.9	87.6901
1095.54	88.4879
1097.17	92.6531
1098.81	95.9106
1100.45	99.0982
1102.09	105.692
1103.72	110.225
1105.36	113.689
1106.99	116.961
1108.63	119.481
1110.27	120.648
1111.9	121.119
1113.53	120.872
1115.17	120.967
1116.8	120.073
1118.43	119.048
1120.07	116.736
1121.7	114.318
1123.33	110.933
1124.97	108.99
1126.6	105.639
1128.23	103.548
1129.86	101.134
1131.49	97.7349
1133.12	94.5139
1134.75	90.3749
1136.38	85.7733
1138.01	82.0849
1139.64	80.6211
1141.27	77.1355
1142.9	73.6448
1144.53	70.3881
1146.16	67.2278
1147.78	62.6334
1149.41	58.4007
1151.04	52.2731
1152.67	45.5121
1154.29	40.6035
1155.92	34.1302
1157.54	29.0431
1159.17	22.3399
1160.8	17.8053
1162.42	10.6502
1164.05	8.02866
1165.67	5.21636
1167.29	5.18979
1168.92	8.41629
1170.54	10.5847
1172.16	11.9627
1173.79	14.5255
1175.41	17.5695
1177.03	17.4963
1178.65	19.9209
1180.28	19.1007
1181.9	19.7293
1183.52	20.8197
1185.14	20.0696
1186.76	21.3672
1188.38	22.8566
1190	22.5572
1191.62	23.9322
1193.24	25.2588
1194.86	25.4175
1196.47	25.4109
1198.09	27.0308
1199.71	28.9455
1201.33	30.5379
1202.95	32.2001
1204.56	34.7006
1206.18	37.2155
1207.8	38.863
1209.41	41.9932
1211.03	44.9883
1212.64	48.0363
1214.26	51.9915
1215.87	55.6565
1217.49	61.8057
1219.1	66.6358
1220.71	71.2207
1222.33	74.3274
1223.94	77.1584
1225.55	79.5032
1227.16	82.596
1228.78	84.71
1230.39	88.0393
1232	90.3568
1233.61	92.7542
1235.22	95.5942
1236.83	97.6875
1238.44	99.7006
1240.05	101.406
1241.66	104.541
1243.27	106.623
1244.88	111.023
1246.49	112.739
1248.1	114.527
1249.71	114.984
1251.32	113.527
1252.92	113.025
1254.53	113.069
1256.14	114.611
1257.74	117.991
1259.35	122.97
1260.96	126.82
1262.56	134.265
1264.17	141.331
1265.77	148.311
1267.38	156.3
1268.98	162.823
1270.59	169.004
1272.19	176.812
1273.79	182.746
1275.4	188.052
1277	193.494
1278.6	200.585
1280.21	206.537
1281.81	211.504
1283.41	216.951
1285.01	221.942
1286.61	224.905
1288.21	229.862
1289.81	234.394
1291.41	238.067
1293.01	241.752
1294.61	245.11
1296.21	246.277
1297.81	248.422
1299.41	248.393
1301.01	248.635
1302.6	247.777
1304.2	245.674
1305.8	245.086
1307.4	244.138
1308.99	242.378
1310.59	238.856
1312.19	234.688
1313.78	230.122
1315.38	225.617
1316.97	220.754
1318.57	215.129
1320.16	209.449
1321.76	202.383
1323.35	196.211
1324.94	190.863
1326.54	183.308
1328.13	174.901
1329.72	168.573
1331.32	164.087
1332.91	161.717
1334.5	159.677
1336.09	159.292
1337.68	160.242
1339.27	158.886
1340.87	159.216
1342.45	159.847
1344.04	159.219
1345.64	157.688
1347.22	156.028
1348.81	154.573
1350.4	153.766
1351.99	152.59
1353.58	150.395
1355.17	148.98
1356.75	148.223
1358.34	147.465
1359.93	146.658
1361.51	145
1363.1	145.136
1364.69	143.294
1366.27	141.633
1367.86	141.337
1369.44	140.021
1371.03	138.621
1372.61	137.4
1374.2	136.599
1375.78	135.928
1377.37	136.165
1378.95	134.908
1380.53	135.175
1382.11	134.763
1383.7	135.714
1385.28	136.218
1386.86	135.687
1388.44	135.532
1390.02	132.151
1391.6	132.376
1393.19	131.896
1394.77	130.638
1396.35	128.345
1397.93	126.305
1399.51	127.072
1401.08	129.41
1402.66	134.49
1404.24	141.127
1405.82	146.945
1407.4	155.538
1408.97	165.355
1410.55	176.235
1412.13	187.097
1413.71	198.618
1415.28	211.392
1416.86	224.384
1418.43	238.583
1420.01	253.033
1421.59	266.164
1423.16	279.917
1424.73	294.141
1426.31	309.526
1427.88	325.028
1429.46	340.39
1431.03	354.902
1432.6	368.81
1434.18	382.712
1435.75	394.333
1437.32	403.925
1438.89	414.626
1440.46	422.127
1442.04	428.721
1443.61	432.91
1445.18	437.132
1446.75	439.283
1448.32	439.162
1449.89	437.712
1451.46	434.81
1453.03	430.757
1454.6	424.598
1456.16	416.271
1457.73	406.319
1459.3	395.587
1460.87	382.793
1462.44	368.959
1464	352.31
1465.57	334.874
1467.14	316.496
1468.7	297.873
1470.27	279.973
1471.83	261.624
1473.4	243.064
1474.96	225.504
1476.53	210.926
1478.09	197.903
1479.66	185.326
1481.22	173.394
1482.78	161.519
1484.35	148.452
1485.91	138.096
1487.47	125.999
1489.04	114.768
1490.6	105.138
1492.16	97.1938
1493.72	89.463
1495.28	83.1263
1496.84	78.1739
1498.4	73.4001
1499.96	69.241
1501.52	67.5416
1503.08	65.2302
1504.64	62.383
1506.2	59.1378
1507.76	57.6267
1509.32	55.5324
1510.88	54.0133
1512.44	53.3265
1513.99	50.4063
1515.55	49.9046
1517.11	50.1381
1518.66	49.2556
1520.22	48.363
1521.78	47.5797
1523.33	48.4924
1524.89	48.4003
1526.44	47.7443
1528	47.3332
1529.55	47.6295
1531.11	48.3325
1532.66	49.418
1534.21	50.778
1535.77	51.8811
1537.32	53.7413
1538.87	56.3242
1540.43	57.3478
1541.98	59.0694
1543.53	61.398
1545.08	63.8669
1546.63	64.9976
1548.18	66.8016
1549.74	68.5835
1551.29	70.6131
1552.84	72.7458
1554.39	75.7118
1555.94	78.2435
1557.48	80.4027
1559.03	81.8937
1560.58	83.8332
1562.13	86.1569
1563.68	88.7337
1565.23	91.2446
1566.78	94.4209
1568.32	98.3033
1569.87	101.68
1571.42	105.388
1572.96	108.186
1574.51	111.413
1576.05	114.726
1577.6	117.281
1579.14	119.778
1580.69	120.883
1582.24	121.691
1583.78	124.309
1585.32	127.767
1586.87	129.856
1588.41	131.815
1589.95	132.892
1591.5	133.075
1593.04	134.996
1594.58	135.374
1596.12	135.615
1597.67	137.332
1599.21	138.032
1600.75	138.36
1602.29	136.844
1603.83	136.583
1605.37	136.611
1606.91	138.52
1608.45	138.586
1609.99	138.926
1611.53	139.508
1613.07	139.629
1614.6	139.334
1616.14	139.899
1617.68	139.014
1619.22	138.774
1620.75	138.36
1622.29	138.067
1623.83	137.051
1625.37	139.167
1626.9	140.25
1628.44	143.018
1629.97	143.736
1631.51	145.462
1633.04	147.415
1634.58	148.173
1636.11	150.165
1637.65	152.228
1639.18	156.205
1640.72	158.026
1642.25	160.235
1643.78	162.483
1645.31	166.113
1646.85	168.765
1648.38	171.493
1649.91	172.572
1651.44	175.108
1652.97	176.497
1654.5	177.708
1656.03	178.93
1657.56	178.453
1659.1	178.244
1660.62	178.556
1662.15	177.862
1663.68	175.995
1665.21	172.979
1666.74	170.932
1668.27	168.226
1669.8	164.609
1671.32	160.863
1672.85	157.576
1674.38	153.843
1675.91	147.827
1677.43	142.739
1678.96	138.58
1680.49	133.824
1682.01	128.7
1683.54	123.306
1685.06	117.006
1686.59	112.08
1688.11	106.748
1689.64	100.808
1691.16	94.9951
1692.68	90.2525
1694.21	84.1362
1695.73	80.7291
1697.25	77.0908
1698.78	73.5896
1700.3	69.7324
1701.82	68.1893
1703.34	63.9087
1704.86	60.2828
1706.39	56.7564
1707.91	54.9797
1709.43	51.3519
1710.95	48.0994
1712.47	45.8607
1713.99	43.7408
1715.51	41.939
1717.02	38.314
1718.54	37.3688
1720.06	36.4674
1721.58	35.8102
1723.1	34.3073
1724.62	34.2354
1726.13	34.1202
1727.65	34.0478
1729.17	32.7555
1730.68	32.0713
1732.2	31.2634
1733.72	30.0263
1735.23	28.7867
1736.75	27.9615
1738.26	27.9532
1739.78	26.4733
1741.29	26.3762
1742.81	26.402
1744.32	25.4574
1745.84	25.0518
1747.35	25.7941
1748.86	25.4372
1750.37	24.3976
1751.89	23.9215
1753.4	22.8897
1754.91	21.8218
1756.42	20.2894
1757.93	19.4817
1759.45	18.7441
1760.96	18.3523
1762.47	18.3919
1763.98	17.8114
1765.49	16.9694
1767	16.8186
1768.51	16.7692
1770.02	16.5367
1771.53	17.0254
1773.03	15.6756
1774.54	14.0218
1776.05	13.1101
1777.56	12.3643
1779.07	10.6233
1780.57	10.2712
1782.08	9.8863
1783.59	9.30014
1785.09	8.32929
1786.6	7.75633
1788.11	6.97636
1789.61	6.58756
1791.12	5.97314
1792.62	5.80214
1794.13	6.06157
1795.63	5.38679
1797.13	5.33146
1798.64	4.25919
1800.14	4.20055
1801.65	3.38957
1803.15	2.586
1804.65	1.76307
1806.15	2.22044
1807.66	1.90622
1809.16	1.64051
1810.66	0.816682
1812.16	1.09669
1813.66	1.2997
1815.16	0.276633
1816.66	0.924179
1818.16	0.622513
1819.66	0.951145
1821.16	0.878374
1822.66	1.51804
1824.16	1.24044
1825.66	1.03456
1827.16	0.86614
1828.66	0.4449
1830.16	1.19524
1831.65	1.37289
1833.15	1.9886
1834.65	2.87733
1836.14	3.3104
1837.64	3.03847
1839.14	2.79365
1840.63	2.29773
1842.13	2.59833
1843.62	2.71806
1845.12	2.28514
1846.61	2.02135
1848.11	1.77695
1849.6	2.24868
1851.1	3.11852
1852.59	3.28182
1854.08	3.3236
1855.58	3.74731
1857.07	3.91148
1858.56	4.19192
1860.05	4.82593
1861.55	3.62987
1863.04	3.6364
1864.53	4.0708
1866.02	3.64146
1867.51	3.68411
1869	4.19557
1870.49	3.91704
1871.98	4.41086
1873.47	4.60137
1874.96	4.35422
1876.45	3.96034
1877.94	3.73466
1879.43	3.50752
1880.92	3.23001
1882.41	2.7129
1882.51	2.22124
1884	1.6096
1885.5	1.96585
1886.99	1.38803
1888.48	0.982769
1889.98	0.98585
1891.47	0.408992
1892.96	0.795375
1894.46	0.367866
1895.95	0.751101
1897.44	0.377
1898.93	0.564728
1900.42	1.61027
1901.91	3.25306
1903.41	3.47725
1904.9	3.45287
1906.39	3.24747
1907.88	3.23709
1909.37	2.89284
1910.86	2.35816
1912.35	2.85044
1913.83	2.96723
1915.32	4.29075
1916.81	5.01618
1918.3	4.64381
1919.79	5.46735
1921.27	6.33831
1922.76	6.03257
1924.25	6.17853
1925.74	5.83829
1927.22	6.67854
1928.71	6.29538
1930.19	6.31179
1931.68	6.65255
1933.17	6.99615
1934.65	6.77377
1936.14	6.96902
1937.62	6.89941
1939.11	6.5702
1940.59	6.98592
1942.07	6.96496
1943.56	6.34234
1945.04	5.76916
1946.52	4.92424
1948.01	3.96965
1949.49	3.74199
1950.97	3.86187
1952.45	3.30673
1953.93	1.9348
1955.42	1.04709
1956.9	0.310329
1958.38	0.09227
1959.86	-0.104343
1961.34	-0.809016
1962.82	-1.05269
1964.3	-1.42275
1965.78	-1.04315
1967.26	0.0700035
1968.74	0.166721
1970.21	1.42109
1971.69	1.62442
1973.17	2.75345
1974.65	3.16115
1976.13	2.90724
1977.6	1.79874
1979.08	1.45623
1980.56	0.498595
1982.03	0.555885
1983.51	0.916002
1984.99	1.73091
1986.46	2.10601
1987.94	2.70504
1989.41	3.31289
1990.89	3.21873
1992.36	2.43351
1993.84	3.33771
1995.31	3.33432
1996.78	3.30219
1998.26	4.22211
1999.73	4.2333
2001.2	4.75883
2002.68	4.48025
2004.15	5.78477
2005.62	6.98665
2007.09	7.22101
2008.56	7.12985
2010.04	6.11605
2011.51	7.25476
2012.98	7.44489
2014.45	7.57107
2015.92	7.71416
2017.39	7.67035
2018.86	7.53838
2020.33	7.82205
2021.8	7.92823
2023.26	8.5312
2024.73	8.45951
2026.2	7.89201
2027.67	7.90628
2029.14	8.24896
2030.61	9.09227
2032.07	8.97109
2033.54	8.8459
2035.01	9.0293
2036.47	9.33725
2037.94	10.0267
2039.4	10.5912
2040.87	11.0787
2042.33	10.2868
2043.8	10.3595
2045.27	9.29307
2046.73	9.65986
2048.19	8.38854
2049.66	7.58177
2051.12	6.12655
2052.59	6.13284
2054.05	7.01674
2055.51	8.50528
2056.97	9.85454
2058.44	10.1804
2059.9	10.3042
2061.36	11.138
2062.82	12.0758
2064.28	13.1465
2065.74	13.3906
2067.21	14.4368
2068.67	14.6104
2070.13	15.4277
2071.59	16.0267
2073.05	16.5536
2074.51	16.4266
2075.96	16.8416
2077.42	16.9884
2078.88	17.1037
2080.34	16.5771
2081.8	16.8977
2083.26	16.9513
2084.72	18.5959
2086.17	19.2476
2087.63	19.4397
2089.09	19.088
2090.54	19.5598
2092	19.4697
2093.45	20.162
2094.91	20.1657
2096.37	20.6618
2097.82	20.9238
2099.28	21.1767
2100.73	21.1882
2102.19	21.3008
2103.64	22.1063
2105.09	22.4137
2106.55	23.283
2108	23.4369
2109.45	23.7727
2110.91	24.7252
2112.36	25.4412
2113.81	25.3471
2115.26	25.885
2116.72	26.876
2118.17	26.9204
2119.62	29.0447
2121.07	30.7737
2122.52	33.3669
2123.97	35.69
2125.42	39.0653
2126.87	41.6566
2128.32	43.7833
2129.77	45.6067
2131.22	47.1169
2132.67	49.3998
2134.11	51.7514
2135.56	54.1917
2137.01	55.5912
