#Acq. time (s)=	45
#Accumulations=	2
#Range (cm-¹)=	200...3150
#Windows=	2
#Auto scanning=	Off
#Autofocus=	Off
#Macrospot=	Off
#AutoExposure=	Off
#Spike filter=	Multiple accum.
#Delay time (s)=	0
#Binning=	1
#Readout mode=	Signal
#DeNoise=	Off
#ICS correction=	On
#Dark correction=	Off
#Inst. Process=	Off
#Detector Gain=	Best Dynamic Range
#Detector ADC=	20 kHz       
#Detector temperature (°C)=	-69.85
#Instrument=	LabRAM HR Evol
#Detector=	Synapse
#Objective=	x100
#Grating=	600 gr/mm
#ND Filter=	100%
#Laser (nm)=	532 
#Hole=	100.021
#Range=	Auto
#Laser Pol.=	No
#Raman. Pol.=	No
#Laser Pol. (°)=	-0.0007625
#Raman Pol. (°)=	89.9995
#Collection=	Microscope
#StageXY=	Marzhauser
#StageZ=	Marzhauser
#X (µm)=	-6950.3
#Y (µm)=	1949.1
#Z (µm)=	-75
#Full time(mm:ss)=	3:18
#Project=	
#Sample=	
#Site=	
#Title=	Mb_20_23_34_2x_45s_532 nm_x100_100%_600 gr_mm
#Remark=	
#Date=	13.07.2022 15:46
#Acquired=	13.07.2022 15:46:33
#Base:Fit=	10.08.2022 10:29:37
#Base:Sub=	10.08.2022 10:34:43
#Filter:Polynom=	16.08.2022 10:13:29
#AxisType[0]=Intens
#AxisUnit[0]=Cnt
#AxisType[1]=Spectr
#AxisUnit[1]=1/cm
200.563	32.479
202.377	34.5836
204.194	33.5372
206.008	33.231
207.821	33.4006
209.634	33.3615
211.449	32.6915
213.262	32.742
215.074	30.7267
216.885	30.2313
218.699	28.7443
220.51	25.1967
222.321	24.2914
224.131	22.5965
225.941	21.3019
227.751	19.415
229.562	19.0479
231.371	17.101
233.18	15.9222
234.988	15.207
236.796	15.337
238.603	15.1016
240.411	15.1621
242.219	14.3068
244.026	12.1824
245.832	12.5578
247.638	11.0012
249.443	10.3833
251.248	8.14296
253.053	7.63202
254.857	8.81203
256.661	8.77882
258.465	8.97299
260.268	8.62199
262.071	8.02088
263.874	7.86309
265.678	7.34927
267.48	7.66694
269.282	6.65704
271.083	6.89227
272.884	8.43385
274.684	7.78
276.484	7.48849
278.284	7.32649
280.084	5.88052
281.883	5.20578
283.682	5.27825
285.48	6.74714
287.276	7.32327
289.074	7.04063
290.871	6.25267
292.668	5.15101
294.465	6.23765
296.261	7.19283
298.057	7.43425
299.853	7.43437
301.648	7.0239
303.443	8.5509
305.237	7.75043
307.032	9.204
308.823	9.98085
310.617	10.2311
312.41	11.3753
314.203	11.8852
315.995	12.3091
317.788	12.4505
319.579	12.7522
321.369	12.621
323.16	13.6743
324.951	14.4182
326.741	14.9239
328.531	14.5428
330.321	14.1765
332.108	13.3032
333.897	13.8122
335.686	16.5731
337.474	16.7032
339.26	16.992
341.048	16.3847
342.835	17.5683
344.622	19.5861
346.406	18.2288
348.192	16.0006
349.978	14.821
351.764	14.1993
353.547	13.7383
355.332	13.9874
357.116	12.5082
358.901	10.6176
360.682	10.4359
362.466	9.67256
364.249	8.49441
366.03	8.99156
367.812	8.0498
369.594	7.51353
371.374	7.12471
373.155	6.73774
374.936	7.2627
376.715	6.0654
378.495	6.935
380.273	7.54651
382.053	9.02562
383.832	11.2303
385.609	12.9998
387.388	13.801
389.164	14.4438
390.942	15.223
392.72	17.3611
394.495	16.5027
396.272	17.8482
398.047	17.1954
399.823	16.4586
401.597	17.1774
403.372	18.2985
405.145	17.8082
406.92	19.2116
408.693	18.0748
410.467	19.4495
412.239	19.6049
414.012	20.2694
415.783	19.9485
417.556	19.8053
419.327	18.8567
421.099	20.137
422.869	20.8637
424.64	21.0794
426.409	19.8009
428.18	18.7349
429.948	18.3062
431.718	17.3836
433.486	17.2692
435.253	14.4536
437.022	13.4893
438.789	13.3141
440.558	14.2692
442.324	13.6551
444.089	13.3436
445.857	10.8877
447.622	11.5194
449.386	11.5849
451.153	11.3485
452.917	11.3782
454.682	11.2962
456.446	10.3803
458.208	10.3808
459.973	9.58986
461.735	11.5859
463.497	12.6642
465.259	12.8768
467.022	14.3838
468.783	14.2583
470.544	15.3135
472.306	15.8929
474.066	16.2597
475.825	17.0041
477.585	17.6248
479.346	19.3673
481.104	19.6757
482.862	20.378
484.62	22.7306
486.38	22.0828
488.137	24.2194
489.894	26.4444
491.65	27.0766
493.407	28.0195
495.164	30.0337
496.92	30.1005
498.675	32.7193
500.43	33.2173
502.184	34.2778
503.939	34.187
505.694	34.2083
507.448	35.0073
509.201	36.4345
510.954	36.2199
512.706	36.3536
514.459	35.7515
516.21	36.0332
517.962	35.1495
519.715	34.5042
521.466	34.1903
523.216	34.1861
524.966	35.0931
526.716	34.7212
528.466	34.9617
530.215	32.6287
531.964	31.968
533.712	31.314
535.46	31.78
537.208	30.4445
538.955	29.5839
540.703	28.8276
542.449	28.2401
544.196	26.6442
545.942	25.7183
547.688	24.7509
549.433	23.987
551.178	22.2239
552.923	19.7659
554.667	18.9038
556.412	18.1943
558.155	17.5584
559.899	16.1537
561.642	14.5939
563.385	14.4396
565.127	13.0696
566.867	12.8251
568.609	11.6169
570.35	11.6543
572.092	10.5823
573.832	8.18792
575.573	9.44499
577.313	9.74577
579.053	8.94263
580.79	9.30471
582.529	9.22933
584.268	7.8682
586.006	7.26571
587.745	5.34019
589.482	4.70605
591.218	3.97578
592.955	3.00764
594.692	3.48787
596.428	3.76403
598.164	3.41423
599.898	3.72242
601.634	3.22524
603.369	2.75214
605.104	1.64546
606.836	2.03312
608.57	3.19679
610.304	4.85432
612.037	4.91487
613.769	4.98597
615.501	4.82894
617.234	4.99816
618.966	5.22316
620.696	5.62238
622.427	5.27736
624.159	5.05624
625.887	5.63238
627.618	5.07207
629.348	4.44667
631.076	4.42255
632.806	4.9007
634.535	4.16658
636.262	3.67064
637.99	4.13238
639.716	3.32889
641.444	3.94511
643.172	3.04034
644.897	2.86882
646.624	2.00832
648.348	1.31868
650.075	2.22785
651.801	1.34111
653.524	2.60855
655.249	2.95012
656.972	3.54004
658.697	3.4069
660.419	2.62469
662.143	3.40052
663.865	3.12394
665.588	3.41732
667.309	2.41215
669.032	1.93166
670.752	0.338631
672.474	1.16222
674.194	1.61803
675.915	2.9704
677.634	2.94495
679.355	2.70481
681.073	3.66648
682.793	3.14633
684.511	1.77022
686.23	2.1672
687.947	1.74731
689.664	2.1481
691.382	3.23427
693.098	4.96989
694.816	6.76628
696.531	7.26141
698.247	7.67603
699.963	8.38377
701.678	8.50222
703.392	9.64697
705.108	10.1774
706.821	10.9337
708.534	11.5843
710.249	12.5237
711.962	13.5432
713.674	13.7836
715.388	14.984
717.099	15.6627
718.81	15.8635
720.523	15.3884
722.234	16.2878
723.944	17.2983
725.654	17.9145
727.365	18.2461
729.075	19.5485
730.784	20.8801
732.492	20.721
734.202	21.8456
735.91	22.8296
737.618	23.8773
739.325	26.3507
741.034	27.0701
742.741	28.1256
744.447	27.465
746.153	27.565
747.859	29.4839
749.564	31.2295
751.271	32.3298
752.976	33.0546
754.681	35.6933
756.385	36.7713
758.088	39.4328
759.792	40.118
761.495	39.7843
763.2	40.1195
764.902	42.0557
766.604	42.9839
768.306	43.8283
770.008	45.8703
771.709	47.3758
773.41	50.2686
775.11	52.3899
776.811	53.2473
778.51	54.729
780.21	56.0778
781.909	56.5869
783.608	57.4918
785.307	58.4797
787.005	58.9139
788.703	59.6643
790.401	60.3953
792.098	61.3928
793.795	62.537
795.492	63.4427
797.188	64.3178
798.884	63.7055
800.58	64.2779
802.276	63.7131
803.971	63.9481
805.665	64.6329
807.36	65.1423
809.054	65.2441
810.748	65.7874
812.441	65.9917
814.135	66.6797
815.826	67.0277
817.518	65.9115
819.21	66.8209
820.902	66.4782
822.594	66.6298
824.285	66.7594
825.976	66.4205
827.665	67.1198
829.355	66.4291
831.045	66.4731
832.735	67.8129
834.424	66.6087
836.111	66.4921
837.8	66.1319
839.488	66.2945
841.177	64.521
842.864	63.5514
844.55	62.1095
846.237	61.2549
847.924	62.1049
849.61	62.3636
851.295	61.3434
852.98	60.8949
854.666	60.4517
856.349	60.1527
858.034	61.1884
859.719	59.8097
861.403	59.6972
863.085	59.6406
864.769	59.8091
866.452	59.5396
868.133	59.0638
869.816	58.5154
871.498	58.6004
873.179	58.0836
874.86	56.6326
876.54	56.0465
878.221	55.5289
879.902	54.0835
881.58	52.9392
883.26	51.3251
884.938	52.2597
886.618	51.0395
888.297	51.6594
889.974	52.7266
891.653	52.5123
893.329	52.9128
895.007	52.605
896.683	52.4618
898.36	51.9249
900.035	51.5533
901.712	51.2358
903.387	52.666
905.063	52.8061
906.737	52.5153
908.412	53.333
910.085	53.0491
911.76	53.8083
913.433	53.063
915.107	52.8486
916.779	51.9675
918.452	50.3328
920.124	51.498
921.797	51.4236
923.467	52.1425
925.138	52.6247
926.81	52.5766
928.48	51.9139
930.151	51.9239
931.82	51.3587
933.489	50.1525
935.16	48.4765
936.828	46.567
938.496	45.7289
940.165	44.9267
941.833	43.4756
943.5	41.3164
945.168	39.6303
946.834	38.3903
948.5	37.4265
950.168	34.8999
951.834	33.4039
953.499	31.1123
955.163	30.1558
956.83	27.9082
958.494	26.1099
960.158	24.564
961.821	22.435
963.487	21.0793
965.15	20.4905
966.812	21.1119
968.474	22.5516
970.138	23.1721
971.8	23.2358
973.461	23.7651
975.123	22.9931
976.783	23.1278
978.446	22.9524
980.106	24.5281
981.766	24.5662
983.425	25.183
985.084	27.0077
986.743	27.1279
988.402	26.9219
990.06	26.0362
991.72	26.2751
993.378	26.8028
995.035	26.7197
996.692	26.9412
998.349	28.0644
1000.01	28.0952
1001.66	30.4224
1003.32	31.9767
1004.97	32.4991
1006.63	33.4824
1008.28	35.3196
1009.94	35.4766
1011.59	37.1503
1013.25	38.7321
1014.9	40.1484
1016.55	41.9882
1018.21	43.6572
1019.86	46.1715
1021.51	49.2268
1023.16	51.9011
1024.81	54.6278
1026.47	59.1088
1028.12	65.2155
1029.77	69.4417
1031.42	71.963
1033.07	74.5526
1034.72	77.3382
1036.37	79.9778
1038.02	83.5834
1039.67	85.0885
1041.31	87.9063
1042.96	91.0347
1044.61	94.2689
1046.26	97.4694
1047.91	98.6292
1049.55	100.765
1051.2	102.892
1052.84	103.842
1054.49	103.277
1056.14	103.685
1057.78	102.255
1059.43	102.818
1061.07	102.465
1062.72	101.147
1064.36	99.2991
1066	98.2249
1067.65	96.9074
1069.29	92.9237
1070.93	89.9111
1072.58	87.3276
1074.22	84.7545
1075.86	82.6848
1077.5	79.5901
1079.14	77.5862
1080.78	75.4211
1082.42	71.4599
1084.06	67.7512
1085.7	64.2555
1087.34	61.7273
1088.98	61.9535
1090.62	62.5156
1092.26	62.4821
1093.9	63.6284
1095.54	64.8779
1097.17	67.1398
1098.81	69.6897
1100.45	71.256
1102.09	73.2019
1103.72	75.7255
1105.36	78.5181
1106.99	81.0368
1108.63	83.5457
1110.27	83.3311
1111.9	82.2453
1113.53	83.1194
1115.17	82.759
1116.8	81.7043
1118.43	81.8976
1120.07	81.7866
1121.7	80.4509
1123.33	80.149
1124.97	77.8498
1126.6	76.1159
1128.23	73.5982
1129.86	70.494
1131.49	70.6118
1133.12	68.239
1134.75	65.7222
1136.38	62.666
1138.01	60.2149
1139.64	57.8748
1141.27	57.2926
1142.9	53.9513
1144.53	50.2278
1146.16	47.0357
1147.78	43.9154
1149.41	38.8923
1151.04	34.942
1152.67	32.6838
1154.29	28.5375
1155.92	24.1286
1157.54	20.8919
1159.17	16.693
1160.8	13.5908
1162.42	10.7826
1164.05	7.0871
1165.67	4.74546
1167.29	4.92238
1168.92	4.96901
1170.54	5.92709
1172.16	6.1857
1173.79	7.13374
1175.41	8.40905
1177.03	9.38092
1178.65	9.24991
1180.28	9.0817
1181.9	8.64565
1183.52	8.57734
1185.14	9.28179
1186.76	9.91722
1188.38	9.98956
1190	9.8405
1191.62	9.06013
1193.24	9.8882
1194.86	9.66378
1196.47	10.0846
1198.09	11.5285
1199.71	13.6967
1201.33	15.0028
1202.95	16.1285
1204.56	17.57
1206.18	19.0106
1207.8	22.0657
1209.41	23.8109
1211.03	26.1235
1212.64	30.138
1214.26	32.5485
1215.87	36.2359
1217.49	38.8904
1219.1	41.2489
1220.71	44.7454
1222.33	47.6229
1223.94	50.8703
1225.55	52.09
1227.16	54.7652
1228.78	58.1442
1230.39	60.9981
1232	63.7372
1233.61	65.4498
1235.22	66.6951
1236.83	69.4025
1238.44	73.219
1240.05	74.6388
1241.66	76.3686
1243.27	77.9629
1244.88	79.0797
1246.49	81.1868
1248.1	81.3743
1249.71	80.9472
1251.32	81.5172
1252.92	83.247
1254.53	84.2921
1256.14	85.7858
1257.74	86.8061
1259.35	90.3304
1260.96	93.5507
1262.56	97.1774
1264.17	100.737
1265.77	104.886
1267.38	108.661
1268.98	111.551
1270.59	114.8
1272.19	119.701
1273.79	124.592
1275.4	129.039
1277	133.326
1278.6	136.913
1280.21	139.558
1281.81	142.254
1283.41	145.443
1285.01	148.057
1286.61	151.394
1288.21	154.147
1289.81	155.886
1291.41	158.354
1293.01	160.675
1294.61	161.766
1296.21	162.204
1297.81	161.497
1299.41	161.549
1301.01	161.423
1302.6	161.342
1304.2	161.516
1305.8	159.411
1307.4	159.738
1308.99	159.302
1310.59	157.026
1312.19	154.021
1313.78	151.203
1315.38	149.819
1316.97	147.04
1318.57	143.132
1320.16	138.789
1321.76	135.591
1323.35	132.01
1324.94	128.093
1326.54	124.543
1328.13	119.27
1329.72	116.089
1331.32	114.213
1332.91	113.585
1334.5	112.918
1336.09	111.521
1337.68	111.334
1339.27	112.071
1340.87	110.178
1342.45	109.89
1344.04	109.149
1345.64	108.777
1347.22	108.098
1348.81	107.286
1350.4	107.943
1351.99	107.726
1353.58	107.546
1355.17	107.46
1356.75	107.247
1358.34	106.459
1359.93	105.734
1361.51	104.822
1363.1	105.245
1364.69	104.658
1366.27	103.863
1367.86	103.401
1369.44	102.862
1371.03	101.389
1372.61	99.2659
1374.2	98.4252
1375.78	98.4995
1377.37	97.5279
1378.95	99.4057
1380.53	99.8768
1382.11	101.656
1383.7	100.572
1385.28	101.62
1386.86	101.655
1388.44	102.538
1390.02	101.112
1391.6	100.85
1393.19	100.813
1394.77	100.475
1396.35	98.3358
1397.93	98.0119
1399.51	99.423
1401.08	101.314
1402.66	105.076
1404.24	111.499
1405.82	117.368
1407.4	123.916
1408.97	132.897
1410.55	141.116
1412.13	150.546
1413.71	159.171
1415.28	167.675
1416.86	178.038
1418.43	187.511
1420.01	198.135
1421.59	207.959
1423.16	218.615
1424.73	229.196
1426.31	239.48
1427.88	250.916
1429.46	262.949
1431.03	274.353
1432.6	285.961
1434.18	295.752
1435.75	304.057
1437.32	311.466
1438.89	319.783
1440.46	326.215
1442.04	332.003
1443.61	335.472
1445.18	339.247
1446.75	341.299
1448.32	340.98
1449.89	340.23
1451.46	339.142
1453.03	337.215
1454.6	334.056
1456.16	328.318
1457.73	322.583
1459.3	314.688
1460.87	305.773
1462.44	295.994
1464	285.695
1465.57	273.348
1467.14	262.066
1468.7	247.339
1470.27	234.909
1471.83	221.437
1473.4	207.869
1474.96	196.64
1476.53	185.937
1478.09	175.598
1479.66	167.385
1481.22	159.777
1482.78	151.081
1484.35	141.661
1485.91	132.789
1487.47	124.622
1489.04	115.655
1490.6	108.624
1492.16	101.023
1493.72	93.7481
1495.28	87.5345
1496.84	81.9617
1498.4	76.3175
1499.96	71.6903
1501.52	68.6269
1503.08	65.68
1504.64	62.9013
1506.2	60.8403
1507.76	59.5844
1509.32	57.5971
1510.88	56.0715
1512.44	54.1404
1513.99	52.7125
1515.55	51.7761
1517.11	50.7998
1518.66	49.4476
1520.22	47.617
1521.78	46.9395
1523.33	46.446
1524.89	45.728
1526.44	45.5046
1528	45.4505
1529.55	44.5883
1531.11	44.2799
1532.66	44.8619
1534.21	44.0866
1535.77	44.3451
1537.32	44.1629
1538.87	44.9555
1540.43	45.4413
1541.98	45.0006
1543.53	46.4276
1545.08	47.4043
1546.63	46.6369
1548.18	48.0758
1549.74	49.1219
1551.29	50.7537
1552.84	51.7169
1554.39	52.1574
1555.94	54.3286
1557.48	55.9254
1559.03	56.6725
1560.58	57.9437
1562.13	58.7276
1563.68	58.8129
1565.23	60.233
1566.78	61.8759
1568.32	62.273
1569.87	64.1804
1571.42	65.9759
1572.96	68.3023
1574.51	69.4257
1576.05	71.0026
1577.6	74.5211
1579.14	76.5943
1580.69	78.6554
1582.24	79.4937
1583.78	80.4282
1585.32	82.8194
1586.87	85.3028
1588.41	86.7298
1589.95	89.0654
1591.5	90.542
1593.04	90.6225
1594.58	91.169
1596.12	92.0526
1597.67	92.7114
1599.21	93.2176
1600.75	92.8909
1602.29	93.054
1603.83	92.6283
1605.37	91.4382
1606.91	90.5068
1608.45	90.1106
1609.99	91.6141
1611.53	90.8185
1613.07	91.7639
1614.6	92.3755
1616.14	92.7516
1617.68	91.9186
1619.22	92.689
1620.75	93.9499
1622.29	94.2636
1623.83	93.7067
1625.37	95.2585
1626.9	96.4135
1628.44	95.9544
1629.97	95.2815
1631.51	96.2402
1633.04	97.8913
1634.58	98.0675
1636.11	99.6959
1637.65	101.443
1639.18	102.67
1640.72	104.005
1642.25	107.078
1643.78	108.464
1645.31	110.544
1646.85	112.525
1648.38	113.934
1649.91	115.167
1651.44	116.533
1652.97	117.975
1654.5	119.211
1656.03	119.145
1657.56	118.505
1659.1	117.569
1660.62	117.736
1662.15	117.612
1663.68	116.334
1665.21	114.253
1666.74	113.766
1668.27	111.113
1669.8	109.008
1671.32	106.983
1672.85	104.431
1674.38	101.311
1675.91	97.8211
1677.43	95.0492
1678.96	91.7005
1680.49	87.8728
1682.01	84.3154
1683.54	81.4954
1685.06	78.9319
1686.59	77.094
1688.11	73.8734
1689.64	71.6097
1691.16	67.6541
1692.68	63.8463
1694.21	61.2865
1695.73	58.632
1697.25	54.905
1698.78	50.5891
1700.3	47.5074
1701.82	45.1357
1703.34	42.0131
1704.86	38.9097
1706.39	36.8888
1707.91	34.863
1709.43	33.4471
1710.95	31.0312
1712.47	30.0945
1713.99	28.8094
1715.51	27.7956
1717.02	27.2034
1718.54	27.17
1720.06	25.7877
1721.58	25.8292
1723.1	25.6412
1724.62	26.4518
1726.13	25.5463
1727.65	25.6626
1729.17	25.4359
1730.68	24.9672
1732.2	24.7298
1733.72	24.7699
1735.23	23.9341
1736.75	23.72
1738.26	23.1385
1739.78	23.2158
1741.29	23.0244
1742.81	23.06
1744.32	22.1661
1745.84	21.3264
1747.35	20.2727
1748.86	19.7338
1750.37	19.2937
1751.89	19.6864
1753.4	19.5467
1754.91	19.0459
1756.42	18.6603
1757.93	18.6925
1759.45	18.114
1760.96	17.678
1762.47	17.0432
1763.98	16.8139
1765.49	15.2581
1767	14.2953
1768.51	13.3318
1770.02	12.1155
1771.53	10.5428
1773.03	9.07623
1774.54	8.12541
1776.05	7.36875
1777.56	6.08502
1779.07	5.21133
1780.57	4.19978
1782.08	3.71805
1783.59	3.56507
1785.09	3.82854
1786.6	3.79743
1788.11	4.16924
1789.61	3.79189
1791.12	4.79802
1792.62	5.14092
1794.13	4.92476
1795.63	4.32592
1797.13	4.389
1798.64	4.18139
1800.14	4.36454
1801.65	3.69704
1803.15	4.19284
1804.65	3.90109
1806.15	2.96322
1807.66	2.88309
1809.16	1.90236
1810.66	1.24492
1812.16	1.04386
1813.66	1.09253
1815.16	0.385806
1816.66	0.341605
1818.16	-0.469169
1819.66	-0.199843
1821.16	0.461741
1822.66	0.962572
1824.16	0.79025
1825.66	0.627223
1827.16	0.668209
1828.66	-0.164485
1830.16	-0.436407
1831.65	-0.797674
1833.15	-0.919503
1834.65	-0.242743
1836.14	0.254024
1837.64	0.808798
1839.14	1.2922
1840.63	1.00209
1842.13	1.78587
1843.62	1.552
1845.12	1.28855
1846.61	1.25116
1848.11	1.23122
1849.6	1.44963
1851.1	2.21316
1852.59	2.26307
1854.08	2.70544
1855.58	3.50122
1857.07	4.23671
1858.56	4.58579
1860.05	5.28324
1861.55	5.74034
1863.04	6.20561
1864.53	6.10563
1866.02	6.47959
1867.51	5.96163
1869	5.87501
1870.49	5.33612
1871.98	5.50525
1873.47	5.87991
1874.96	6.15217
1876.45	5.61102
1877.94	4.97714
1879.43	4.72956
1880.92	4.84237
1882.41	4.39576
1882.51	4.97051
1884	4.78281
1885.5	4.13944
1886.99	3.19533
1888.48	3.01698
1889.98	2.92552
1891.47	3.06236
1892.96	4.06961
1894.46	3.87551
1895.95	2.88081
1897.44	1.88023
1898.93	2.48811
1900.42	2.85141
1901.91	3.22424
1903.41	3.5333
1904.9	3.69302
1906.39	3.99999
1907.88	4.78977
1909.37	4.99843
1910.86	5.36688
1912.35	5.79059
1913.83	6.50172
1915.32	6.31651
1916.81	5.89684
1918.3	5.89291
1919.79	5.5045
1921.27	6.45836
1922.76	6.31205
1924.25	6.5606
1925.74	5.89322
1927.22	6.33979
1928.71	6.38851
1930.19	6.53573
1931.68	6.68531
1933.17	6.7139
1934.65	6.5199
1936.14	6.05818
1937.62	5.86614
1939.11	6.07826
1940.59	6.40708
1942.07	5.8778
1943.56	6.12331
1945.04	5.86966
1946.52	5.95164
1948.01	5.27152
1949.49	5.27174
1950.97	4.9978
1952.45	5.49653
1953.93	5.69041
1955.42	5.45506
1956.9	6.2116
1958.38	5.99004
1959.86	6.06328
1961.34	6.55661
1962.82	8.19696
1964.3	7.99473
1965.78	8.77929
1967.26	9.08926
1968.74	8.30609
1970.21	8.16229
1971.69	9.03175
1973.17	9.31169
1974.65	9.46834
1976.13	8.98864
1977.6	8.76347
1979.08	8.62736
1980.56	8.49756
1982.03	8.74722
1983.51	8.96759
1984.99	8.02021
1986.46	8.43122
1987.94	8.18815
1989.41	7.05067
1990.89	7.05866
1992.36	6.81412
1993.84	6.21389
1995.31	6.03376
1996.78	5.15565
1998.26	5.28279
1999.73	5.01846
2001.2	5.15798
2002.68	5.52766
2004.15	6.22052
2005.62	6.24077
2007.09	6.70454
2008.56	7.51878
2010.04	7.90342
2011.51	8.68304
2012.98	8.86993
2014.45	8.20136
2015.92	7.70253
2017.39	8.78333
2018.86	8.3232
2020.33	8.63669
2021.8	8.4084
2023.26	9.60029
2024.73	9.56969
2026.2	9.19885
2027.67	9.48906
2029.14	9.6184
2030.61	10.2676
2032.07	9.787
2033.54	9.42329
2035.01	9.83125
2036.47	9.54602
2037.94	9.01305
2039.4	9.89577
2040.87	9.01915
2042.33	8.18465
2043.8	8.46008
2045.27	8.27326
2046.73	7.7767
2048.19	8.03095
2049.66	6.99918
2051.12	7.43827
2052.59	7.89668
2054.05	8.41437
2055.51	9.7329
2056.97	9.47873
2058.44	9.31614
2059.9	10.6451
2061.36	9.98973
2062.82	9.64377
2064.28	10.6004
2065.74	11.518
2067.21	12.4088
2068.67	12.7884
2070.13	14.6562
2071.59	16.0748
2073.05	16.8449
2074.51	18.0175
2075.96	19.3917
2077.42	19.8743
2078.88	20.7991
2080.34	20.851
2081.8	21.472
2083.26	21.5063
2084.72	21.5633
2086.17	21.8436
2087.63	21.7193
2089.09	22.1078
2090.54	22.0078
2092	22.4071
2093.45	22.9244
2094.91	23.4604
2096.37	24.3413
2097.82	22.5644
2099.28	22.7674
2100.73	23.6349
2102.19	24.0075
2103.64	24.5866
2105.09	23.4848
2106.55	24.0438
2108	23.9724
2109.45	23.9386
2110.91	24.1969
2112.36	24.6373
2113.81	23.685
2115.26	24.8779
2116.72	24.9789
2118.17	26.0164
2119.62	27.2187
2121.07	28.5134
2122.52	29.2671
2123.97	31.3218
2125.42	33.7023
2126.87	34.9642
2128.32	36.9765
2129.77	37.4773
2131.22	39.6175
2132.67	42.3557
2134.11	43.9605
2135.56	46.4836
2137.01	47.8843
