#Acq. time (s)=	45
#Accumulations=	2
#Range (cm-¹)=	200...3150
#Windows=	2
#Auto scanning=	Off
#Autofocus=	Off
#Macrospot=	Off
#AutoExposure=	Off
#Spike filter=	Multiple accum.
#Delay time (s)=	0
#Binning=	1
#Readout mode=	Signal
#DeNoise=	Off
#ICS correction=	On
#Dark correction=	Off
#Inst. Process=	Off
#Detector Gain=	Best Dynamic Range
#Detector ADC=	20 kHz       
#Detector temperature (°C)=	-69.85
#Instrument=	LabRAM HR Evol
#Detector=	Synapse
#Objective=	x100
#Grating=	600 gr/mm
#ND Filter=	100%
#Laser (nm)=	532 
#Hole=	100.021
#Range=	Auto
#Laser Pol.=	No
#Raman. Pol.=	No
#Laser Pol. (°)=	-0.0007625
#Raman Pol. (°)=	89.9995
#Collection=	Microscope
#StageXY=	Marzhauser
#StageZ=	Marzhauser
#X (µm)=	-6900.9
#Y (µm)=	2112
#Z (µm)=	-74.6
#Full time(mm:ss)=	3:18
#Project=	
#Sample=	
#Site=	
#Title=	Mb_20_23_19_2x_45s_532 nm_x100_100%_600 gr_mm
#Remark=	
#Date=	13.07.2022 14:29
#Acquired=	13.07.2022 14:29:01
#Base:Fit=	10.08.2022 10:29:37
#Base:Sub=	10.08.2022 10:32:28
#Filter:Polynom=	16.08.2022 10:13:29
#AxisType[0]=Intens
#AxisUnit[0]=Cnt
#AxisType[1]=Spectr
#AxisUnit[1]=1/cm
200.563	-2.44772
202.377	4.42469
204.194	6.08067
206.008	8.40007
207.821	11.1343
209.634	13.1929
211.449	14.6742
213.262	16.1641
215.074	16.6115
216.885	17.2386
218.699	17.6705
220.51	17.9895
222.321	19.004
224.131	20.0092
225.941	18.501
227.751	18.4012
229.562	19.1264
231.371	20.9797
233.18	22.8661
234.988	23.5673
236.796	22.4526
238.603	23.0363
240.411	22.1066
242.219	22.7012
244.026	22.5346
245.832	23.0535
247.638	22.8511
249.443	21.7918
251.248	20.8495
253.053	20.575
254.857	19.0554
256.661	18.757
258.465	18.0463
260.268	17.3491
262.071	16.1585
263.874	15.8968
265.678	15.3304
267.48	13.2754
269.282	12.9402
271.083	11.2414
272.884	11.2177
274.684	10.7797
276.484	10.9446
278.284	11.2669
280.084	11.4103
281.883	10.3159
283.682	8.58622
285.48	8.13986
287.276	6.94387
289.074	5.99773
290.871	5.65047
292.668	4.83693
294.465	5.78679
296.261	5.21842
298.057	4.17426
299.853	3.95666
301.648	4.29533
303.443	4.56828
305.237	4.31603
307.032	5.44673
308.823	5.58669
310.617	6.09881
312.41	6.41825
314.203	7.52704
315.995	7.5706
317.788	9.51042
319.579	11.2155
321.369	12.8032
323.16	12.2213
324.951	12.2426
326.741	11.9628
328.531	12.9849
330.321	13.0364
332.108	13.6531
333.897	14.4883
335.686	14.8045
337.474	14.5069
339.26	13.6544
341.048	14.0956
342.835	14.1321
344.622	13.6518
346.406	14.6227
348.192	15.0335
349.978	15.2263
351.764	15.6885
353.547	15.0418
355.332	14.5512
357.116	13.9821
358.901	13.7298
360.682	12.4802
362.466	11.5679
364.249	11.0517
366.03	11.7042
367.812	11.5123
369.594	11.3528
371.374	9.29006
373.155	8.11799
374.936	8.14381
376.715	8.51143
378.495	8.8466
380.273	9.105
382.053	8.09388
383.832	8.51097
385.609	8.60554
387.388	8.98812
389.164	9.99418
390.942	10.7396
392.72	10.5787
394.495	11.318
396.272	10.9229
398.047	11.2763
399.823	10.9862
401.597	11.6302
403.372	12.2588
405.145	11.762
406.92	11.2658
408.693	11.8293
410.467	11.5074
412.239	10.6731
414.012	11.5194
415.783	10.34
417.556	10.1024
419.327	10.5858
421.099	10.8718
422.869	11.6137
424.64	10.6756
426.409	10.7397
428.18	10.6916
429.948	11.5384
431.718	10.8751
433.486	9.59456
435.253	9.73667
437.022	7.63078
438.789	7.4825
440.558	7.4884
442.324	6.44155
444.089	6.53025
445.857	6.64103
447.622	6.2311
449.386	7.77028
451.153	7.84388
452.917	8.47849
454.682	7.88201
456.446	7.21932
458.208	7.11011
459.973	7.34087
461.735	8.765
463.497	10.4963
465.259	11.1644
467.022	10.8412
468.783	10.9571
470.544	11.9554
472.306	12.831
474.066	13.9268
475.825	14.1646
477.585	15.2411
479.346	15.1573
481.104	16.7887
482.862	18.2626
484.62	18.2944
486.38	19.8653
488.137	19.0364
489.894	20.651
491.65	20.4404
493.407	21.9303
495.164	22.4761
496.92	24.1016
498.675	23.6006
500.43	23.4109
502.184	23.7152
503.939	23.7425
505.694	23.9582
507.448	23.9017
509.201	22.733
510.954	21.9701
512.706	21.1268
514.459	20.7103
516.21	20.0392
517.962	19.4368
519.715	17.9031
521.466	17.5385
523.216	17.6046
524.966	15.8628
526.716	15.1231
528.466	14.419
530.215	12.95
531.964	13.823
533.712	14.1452
535.46	12.5072
537.208	11.3262
538.955	9.4959
540.703	7.69434
542.449	6.69812
544.196	7.25202
545.942	6.71037
547.688	6.14116
549.433	4.13007
551.178	3.4876
552.923	1.96446
554.667	0.581335
556.412	0.880896
558.155	0.188247
559.899	0.218278
561.642	0.264802
563.385	-0.252423
565.127	1.27565
566.867	1.74477
568.609	2.3037
570.35	2.10796
572.092	2.01051
573.832	2.54745
575.573	1.89662
577.313	2.93253
579.053	3.24634
580.79	4.04626
582.529	2.95172
584.268	2.07677
586.006	2.3976
587.745	3.24091
589.482	2.73084
591.218	2.89967
592.955	1.94618
594.692	2.92834
596.428	1.97561
598.164	3.18563
599.898	3.21033
601.634	3.49299
603.369	3.51214
605.104	4.86118
606.836	4.41621
608.57	4.43673
610.304	3.37894
612.037	2.90191
613.769	3.98702
615.501	5.46855
617.234	5.86702
618.966	6.76192
620.696	6.30579
622.427	4.50915
624.159	4.29334
625.887	4.05701
627.618	3.37198
629.348	4.61066
631.076	4.42623
632.806	4.28782
634.535	4.00589
636.262	4.48751
637.99	5.68278
639.716	5.1755
641.444	6.2931
643.172	7.34386
644.897	7.32202
646.624	8.22726
648.348	8.7766
650.075	9.60883
651.801	11.0983
653.524	10.9583
655.249	12.0884
656.972	13.8152
658.697	13.4689
660.419	13.615
662.143	14.289
663.865	15.0918
665.588	15.2601
667.309	15.3207
669.032	15.1579
670.752	15.3592
672.474	16.2328
674.194	15.8005
675.915	15.5405
677.634	17.0557
679.355	17.3183
681.073	18.9096
682.793	18.5982
684.511	20.6522
686.23	21.4695
687.947	22.3433
689.664	23.5052
691.382	24.3788
693.098	24.7424
694.816	26.0242
696.531	27.1205
698.247	28.5738
699.963	29.1047
701.678	29.2676
703.392	28.3889
705.108	27.4452
706.821	27.6794
708.534	26.7247
710.249	27.9551
711.962	28.8547
713.674	28.9766
715.388	29.1362
717.099	28.8495
718.81	29.3648
720.523	29.0093
722.234	28.999
723.944	29.1479
725.654	29.1173
727.365	29.4116
729.075	28.8414
730.784	29.9368
732.492	30.2354
734.202	30.9356
735.91	31.4634
737.618	32.4352
739.325	33.0643
741.034	34.347
742.741	34.134
744.447	33.4363
746.153	35.7497
747.859	35.6948
749.564	36.0663
751.271	36.7455
752.976	38.3458
754.681	38.7808
756.385	39.2018
758.088	41.0543
759.792	42.8612
761.495	44.5121
763.2	45.7906
764.902	47.7577
766.604	49.4833
768.306	50.8866
770.008	52.4665
771.709	54.2656
773.41	55.0778
775.11	55.5729
776.811	57.1377
778.51	58.9157
780.21	59.4956
781.909	60.1195
783.608	60.0696
785.307	60.6774
787.005	61.7127
788.703	61.8017
790.401	63.1735
792.098	63.8383
793.795	64.047
795.492	64.6271
797.188	64.435
798.884	63.6122
800.58	63.9991
802.276	64.8376
803.971	64.9398
805.665	64.6655
807.36	64.7857
809.054	65.2226
810.748	65.1296
812.441	65.3086
814.135	66.5238
815.826	67.8986
817.518	66.675
819.21	68.4407
820.902	69.503
822.594	70.7099
824.285	71.2732
825.976	71.5549
827.665	71.9391
829.355	72.5492
831.045	73.9802
832.735	73.02
834.424	73.8802
836.111	74.8764
837.8	75.3865
839.488	74.0361
841.177	74.5873
842.864	75.6956
844.55	74.907
846.237	74.4733
847.924	73.9914
849.61	74.5368
851.295	74.2264
852.98	74.6253
854.666	74.4363
856.349	73.6849
858.034	71.8256
859.719	71.5754
861.403	72.045
863.085	70.2708
864.769	69.1857
866.452	68.2642
868.133	66.8456
869.816	66.9089
871.498	64.9213
873.179	62.7776
874.86	61.3939
876.54	60.7166
878.221	60.721
879.902	59.6054
881.58	58.5194
883.26	57.266
884.938	57.248
886.618	55.6815
888.297	54.6732
889.974	54.0207
891.653	53.8013
893.329	53.5297
895.007	53.3814
896.683	53.0803
898.36	53.218
900.035	53.4124
901.712	51.9122
903.387	52.4387
905.063	52.5307
906.737	51.7808
908.412	50.8225
910.085	50.7272
911.76	51.3703
913.433	51.2533
915.107	51.3807
916.779	51.1216
918.452	51.2887
920.124	51.744
921.797	50.966
923.467	50.4465
925.138	50.519
926.81	49.3014
928.48	49.1228
930.151	49.1453
931.82	48.9954
933.489	49.5155
935.16	48.4877
936.828	47.7287
938.496	45.9755
940.165	43.742
941.833	42.8577
943.5	41.5308
945.168	40.0102
946.834	37.9866
948.5	37.6126
950.168	36.7419
951.834	35.2908
953.499	34.5517
955.163	31.5104
956.83	30.9004
958.494	30.1066
960.158	29.874
961.821	28.3788
963.487	27.3774
965.15	26.6277
966.812	25.994
968.474	25.6977
970.138	24.84
971.8	25.739
973.461	25.2212
975.123	24.563
976.783	24.9972
978.446	25.1942
980.106	25.4248
981.766	26.1775
983.425	26.429
985.084	25.6661
986.743	26.692
988.402	26.9283
990.06	26.3247
991.72	26.9499
993.378	27.8539
995.035	27.5978
996.692	27.3567
998.349	27.4208
1000.01	26.8765
1001.66	26.3804
1003.32	26.4294
1004.97	25.7785
1006.63	27.1975
1008.28	27.1809
1009.94	27.1956
1011.59	27.2843
1013.25	27.4951
1014.9	28.5629
1016.55	29.0642
1018.21	28.8619
1019.86	29.2792
1021.51	28.7833
1023.16	28.0168
1024.81	30.2599
1026.47	29.6767
1028.12	30.8321
1029.77	31.1325
1031.42	32.0285
1033.07	33.1876
1034.72	33.1521
1036.37	33.9206
1038.02	34.0704
1039.67	36.7171
1041.31	37.6258
1042.96	39.1692
1044.61	41.0743
1046.26	42.0782
1047.91	42.8741
1049.55	43.6715
1051.2	44.4167
1052.84	44.7346
1054.49	45.1546
1056.14	45.6445
1057.78	47.1465
1059.43	47.6853
1061.07	46.9982
1062.72	47.4476
1064.36	47.4754
1066	46.6779
1067.65	45.8134
1069.29	46.1937
1070.93	45.5175
1072.58	45.3522
1074.22	44.3498
1075.86	43.6205
1077.5	42.5184
1079.14	40.8023
1080.78	39.0556
1082.42	37.7021
1084.06	35.5604
1085.7	34.7626
1087.34	34.0874
1088.98	34.4242
1090.62	31.3868
1092.26	29.9456
1093.9	30.1168
1095.54	28.7727
1097.17	28.5444
1098.81	27.5847
1100.45	26.7251
1102.09	25.6353
1103.72	25.1317
1105.36	25.2217
1106.99	26.8052
1108.63	25.7279
1110.27	25.9249
1111.9	25.0424
1113.53	25.0259
1115.17	25.0805
1116.8	24.4845
1118.43	24.8521
1120.07	24.5899
1121.7	24.0896
1123.33	23.111
1124.97	23.495
1126.6	24.1388
1128.23	23.5821
1129.86	22.6765
1131.49	21.5539
1133.12	20.577
1134.75	20.0602
1136.38	20.6402
1138.01	20.9628
1139.64	20.183
1141.27	18.2322
1142.9	18.2259
1144.53	19.8291
1146.16	19.406
1147.78	19.3148
1149.41	19.7823
1151.04	20.9439
1152.67	20.1899
1154.29	19.8556
1155.92	18.7192
1157.54	17.8554
1159.17	16.8613
1160.8	15.829
1162.42	14.9209
1164.05	14.0874
1165.67	12.8969
1167.29	13.6046
1168.92	12.5485
1170.54	12.2869
1172.16	11.7693
1173.79	12.2712
1175.41	12.3905
1177.03	11.4301
1178.65	12.7998
1180.28	12.7714
1181.9	11.9273
1183.52	12.4433
1185.14	12.2764
1186.76	12.2594
1188.38	11.8861
1190	11.0351
1191.62	9.66379
1193.24	9.45914
1194.86	9.78356
1196.47	10.4124
1198.09	11.8452
1199.71	11.9643
1201.33	12.2729
1202.95	12.2625
1204.56	13.5628
1206.18	14.3426
1207.8	13.8065
1209.41	13.7689
1211.03	13.302
1212.64	13.1694
1214.26	14.189
1215.87	15.2934
1217.49	15.2769
1219.1	15.7631
1220.71	17.4218
1222.33	18.2643
1223.94	19.5333
1225.55	21.2632
1227.16	21.3225
1228.78	22.805
1230.39	23.7861
1232	25.3058
1233.61	25.4879
1235.22	26.0462
1236.83	26.4825
1238.44	26.9198
1240.05	28.6474
1241.66	29.3761
1243.27	29.8627
1244.88	31.3202
1246.49	32.7881
1248.1	33.94
1249.71	34.9378
1251.32	36.9172
1252.92	38.076
1254.53	38.923
1256.14	39.3057
1257.74	40.4991
1259.35	41.6096
1260.96	43.1611
1262.56	44.5046
1264.17	47.1773
1265.77	48.062
1267.38	50.5529
1268.98	52.0843
1270.59	54.8116
1272.19	58.3437
1273.79	62.1447
1275.4	65.1534
1277	67.8562
1278.6	69.9955
1280.21	72.2138
1281.81	74.9582
1283.41	76.1106
1285.01	78.3482
1286.61	79.4679
1288.21	81.5063
1289.81	83.9732
1291.41	85.813
1293.01	87.2239
1294.61	88.8342
1296.21	90.362
1297.81	91.1187
1299.41	92.8948
1301.01	93.3414
1302.6	93.2621
1304.2	93.7074
1305.8	94.2144
1307.4	94.2091
1308.99	93.5199
1310.59	92.7971
1312.19	93.5186
1313.78	91.9307
1315.38	90.7269
1316.97	89.4941
1318.57	88.1833
1320.16	87.6858
1321.76	85.7508
1323.35	84.2905
1324.94	82.2426
1326.54	80.8048
1328.13	77.9287
1329.72	76.5412
1331.32	74.6579
1332.91	72.8412
1334.5	70.1641
1336.09	68.3633
1337.68	67.0671
1339.27	66.3246
1340.87	64.6271
1342.45	63.7428
1344.04	62.326
1345.64	61.0694
1347.22	60.4948
1348.81	59.763
1350.4	58.5164
1351.99	58.0829
1353.58	56.3905
1355.17	55.6022
1356.75	54.0924
1358.34	54.0381
1359.93	54.6085
1361.51	53.5675
1363.1	52.8118
1364.69	52.4459
1366.27	51.7895
1367.86	51.5246
1369.44	50.9067
1371.03	50.8565
1372.61	50.3287
1374.2	49.8369
1375.78	51.1884
1377.37	51.003
1378.95	51.2102
1380.53	50.3773
1382.11	50.1393
1383.7	49.4715
1385.28	49.0677
1386.86	49.0617
1388.44	48.9738
1390.02	50.0277
1391.6	50.5171
1393.19	49.5966
1394.77	49.7635
1396.35	50.0421
1397.93	51.069
1399.51	51.4097
1401.08	53.58
1402.66	55.1871
1404.24	57.8169
1405.82	61.4386
1407.4	64.5271
1408.97	68.2815
1410.55	72.0983
1412.13	76.1041
1413.71	80.7713
1415.28	86.472
1416.86	90.6897
1418.43	95.8972
1420.01	100.276
1421.59	106.5
1423.16	112.856
1424.73	119.773
1426.31	124.762
1427.88	131.526
1429.46	136.496
1431.03	143.46
1432.6	148.998
1434.18	155.402
1435.75	160.789
1437.32	166.011
1438.89	170.462
1440.46	172.887
1442.04	175.833
1443.61	178.049
1445.18	180.097
1446.75	182.209
1448.32	183.663
1449.89	184.273
1451.46	183.424
1453.03	181.768
1454.6	179.756
1456.16	175.8
1457.73	171.301
1459.3	166.212
1460.87	161.312
1462.44	155.782
1464	150.01
1465.57	143.048
1467.14	137.102
1468.7	129.97
1470.27	122.852
1471.83	115.172
1473.4	107.968
1474.96	100.721
1476.53	94.4802
1478.09	88.4794
1479.66	83.8326
1481.22	77.4778
1482.78	72.3051
1484.35	66.3431
1485.91	61.0679
1487.47	55.7201
1489.04	51.0866
1490.6	46.8869
1492.16	43.0535
1493.72	39.7726
1495.28	35.2437
1496.84	33.1263
1498.4	31.1449
1499.96	29.0073
1501.52	27.7453
1503.08	25.2147
1504.64	23.4332
1506.2	22.2071
1507.76	21.0538
1509.32	20.702
1510.88	20.9308
1512.44	20.2689
1513.99	18.8272
1515.55	18.1211
1517.11	18.0134
1518.66	18.3228
1520.22	18.8582
1521.78	19.6209
1523.33	19.1314
1524.89	20.0928
1526.44	19.6389
1528	19.1271
1529.55	18.6413
1531.11	18.2994
1532.66	18.069
1534.21	17.1695
1535.77	17.574
1537.32	17.9663
1538.87	17.7258
1540.43	18.3907
1541.98	18.5082
1543.53	20.0604
1545.08	21.9831
1546.63	21.4264
1548.18	22.2788
1549.74	21.8487
1551.29	22.6186
1552.84	24.7505
1554.39	26.6105
1555.94	27.4023
1557.48	28.3255
1559.03	28.3114
1560.58	28.9332
1562.13	29.634
1563.68	31.1456
1565.23	31.8766
1566.78	32.7653
1568.32	35.4722
1569.87	36.429
1571.42	38.0538
1572.96	38.8756
1574.51	40.6183
1576.05	42.2474
1577.6	44.4688
1579.14	46.7194
1580.69	47.5174
1582.24	50.2206
1583.78	51.0476
1585.32	53.1588
1586.87	55.1549
1588.41	56.6063
1589.95	56.8243
1591.5	58.9423
1593.04	61.0691
1594.58	62.1291
1596.12	63.5585
1597.67	63.5492
1599.21	64.4587
1600.75	63.9699
1602.29	64.5838
1603.83	64.1614
1605.37	63.7234
1606.91	63.0952
1608.45	62.2334
1609.99	62.1729
1611.53	61.6773
1613.07	61.9064
1614.6	60.9102
1616.14	60.2366
1617.68	59.9856
1619.22	58.9058
1620.75	58.6282
1622.29	56.9047
1623.83	56.3581
1625.37	56.5371
1626.9	55.7551
1628.44	56.4832
1629.97	57.2075
1631.51	56.5223
1633.04	55.9842
1634.58	55.2724
1636.11	55.4106
1637.65	55.9855
1639.18	55.7999
1640.72	56.4215
1642.25	56.8856
1643.78	57.9561
1645.31	59.6368
1646.85	59.4453
1648.38	60.5504
1649.91	61.6272
1651.44	62.0401
1652.97	62.8827
1654.5	63.7996
1656.03	63.3888
1657.56	63.6911
1659.1	64.3301
1660.62	63.5122
1662.15	63.1852
1663.68	63.1176
1665.21	60.9316
1666.74	60.2075
1668.27	59.2748
1669.8	58.1465
1671.32	58.0547
1672.85	56.7682
1674.38	55.2206
1675.91	53.131
1677.43	51.1699
1678.96	48.5877
1680.49	46.4862
1682.01	44.1188
1683.54	42.1832
1685.06	40.914
1686.59	40.028
1688.11	38.4061
1689.64	36.7471
1691.16	34.3849
1692.68	33.4511
1694.21	32.2629
1695.73	30.8505
1697.25	30.0251
1698.78	29.1304
1700.3	29.921
1701.82	28.8657
1703.34	28.7159
1704.86	28.0122
1706.39	27.7598
1707.91	26.8241
1709.43	26.3427
1710.95	26.0153
1712.47	26.6921
1713.99	26.6187
1715.51	26.709
1717.02	26.811
1718.54	27.8438
1720.06	28.5815
1721.58	29.3748
1723.1	29.3671
1724.62	30.2269
1726.13	30.7554
1727.65	31.2344
1729.17	31.6447
1730.68	31.8838
1732.2	31.6459
1733.72	31.3823
1735.23	30.3559
1736.75	29.5967
1738.26	29.1697
1739.78	28.8563
1741.29	27.7412
1742.81	27.3737
1744.32	26.7522
1745.84	26.3638
1747.35	25.3787
1748.86	23.6476
1750.37	22.4271
1751.89	20.7373
1753.4	20.3523
1754.91	19.9455
1756.42	19.9409
1757.93	19.0002
1759.45	18.5011
1760.96	17.8053
1762.47	17.0625
1763.98	15.7645
1765.49	14.3865
1767	13.7913
1768.51	13.9232
1770.02	12.7405
1771.53	11.3652
1773.03	10.2029
1774.54	9.93384
1776.05	9.46552
1777.56	8.51723
1779.07	8.10436
1780.57	6.65581
1782.08	6.88734
1783.59	6.42253
1785.09	5.9299
1786.6	5.47444
1788.11	5.33936
1789.61	5.41919
1791.12	4.93285
1792.62	4.45342
1794.13	5.15423
1795.63	4.61762
1797.13	4.14148
1798.64	3.21329
1800.14	3.13826
1801.65	2.6985
1803.15	2.37945
1804.65	1.62762
1806.15	1.20274
1807.66	1.37138
1809.16	0.610231
1810.66	0.258667
1812.16	-0.365624
1813.66	-0.662016
1815.16	-1.04287
1816.66	-1.78731
1818.16	-1.55821
1819.66	-1.09944
1821.16	-0.980552
1822.66	0.214427
1824.16	1.10234
1825.66	1.26375
1827.16	1.13628
1828.66	1.67105
1830.16	2.10596
1831.65	1.76495
1833.15	2.02926
1834.65	3.19972
1836.14	3.27263
1837.64	3.78055
1839.14	3.67633
1840.63	3.85429
1842.13	4.51394
1843.62	4.66158
1845.12	4.58669
1846.61	4.45562
1848.11	5.21503
1849.6	6.33817
1851.1	6.55511
1852.59	6.91834
1854.08	6.45635
1855.58	6.46042
1857.07	6.94383
1858.56	7.0747
1860.05	6.68446
1861.55	6.26694
1863.04	6.24034
1864.53	6.00552
1866.02	5.50529
1867.51	5.46392
1869	5.42506
1870.49	6.04777
1871.98	6.34153
1873.47	6.71151
1874.96	7.33297
1876.45	7.50836
1877.94	7.51698
1879.43	8.22004
1880.92	8.15069
1882.41	8.57065
1882.51	8.6093
1884	8.72942
1885.5	7.85971
1886.99	7.72046
1888.48	7.36503
1889.98	7.69427
1891.47	7.83354
1892.96	7.03636
1894.46	7.13888
1895.95	7.64657
1897.44	6.82022
1898.93	5.95856
1900.42	5.88011
1901.91	7.06232
1903.41	7.48609
1904.9	6.95299
1906.39	6.5505
1907.88	5.8495
1909.37	5.31968
1910.86	5.2843
1912.35	5.21933
1913.83	5.39494
1915.32	5.69513
1916.81	5.31938
1918.3	5.01417
1919.79	4.90475
1921.27	5.15375
1922.76	4.23587
1924.25	3.5809
1925.74	3.16768
1927.22	3.07403
1928.71	3.00228
1930.19	2.57786
1931.68	3.13898
1933.17	2.56718
1934.65	2.78916
1936.14	3.70846
1937.62	3.79097
1939.11	3.80171
1940.59	4.20954
1942.07	4.45125
1943.56	4.37981
1945.04	4.44736
1946.52	4.49246
1948.01	4.00637
1949.49	3.56129
1950.97	3.69922
1952.45	3.90693
1953.93	3.34997
1955.42	3.55445
1956.9	3.64048
1958.38	3.22624
1959.86	2.7059
1961.34	2.66149
1962.82	2.37068
1964.3	2.48682
1965.78	1.91422
1967.26	1.76894
1968.74	2.9287
1970.21	2.5646
1971.69	1.74012
1973.17	2.77508
1974.65	3.5324
1976.13	3.60121
1977.6	3.17257
1979.08	2.88175
1980.56	2.83983
1982.03	3.17192
1983.51	3.95879
1984.99	4.24882
1986.46	4.80403
1987.94	5.07891
1989.41	5.05023
1990.89	4.98267
1992.36	5.64117
1993.84	5.85034
1995.31	6.58454
1996.78	6.84828
1998.26	7.65836
1999.73	8.00876
2001.2	8.76061
2002.68	9.06033
2004.15	9.46861
2005.62	10.6196
2007.09	10.6515
2008.56	11.3341
2010.04	11.0877
2011.51	11.0475
2012.98	10.5187
2014.45	10.8505
2015.92	10.7535
2017.39	10.7086
2018.86	11.4532
2020.33	10.8432
2021.8	10.3153
2023.26	11.1903
2024.73	11.1349
2026.2	10.8652
2027.67	10.6739
2029.14	10.5966
2030.61	10.3475
2032.07	8.90091
2033.54	7.78802
2035.01	7.11065
2036.47	6.3546
2037.94	6.08587
2039.4	5.87418
2040.87	5.51143
2042.33	5.21084
2043.8	4.36749
2045.27	4.39018
2046.73	4.9035
2048.19	4.22766
2049.66	4.19339
2051.12	3.96722
2052.59	4.30244
2054.05	4.53921
2055.51	4.61888
2056.97	4.54141
2058.44	4.726
2059.9	4.69893
2061.36	4.6524
2062.82	4.41549
2064.28	4.95288
2065.74	4.98708
2067.21	5.35301
2068.67	5.92974
2070.13	6.0585
2071.59	6.2241
2073.05	6.88654
2074.51	7.51373
2075.96	7.52188
2077.42	7.93259
2078.88	8.58435
2080.34	8.77236
2081.8	8.64724
2083.26	8.72089
2084.72	9.61493
2086.17	9.82871
2087.63	10.5881
2089.09	10.284
2090.54	10.1894
2092	10.032
2093.45	9.95455
2094.91	9.69991
2096.37	10.224
2097.82	9.28153
2099.28	9.23967
2100.73	9.1144
2102.19	9.04957
2103.64	7.97129
2105.09	8.13594
2106.55	8.19552
2108	8.55556
2109.45	8.68686
2110.91	7.7829
2112.36	6.96337
2113.81	6.81479
2115.26	6.80561
2116.72	7.38858
2118.17	8.86472
2119.62	9.36066
2121.07	9.75466
2122.52	9.78413
2123.97	10.0311
2125.42	10.4332
2126.87	11.3395
2128.32	11.2249
2129.77	11.7314
2131.22	12.7157
2132.67	13.4431
2134.11	14.1105
2135.56	15.4315
