#Acq. time (s)=	45
#Accumulations=	2
#Range (cm-¹)=	200...3150
#Windows=	2
#Auto scanning=	Off
#Autofocus=	Off
#Macrospot=	Off
#AutoExposure=	Off
#Spike filter=	Multiple accum.
#Delay time (s)=	0
#Binning=	1
#Readout mode=	Signal
#DeNoise=	Off
#ICS correction=	On
#Dark correction=	Off
#Inst. Process=	Off
#Detector Gain=	Best Dynamic Range
#Detector ADC=	20 kHz       
#Detector temperature (°C)=	-69.85
#Instrument=	LabRAM HR Evol
#Detector=	Synapse
#Objective=	x100
#Grating=	600 gr/mm
#ND Filter=	100%
#Laser (nm)=	532 
#Hole=	100.021
#Range=	Auto
#Laser Pol.=	No
#Raman. Pol.=	No
#Laser Pol. (°)=	-0.0007625
#Raman Pol. (°)=	89.9995
#Collection=	Microscope
#StageXY=	Marzhauser
#StageZ=	Marzhauser
#X (µm)=	-6358.4
#Y (µm)=	860.4
#Z (µm)=	-64.55
#Full time(mm:ss)=	3:19
#Project=	
#Sample=	
#Site=	
#Title=	Mb_30_27_24_2x_45s_532 nm_x100_100%_600 gr_mm
#Remark=	
#Date=	13.07.2022 10:22
#Acquired=	13.07.2022 10:22:31
#Base:Fit=	10.08.2022 10:40:03
#Base:Sub=	10.08.2022 10:40:17
#Filter:Polynom=	16.08.2022 10:16:15
#AxisType[0]=Intens
#AxisUnit[0]=Cnt
#AxisType[1]=Spectr
#AxisUnit[1]=1/cm
200.563	0.599116
202.377	3.26149
204.194	5.58817
206.008	6.68912
207.821	8.44476
209.634	10.0247
211.449	11.6314
213.262	13.2884
215.074	14.3061
216.885	14.413
218.699	14.4664
220.51	14.3457
222.321	15.0562
224.131	14.5402
225.941	13.7457
227.751	13.5425
229.562	13.072
231.371	14.4404
233.18	13.9219
234.988	13.8924
236.796	14.4523
238.603	13.7809
240.411	14.9538
242.219	14.8374
244.026	14.5577
245.832	14.3056
247.638	13.6981
249.443	12.5936
251.248	12.0957
253.053	10.5517
254.857	10.4519
256.661	10.4197
258.465	9.61488
260.268	8.57993
262.071	9.78761
263.874	9.52352
265.678	9.73118
267.48	9.66768
269.282	8.95536
271.083	9.14825
272.884	7.77515
274.684	7.36483
276.484	8.26276
278.284	8.56672
280.084	8.57357
281.883	8.73145
283.682	9.43007
285.48	10.569
287.276	11.49
289.074	12.6444
290.871	12.8597
292.668	13.3105
294.465	13.9782
296.261	15.3951
298.057	15.2438
299.853	16.2725
301.648	16.8319
303.443	17.0174
305.237	16.6054
307.032	16.6744
308.823	16.44
310.617	16.9094
312.41	16.3174
314.203	15.9612
315.995	15.7258
317.788	16.2489
319.579	16.0888
321.369	15.7475
323.16	14.7737
324.951	14.4002
326.741	14.5053
328.531	13.9321
330.321	13.7581
332.108	12.6709
333.897	12.1034
335.686	11.3624
337.474	10.3929
339.26	9.79065
341.048	9.45343
342.835	8.1553
344.622	8.86712
346.406	9.18881
348.192	9.59038
349.978	9.82275
351.764	9.67755
353.547	8.55678
355.332	7.90287
357.116	7.405
358.901	7.0392
360.682	7.66876
362.466	6.75628
364.249	8.21207
366.03	9.76668
367.812	10.3452
369.594	11.2745
371.374	11.9343
373.155	12.4912
374.936	13.389
376.715	14.5457
378.495	14.8245
380.273	14.6764
382.053	14.8864
383.832	15.8299
385.609	16.2236
387.388	17.1366
389.164	18.1776
390.942	17.4567
392.72	18.6772
394.495	18.7946
396.272	18.7931
398.047	17.5565
399.823	17.8216
401.597	16.9021
403.372	17.2724
405.145	17.1576
406.92	17.0925
408.693	17.3025
410.467	16.9724
412.239	17.737
414.012	17.5184
415.783	17.9402
417.556	16.9903
419.327	16.9342
421.099	17.6416
422.869	17.1042
424.64	16.0891
426.409	15.9772
428.18	15.9446
429.948	15.4225
431.718	15.7254
433.486	16.3601
435.253	15.0949
437.022	14.4928
438.789	13.3356
440.558	13.1975
442.324	13.8322
444.089	13.9825
445.857	14.1938
447.622	13.0083
449.386	12.9202
451.153	12.2603
452.917	12.681
454.682	12.246
456.446	12.1825
458.208	12.1986
459.973	12.2022
461.735	12.7815
463.497	13.227
465.259	13.402
467.022	13.3173
468.783	13.9443
470.544	15.2193
472.306	15.0462
474.066	14.8907
475.825	16.7667
477.585	17.2918
479.346	17.5337
481.104	18.8752
482.862	18.1022
484.62	18.8592
486.38	18.5889
488.137	20.0397
489.894	20.746
491.65	21.8845
493.407	21.6688
495.164	22.0054
496.92	23.1142
498.675	23.2271
500.43	23.7272
502.184	23.8204
503.939	23.7548
505.694	23.7082
507.448	25.0909
509.201	25.6462
510.954	25.696
512.706	26.2695
514.459	27.7332
516.21	27.6823
517.962	27.3394
519.715	27.696
521.466	27.4409
523.216	26.8093
524.966	25.9768
526.716	25.8404
528.466	25.7644
530.215	25.1325
531.964	23.9909
533.712	22.291
535.46	20.321
537.208	20.0679
538.955	19.6186
540.703	19.65
542.449	18.161
544.196	17.4599
545.942	17.1483
547.688	16.1979
549.433	14.5919
551.178	14.2226
552.923	13.4887
554.667	12.5133
556.412	10.9974
558.155	9.84361
559.899	8.14631
561.642	8.69582
563.385	9.24808
565.127	7.75103
566.867	6.32777
568.609	5.83295
570.35	4.67371
572.092	4.81965
573.832	3.39252
575.573	3.8156
577.313	3.46779
579.053	3.16629
580.79	1.67906
582.529	2.18753
584.268	1.70971
586.006	0.846282
587.745	0.55128
589.482	0.500081
591.218	0.598023
592.955	1.21356
594.692	1.92516
596.428	2.61737
598.164	3.23743
599.898	4.01915
601.634	4.46324
603.369	3.93192
605.104	3.91175
606.836	3.78338
608.57	3.68352
610.304	3.30654
612.037	3.99775
613.769	5.22123
615.501	5.27795
617.234	5.29063
618.966	4.5964
620.696	4.79578
622.427	5.04639
624.159	5.50704
625.887	5.60775
627.618	5.55687
629.348	4.83106
631.076	6.0218
632.806	6.22869
634.535	6.61722
636.262	6.20539
637.99	6.81691
639.716	7.59157
641.444	7.21139
643.172	7.40066
644.897	8.41988
646.624	8.7803
648.348	9.65619
650.075	9.99609
651.801	9.17652
653.524	9.21672
655.249	10.1807
656.972	10.0288
658.697	9.83776
660.419	9.54329
662.143	10.7595
663.865	10.7391
665.588	10.419
667.309	10.786
669.032	12.2157
670.752	12.3495
672.474	11.3187
674.194	12.6808
675.915	13.9465
677.634	14.8862
679.355	15.0113
681.073	15.6495
682.793	16.6878
684.511	17.5461
686.23	18.5887
687.947	18.839
689.664	19.0769
691.382	19.9735
693.098	21.0791
694.816	22.7545
696.531	23.8765
698.247	24.6929
699.963	24.0456
701.678	23.7632
703.392	23.3569
705.108	23.669
706.821	24.0827
708.534	24.7426
710.249	25.5081
711.962	26.4996
713.674	27.6168
715.388	28.8409
717.099	30.7338
718.81	30.9295
720.523	32.586
722.234	32.0495
723.944	33.3964
725.654	35.4165
727.365	35.4305
729.075	36.3273
730.784	36.725
732.492	37.3423
734.202	37.6492
735.91	36.9348
737.618	37.6413
739.325	38.6324
741.034	39.2135
742.741	40.4006
744.447	41.7478
746.153	43.941
747.859	46.0318
749.564	47.3906
751.271	49.2364
752.976	51.5904
754.681	52.831
756.385	53.5663
758.088	55.5468
759.792	59.5647
761.495	61.0073
763.2	62.9815
764.902	64.2047
766.604	66.0338
768.306	67.696
770.008	69.0444
771.709	70.1492
773.41	71.8277
775.11	72.8302
776.811	74.5625
778.51	75.1406
780.21	76.0556
781.909	76.0893
783.608	76.5351
785.307	77.0943
787.005	78.0408
788.703	79.3164
790.401	80.6502
792.098	81.7527
793.795	82.5903
795.492	83.6305
797.188	84.8302
798.884	85.5802
800.58	85.8264
802.276	86.2558
803.971	86.4702
805.665	86.0386
807.36	85.6728
809.054	86.016
810.748	85.7399
812.441	85.683
814.135	84.8869
815.826	84.2903
817.518	84.0719
819.21	83.4962
820.902	83.5798
822.594	84.4552
824.285	83.9242
825.976	83.4401
827.665	83.9757
829.355	83.9274
831.045	83.8865
832.735	83.6357
834.424	83.5262
836.111	83.1029
837.8	81.5739
839.488	80.3339
841.177	79.1107
842.864	77.9928
844.55	76.3641
846.237	74.8197
847.924	73.4805
849.61	70.7926
851.295	69.1076
852.98	68.2593
854.666	66.7337
856.349	66.9436
858.034	66.2901
859.719	63.645
861.403	63.0696
863.085	62.0724
864.769	60.9891
866.452	59.1281
868.133	57.9506
869.816	56.8945
871.498	56.2655
873.179	55.3726
874.86	54.9836
876.54	54.6842
878.221	54.0222
879.902	54.2608
881.58	54.2584
883.26	54.1379
884.938	54.2203
886.618	55.2158
888.297	55.0565
889.974	54.0056
891.653	54.6139
893.329	54.2776
895.007	54.6132
896.683	54.8406
898.36	55.1172
900.035	56.6376
901.712	57.3391
903.387	57.8814
905.063	58.6785
906.737	58.5629
908.412	58.6352
910.085	59.2575
911.76	59.8693
913.433	60.0561
915.107	59.3378
916.779	58.3658
918.452	57.1551
920.124	56.4408
921.797	54.5234
923.467	54.2537
925.138	53.576
926.81	53.0854
928.48	52.5903
930.151	51.631
931.82	50.6517
933.489	49.3907
935.16	48.6056
936.828	48.6841
938.496	47.5712
940.165	46.6511
941.833	44.7393
943.5	43.1209
945.168	42.3006
946.834	41.1656
948.5	39.8302
950.168	39.674
951.834	39.9437
953.499	40.1864
955.163	39.8244
956.83	39.0827
958.494	38.4875
960.158	37.1557
961.821	36.999
963.487	36.5762
965.15	37.2611
966.812	37.8608
968.474	37.8216
970.138	37.4447
971.8	38.3847
973.461	38.4629
975.123	39.4183
976.783	39.632
978.446	40.347
980.106	41.6373
981.766	42.4244
983.425	42.9214
985.084	42.4328
986.743	43.0071
988.402	42.7458
990.06	41.8389
991.72	41.9938
993.378	41.899
995.035	41.1897
996.692	39.8354
998.349	39.4236
1000.01	39.0388
1001.66	38.6344
1003.32	38.7269
1004.97	39.0226
1006.63	39.7623
1008.28	40.2674
1009.94	40.7535
1011.59	40.5144
1013.25	41.1979
1014.9	41.6827
1016.55	42.2095
1018.21	42.8465
1019.86	43.0834
1021.51	42.4823
1023.16	42.5469
1024.81	43.2801
1026.47	44.123
1028.12	45.3385
1029.77	47.6015
1031.42	48.1838
1033.07	48.9585
1034.72	48.4986
1036.37	47.2013
1038.02	47.2613
1039.67	46.7623
1041.31	45.92
1042.96	45.8496
1044.61	46.2709
1046.26	45.3232
1047.91	45.5698
1049.55	45.3199
1051.2	44.4343
1052.84	43.841
1054.49	44.733
1056.14	42.3912
1057.78	41.2502
1059.43	40.0024
1061.07	39.1127
1062.72	37.7245
1064.36	35.774
1066	35.1015
1067.65	33.2893
1069.29	31.9311
1070.93	30.8433
1072.58	29.3936
1074.22	28.4324
1075.86	27.1952
1077.5	27.1676
1079.14	26.4878
1080.78	26.9975
1082.42	26.2211
1084.06	25.3008
1085.7	25.2112
1087.34	25.7886
1088.98	25.8554
1090.62	26.8314
1092.26	27.581
1093.9	27.5631
1095.54	28.1907
1097.17	27.6025
1098.81	28.2226
1100.45	28.0877
1102.09	27.3137
1103.72	27.742
1105.36	27.5031
1106.99	28.3757
1108.63	28.4224
1110.27	28.6801
1111.9	27.9099
1113.53	27.0791
1115.17	27.2797
1116.8	25.8835
1118.43	25.4083
1120.07	25.7318
1121.7	24.8834
1123.33	24.5022
1124.97	24.9092
1126.6	24.9343
1128.23	24.3691
1129.86	24.2729
1131.49	23.1022
1133.12	21.5146
1134.75	20.8894
1136.38	20.4149
1138.01	19.357
1139.64	18.4251
1141.27	18.3882
1142.9	17.1774
1144.53	16.7707
1146.16	16.5593
1147.78	15.3811
1149.41	14.6324
1151.04	14.1261
1152.67	13.7892
1154.29	12.7358
1155.92	12.6652
1157.54	12.4288
1159.17	12.743
1160.8	10.9857
1162.42	10.6422
1164.05	10.2693
1165.67	10.6351
1167.29	10.9585
1168.92	11.485
1170.54	11.2378
1172.16	11.2073
1173.79	10.8575
1175.41	10.9694
1177.03	11.0175
1178.65	11.6078
1180.28	11.6711
1181.9	11.3358
1183.52	11.2319
1185.14	12.3627
1186.76	12.831
1188.38	14.3401
1190	14.693
1191.62	15.5282
1193.24	16.448
1194.86	18.1653
1196.47	18.8553
1198.09	19.1825
1199.71	20.0104
1201.33	21.1961
1202.95	22.3205
1204.56	23.2695
1206.18	24.3813
1207.8	24.9521
1209.41	25.4513
1211.03	26.6512
1212.64	27.6093
1214.26	29.5337
1215.87	31.4516
1217.49	33.6999
1219.1	35.0044
1220.71	36.3807
1222.33	38.6581
1223.94	39.4728
1225.55	41.3353
1227.16	42.4035
1228.78	43.4352
1230.39	45.835
1232	48.0127
1233.61	49.8337
1235.22	51.3136
1236.83	53.9149
1238.44	55.3318
1240.05	56.9918
1241.66	58.0063
1243.27	60.045
1244.88	60.9034
1246.49	61.8427
1248.1	62.8415
1249.71	64.3227
1251.32	66.266
1252.92	68.2852
1254.53	69.9959
1256.14	71.8611
1257.74	72.8633
1259.35	75.2036
1260.96	75.5504
1262.56	76.2193
1264.17	77.2143
1265.77	78.2927
1267.38	79.1561
1268.98	79.5302
1270.59	79.8944
1272.19	80.0345
1273.79	81.0429
1275.4	81.7216
1277	82.0011
1278.6	82.2258
1280.21	82.6836
1281.81	84.27
1283.41	84.7833
1285.01	84.6214
1286.61	84.8719
1288.21	85.49
1289.81	86.4707
1291.41	87.4824
1293.01	88.1386
1294.61	88.2589
1296.21	87.208
1297.81	87.3534
1299.41	87.6252
1301.01	88.2451
1302.6	88.0382
1304.2	87.9991
1305.8	88.4653
1307.4	89.0807
1308.99	89.9724
1310.59	90.7958
1312.19	91.4804
1313.78	91.2045
1315.38	91.0192
1316.97	91.0961
1318.57	90.3622
1320.16	90.3013
1321.76	89.9222
1323.35	89.6712
1324.94	89.6512
1326.54	90.523
1328.13	90.6232
1329.72	89.811
1331.32	89.4845
1332.91	89.2041
1334.5	89.0099
1336.09	88.2964
1337.68	87.6697
1339.27	86.6629
1340.87	84.0552
1342.45	82.738
1344.04	82.0064
1345.64	80.9453
1347.22	79.3779
1348.81	77.5542
1350.4	76.0987
1351.99	74.2015
1353.58	73.3756
1355.17	71.9705
1356.75	70.2614
1358.34	69.3113
1359.93	68.0251
1361.51	67.1318
1363.1	64.9496
1364.69	63.5096
1366.27	62.6911
1367.86	61.8149
1369.44	60.3777
1371.03	58.4911
1372.61	56.3335
1374.2	54.7709
1375.78	53.0118
1377.37	52.6391
1378.95	52.0156
1380.53	50.3496
1382.11	50.1904
1383.7	50.276
1385.28	50.4195
1386.86	49.9022
1388.44	49.3756
1390.02	48.3021
1391.6	47.7961
1393.19	47.3843
1394.77	47.5149
1396.35	47.8503
1397.93	47.9577
1399.51	48.2362
1401.08	48.148
1402.66	49.3479
1404.24	50.254
1405.82	51.1398
1407.4	51.1406
1408.97	52.4662
1410.55	53.7416
1412.13	55.5038
1413.71	57.0451
1415.28	58.2858
1416.86	60.2014
1418.43	61.5886
1420.01	63.9586
1421.59	67.1225
1423.16	68.7529
1424.73	70.8835
1426.31	72.7576
1427.88	75.3964
1429.46	77.6379
1431.03	80.615
1432.6	83.102
1434.18	85.2423
1435.75	87.1414
1437.32	89.1977
1438.89	90.2597
1440.46	91.3907
1442.04	91.3886
1443.61	92.2047
1445.18	92.3019
1446.75	92.6415
1448.32	92.2839
1449.89	91.8609
1451.46	90.7245
1453.03	89.2953
1454.6	87.7756
1456.16	87.0173
1457.73	86.1632
1459.3	85.4892
1460.87	84.7314
1462.44	82.5146
1464	80.8998
1465.57	78.7548
1467.14	76.5906
1468.7	74.3025
1470.27	72.1583
1471.83	70.0602
1473.4	68.0189
1474.96	65.5184
1476.53	63.6529
1478.09	61.6487
1479.66	59.3197
1481.22	58.2499
1482.78	56.3336
1484.35	54.8149
1485.91	52.9227
1487.47	52.1892
1489.04	50.3224
1490.6	49.4351
1492.16	47.9764
1493.72	46.798
1495.28	45.3031
1496.84	44.3162
1498.4	43.2355
1499.96	42.4309
1501.52	40.7648
1503.08	40.8548
1504.64	40.5899
1506.2	40.3749
1507.76	38.7804
1509.32	38.7803
1510.88	37.1662
1512.44	36.9715
1513.99	35.9019
1515.55	35.8612
1517.11	35.4212
1518.66	34.3226
1520.22	34.0062
1521.78	33.9978
1523.33	34.0654
1524.89	33.1079
1526.44	32.4383
1528	31.7399
1529.55	31.3659
1531.11	31.1106
1532.66	31.7898
1534.21	31.7185
1535.77	31.8285
1537.32	32.2155
1538.87	32.07
1540.43	32.3696
1541.98	33.7651
1543.53	34.4442
1545.08	35.3213
1546.63	35.7922
1548.18	36.78
1549.74	37.4485
1551.29	37.9462
1552.84	38.4178
1554.39	39.8829
1555.94	39.7943
1557.48	41.2035
1559.03	42.9417
1560.58	43.0015
1562.13	43.3851
1563.68	43.219
1565.23	44.5325
1566.78	45.0676
1568.32	46.1037
1569.87	47.3019
1571.42	47.6705
1572.96	48.7482
1574.51	50.2154
1576.05	51.1577
1577.6	52.9501
1579.14	52.943
1580.69	53.8417
1582.24	54.9257
1583.78	55.5245
1585.32	56.4681
1586.87	57.7689
1588.41	58.614
1589.95	60.7246
1591.5	61.1644
1593.04	62.663
1594.58	63.536
1596.12	63.9957
1597.67	64.9633
1599.21	65.0441
1600.75	65.0004
1602.29	64.6433
1603.83	65.6521
1605.37	65.8921
1606.91	66.3775
1608.45	66.07
1609.99	66.4396
1611.53	67.5836
1613.07	68.2375
1614.6	68.4192
1616.14	69.2757
1617.68	70.1153
1619.22	70.8645
1620.75	71.5618
1622.29	72.053
1623.83	72.3544
1625.37	73.3194
1626.9	73.5008
1628.44	75.1027
1629.97	75.9059
1631.51	77.4046
1633.04	77.8454
1634.58	79.5652
1636.11	80.9532
1637.65	82.0849
1639.18	83.6576
1640.72	84.9244
1642.25	87.2533
1643.78	88.5633
1645.31	89.5281
1646.85	90.4319
1648.38	91.2397
1649.91	93.3716
1651.44	93.6084
1652.97	93.6555
1654.5	93.8285
1656.03	94.1199
1657.56	94.9389
1659.1	95.5414
1660.62	95.5363
1662.15	95.0518
1663.68	94.5649
1665.21	94.3443
1666.74	93.5478
1668.27	91.517
1669.8	90.0864
1671.32	88.469
1672.85	86.3677
1674.38	84.4719
1675.91	82.2702
1677.43	80.099
1678.96	77.271
1680.49	74.8577
1682.01	71.6689
1683.54	68.7469
1685.06	66.0678
1686.59	63.8681
1688.11	61.1354
1689.64	57.5111
1691.16	54.5834
1692.68	52.0105
1694.21	49.4019
1695.73	46.9878
1697.25	44.7355
1698.78	42.1644
1700.3	39.7379
1701.82	37.5125
1703.34	35.156
1704.86	33.315
1706.39	31.3359
1707.91	30.2276
1709.43	29.3634
1710.95	28.1685
1712.47	27.5098
1713.99	26.1179
1715.51	24.7818
1717.02	24.1157
1718.54	23.6984
1720.06	23.127
1721.58	22.5748
1723.1	22.3032
1724.62	21.8585
1726.13	21.4204
1727.65	20.3714
1729.17	19.9118
1730.68	19.8131
1732.2	20.0212
1733.72	18.9695
1735.23	17.8887
1736.75	16.766
1738.26	15.9252
1739.78	15.6761
1741.29	15.5494
1742.81	15.257
1744.32	14.597
1745.84	14.167
1747.35	13.8672
1748.86	13.6202
1750.37	13.2109
1751.89	12.5825
1753.4	12.4276
1754.91	11.5742
1756.42	11.7806
1757.93	11.0235
1759.45	10.6447
1760.96	10.2883
1762.47	9.56999
1763.98	8.6449
1765.49	8.28106
1767	7.67151
1768.51	7.32004
1770.02	7.37391
1771.53	6.74072
1773.03	6.54587
1774.54	6.5706
1776.05	6.04261
1777.56	5.85395
1779.07	5.45953
1780.57	5.69468
1782.08	5.58274
1783.59	5.2143
1785.09	5.29169
1786.6	4.62111
1788.11	4.63623
1789.61	4.38985
1791.12	4.53874
1792.62	4.51423
1794.13	4.67817
1795.63	5.14444
1797.13	5.28395
1798.64	5.71911
1800.14	6.03982
1801.65	5.69307
1803.15	5.31615
1804.65	4.83429
1806.15	4.09891
1807.66	4.45165
1809.16	3.35257
1810.66	2.81302
1812.16	3.11299
1813.66	3.77776
1815.16	3.99441
1816.66	4.1747
1818.16	4.13073
1819.66	4.08305
1821.16	3.73025
1822.66	3.81503
1824.16	4.39767
1825.66	4.28005
1827.16	4.29234
1828.66	4.58645
1830.16	4.16568
1831.65	4.2449
1833.15	4.20334
1834.65	4.61523
1836.14	4.75211
1837.64	5.23237
1839.14	5.40347
1840.63	5.72408
1842.13	5.77762
1843.62	6.01656
1845.12	5.57084
1846.61	5.17006
1848.11	5.22844
1849.6	4.76464
1851.1	3.89597
1852.59	3.50976
1854.08	3.33127
1855.58	2.86229
1857.07	2.30789
1858.56	2.65445
1860.05	2.48451
1861.55	2.28501
1863.04	2.7245
1864.53	2.95574
1866.02	3.77763
1867.51	4.56903
1869	5.09663
1870.49	4.87359
1871.98	4.5752
1873.47	4.61861
1874.96	4.32422
1876.45	3.70367
1877.94	3.64994
1879.43	3.13313
1880.92	3.52107
1882.41	4.036
1882.51	3.13742
1884	3.58563
1885.5	3.97183
1886.99	4.4757
1888.48	4.60345
1889.98	4.49325
1891.47	4.24945
1892.96	3.93447
1894.46	4.02111
1895.95	4.58589
1897.44	4.70591
1898.93	4.83244
1900.42	4.4106
1901.91	4.015
1903.41	3.68877
1904.9	4.07744
1906.39	3.97501
1907.88	4.44824
1909.37	4.25505
1910.86	4.63717
1912.35	3.81908
1913.83	3.55199
1915.32	3.13032
1916.81	3.0413
1918.3	2.98329
1919.79	3.06803
1921.27	2.90854
1922.76	2.52511
1924.25	2.81437
1925.74	3.24722
1927.22	3.43924
1928.71	3.23759
1930.19	3.64974
1931.68	4.02138
1933.17	3.50514
1934.65	3.57283
1936.14	4.416
1937.62	4.54685
1939.11	4.84598
1940.59	4.7857
1942.07	4.1037
1943.56	4.08179
1945.04	4.11211
1946.52	4.3366
1948.01	4.31921
1949.49	4.13152
1950.97	4.0751
1952.45	3.96977
1953.93	5.02489
1955.42	5.30086
1956.9	5.85664
1958.38	6.20405
1959.86	6.17516
1961.34	5.87511
1962.82	5.37425
1964.3	5.03476
1965.78	4.30088
1967.26	4.56577
1968.74	4.09461
1970.21	4.03451
1971.69	3.6599
1973.17	3.60752
1974.65	3.07378
1976.13	3.56706
1977.6	4.19985
1979.08	3.49651
1980.56	2.88363
1982.03	3.20418
1983.51	2.84758
1984.99	2.73705
1986.46	2.27803
1987.94	2.39202
1989.41	2.10647
1990.89	2.02722
1992.36	1.89685
1993.84	1.75346
1995.31	1.97679
1996.78	1.90373
1998.26	1.74252
1999.73	1.28772
2001.2	0.508743
2002.68	0.845927
2004.15	0.860641
2005.62	1.16152
2007.09	1.24744
2008.56	1.51177
2010.04	2.0499
2011.51	1.79333
2012.98	2.02513
2014.45	2.03922
2015.92	1.83474
2017.39	2.61196
2018.86	1.90842
2020.33	2.45134
2021.8	2.70185
2023.26	3.29763
2024.73	3.73481
2026.2	3.81855
2027.67	3.90893
2029.14	3.70412
2030.61	3.40543
2032.07	3.30857
2033.54	3.08145
2035.01	2.87991
2036.47	3.55131
2037.94	4.32524
2039.4	4.25521
2040.87	4.78352
2042.33	4.96434
2043.8	5.81033
2045.27	5.79849
2046.73	5.84124
2048.19	6.10026
2049.66	6.12814
2051.12	6.14269
2052.59	5.91325
2054.05	6.22713
2055.51	6.8312
2056.97	6.57684
2058.44	6.81725
2059.9	6.4302
2061.36	6.74859
2062.82	7.01569
2064.28	7.58705
2065.74	8.34033
2067.21	9.01582
2068.67	9.44186
2070.13	9.33587
2071.59	9.65847
2073.05	10.3282
2074.51	10.8519
2075.96	11.5984
2077.42	11.3632
2078.88	11.9174
2080.34	11.8199
2081.8	11.7355
2083.26	12.0492
2084.72	11.6202
2086.17	12.1264
2087.63	12.2848
2089.09	12.9133
2090.54	12.8185
2092	13.4375
2093.45	14.0676
2094.91	14.0969
2096.37	14.4262
2097.82	15.1592
2099.28	15.2939
2100.73	16.1242
2102.19	16.5883
2103.64	17.7259
2105.09	18.6516
2106.55	19.3593
2108	20.6794
2109.45	21.8468
2110.91	22.9026
2112.36	23.4382
2113.81	24.7464
2115.26	26.2197
2116.72	27.4175
2118.17	28.6348
2119.62	30.1168
2121.07	31.7137
2122.52	32.9653
2123.97	35.1791
2125.42	36.2824
2126.87	37.7968
2128.32	40.1706
2129.77	41.5886
2131.22	43.9204
2132.67	45.5376
2134.11	48.2463
2135.56	50.6013
2137.01	52.6891
