#Acq. time (s)=	45
#Accumulations=	2
#Range (cm-¹)=	200...3150
#Windows=	2
#Auto scanning=	Off
#Autofocus=	Off
#Macrospot=	Off
#AutoExposure=	Off
#Spike filter=	Multiple accum.
#Delay time (s)=	0
#Binning=	1
#Readout mode=	Signal
#DeNoise=	Off
#ICS correction=	On
#Dark correction=	Off
#Inst. Process=	Off
#Detector Gain=	Best Dynamic Range
#Detector ADC=	20 kHz       
#Detector temperature (°C)=	-70.08
#Instrument=	LabRAM HR Evol
#Detector=	Synapse
#Objective=	x100
#Grating=	600 gr/mm
#ND Filter=	100%
#Laser (nm)=	532 
#Hole=	100.021
#Range=	Auto
#Laser Pol.=	No
#Raman. Pol.=	No
#Laser Pol. (°)=	-0.0007625
#Raman Pol. (°)=	89.9995
#Collection=	Microscope
#StageXY=	Marzhauser
#StageZ=	Marzhauser
#X (µm)=	28061.1
#Y (µm)=	-586.9
#Z (µm)=	1083.7
#Full time(mm:ss)=	3:19
#Project=	
#Sample=	
#Site=	
#Title=	Mb_30_27_01_2x_45s_532 nm_x100_100%_600 gr_mm
#Remark=	
#Date=	12.07.2022 15:28
#Acquired=	12.07.2022 15:28:27
#Base:Fit=	10.08.2022 10:39:47
#Base:Sub=	10.08.2022 10:39:55
#Base:Fit=	10.08.2022 10:40:03
#Base:Sub=	10.08.2022 10:40:17
#Filter:Polynom=	16.08.2022 10:16:15
#AxisType[0]=Intens
#AxisUnit[0]=Cnt
#AxisType[1]=Spectr
#AxisUnit[1]=1/cm
200.388	65.7613
202.204	62.1711
204.019	59.5109
205.832	58.1169
207.646	55.8911
209.459	53.4214
211.274	50.8091
213.087	48.0448
214.899	45.2891
216.711	43.0831
218.524	41.9895
220.335	39.922
222.146	38.9234
223.956	36.3546
225.766	34.6003
227.576	32.4918
229.388	29.9907
231.197	26.818
233.005	24.7341
234.813	23.4025
236.621	21.4542
238.429	18.7434
240.236	17.979
242.045	16.2614
243.852	16.1118
245.658	14.9323
247.464	13.6914
249.269	13.2768
251.074	10.8634
252.879	8.58506
254.683	8.6792
256.487	6.88613
258.291	7.99218
260.094	8.80771
261.897	8.75589
263.702	8.96331
265.504	8.57233
267.306	7.70093
269.108	8.28341
270.909	8.48711
272.71	6.84907
274.511	7.77048
276.311	7.42197
278.111	6.5004
279.91	5.48812
281.709	4.65295
283.508	4.56044
285.306	5.40523
287.105	5.42601
288.9	4.87705
290.698	6.40548
292.495	7.47777
294.291	7.08042
296.088	7.13211
297.884	8.74186
299.679	9.39301
301.475	10.6022
303.27	10.8533
305.064	11.7786
306.858	14.3326
308.652	15.2978
310.444	16.8182
312.237	16.0378
314.03	15.5903
315.822	15.5878
317.615	14.9042
319.406	15.0633
321.198	14.9376
322.987	15.894
324.778	15.478
326.568	15.9368
328.358	15.7603
330.148	16.3416
331.935	15.2803
333.724	16.4455
335.513	14.672
337.301	14.9507
339.089	15.4424
340.875	13.4175
342.662	12.9019
344.449	12.8899
346.236	12.2826
348.02	10.9364
349.806	9.83117
351.592	8.076
353.375	7.63879
355.16	5.04267
356.944	4.81845
358.728	4.92922
360.51	3.97104
362.294	2.88484
364.077	2.9172
365.858	1.80747
367.64	0.931787
369.422	0.879355
371.202	2.02953
372.983	2.39394
374.764	3.33636
376.543	3.25358
378.324	4.17271
380.102	5.02691
381.881	5.48436
383.661	6.86922
385.438	7.6748
387.216	8.66514
388.993	9.45382
390.771	9.26595
392.548	10.1263
394.324	11.0586
396.101	12.4193
397.875	12.1444
399.651	12.8019
401.425	11.2692
403.201	12.2775
404.974	12.6029
406.749	14.5493
408.524	15.5146
410.296	16.1941
412.07	17.3889
413.841	17.7583
415.614	19.015
417.385	17.535
419.156	17.8472
420.928	18.193
422.698	18.9968
424.469	18.2723
426.238	17.9928
428.009	16.9995
429.777	15.383
431.548	14.2172
433.315	13.5213
435.083	12.3768
436.852	12.475
438.618	12.2162
440.387	12.3294
442.153	12.9978
443.919	11.7518
445.686	13.2419
447.451	13.2092
449.218	13.4786
450.982	13.967
452.746	14.3644
454.512	15.0247
456.275	15.9802
458.038	16.5651
459.803	18.3205
461.565	18.4564
463.327	19.4491
465.091	19.3072
466.852	20.1903
468.613	20.1523
470.374	20.9338
472.136	23.0056
473.896	23.2343
475.655	24.3504
477.415	24.7442
479.176	25.2254
480.934	26.366
482.692	27.9661
484.45	29.9829
486.21	29.4663
487.967	30.2731
489.724	30.6776
491.481	32.3676
493.237	34.0519
494.995	35.8018
496.75	35.3873
498.506	36.0761
500.26	36.7131
502.015	36.4827
503.771	37.4365
505.525	37.8087
507.279	38.6121
509.032	38.9971
510.785	40.1343
512.537	40.5803
514.289	40.4226
516.041	40.8708
517.793	40.7766
519.546	40.903
521.297	41.3259
523.047	42.0445
524.797	42.3392
526.547	41.9706
528.297	42.3679
530.046	41.2324
531.795	40.3397
533.543	41.475
535.291	41.0003
537.039	40.3806
538.787	39.798
540.534	37.9327
542.281	37.0947
544.027	35.9949
545.773	33.9169
547.519	32.866
549.264	30.6864
551.01	28.9986
552.754	27.2568
554.499	25.9797
556.243	24.4939
557.987	23.0266
559.73	22.2164
561.474	19.934
563.216	17.0793
564.959	15.652
566.701	14.0568
568.441	12.1032
570.182	10.3666
571.923	6.86341
573.664	4.04096
575.405	3.64856
577.145	2.98169
578.885	2.53589
580.624	1.95772
582.361	1.93258
584.1	1.20171
585.839	1.00073
587.577	1.26168
589.315	1.34196
591.052	2.72718
592.787	2.79981
594.524	2.44396
596.26	3.65175
597.997	3.9069
599.732	3.82706
601.466	3.04929
603.201	3.75278
604.936	5.34208
606.67	6.82769
608.403	6.43779
610.136	7.41055
611.87	9.03796
613.603	9.50182
615.334	9.85179
617.067	9.8285
618.799	11.9245
620.529	12.8707
622.26	13.014
623.991	13.6875
625.72	13.1373
627.451	13.9518
629.181	14.4267
630.909	15.6567
632.638	16.0736
634.368	17.0296
636.095	17.0358
637.823	17.4571
639.551	18.303
641.277	18.9517
643.005	18.2101
644.73	18.3177
646.457	19.1563
648.184	19.9258
649.908	18.876
651.634	18.1586
653.357	18.5376
655.083	18.8827
656.806	19.0062
658.53	18.4171
660.253	20.2611
661.977	21.2217
663.7	22.8695
665.422	23.4341
667.145	23.7703
668.865	24.9866
670.588	25.0203
672.308	24.642
674.027	25.6718
675.749	27.1058
677.468	27.5627
679.188	27.3793
680.907	27.7009
682.627	29.1695
684.345	30.1918
686.064	32.178
687.781	32.9571
689.498	34.9163
691.216	35.7738
692.932	35.8065
694.65	36.2124
696.366	37.8026
698.081	39.2053
699.797	39.0049
701.512	40.6479
703.228	42.3556
704.942	43.3455
706.655	43.6761
708.371	44.3346
710.083	44.5573
711.796	44.715
713.51	45.1271
715.222	44.9428
716.934	45.5444
718.645	45.2107
720.358	46.2928
722.068	46.9641
723.779	47.5166
725.49	47.2442
727.2	46.4391
728.909	45.7009
730.618	46.5167
732.329	45.7604
734.037	46.4674
735.745	45.2179
737.453	46.3413
739.16	48.765
740.869	47.9869
742.576	47.6222
744.282	47.9894
745.988	49.3923
747.694	49.986
749.401	50.6693
751.107	50.7816
752.811	51.3795
754.516	53.3545
756.22	53.4311
757.924	54.5614
759.627	56.2468
761.332	57.8543
763.035	59.2217
764.738	61.0381
766.44	62.5996
768.142	64.2957
769.843	65.4598
771.544	65.6379
773.245	66.5902
774.946	68.5073
776.646	70.8126
778.346	72.3399
780.046	74.4857
781.745	75.6452
783.444	77.4325
785.143	79.56
786.841	81.712
788.539	83.3676
790.237	83.9152
791.934	85.7444
793.631	86.1199
795.328	87.0078
797.024	88.8877
798.72	90.1672
800.416	92.0124
802.112	93.7314
803.807	95.5099
805.502	96.4436
807.196	96.416
808.89	95.6497
810.584	94.7652
812.278	95.7843
813.971	94.9538
815.664	94.7625
817.354	94.8118
819.047	95.4185
820.739	94.1159
822.43	93.2231
824.122	91.7664
825.813	89.5266
827.503	89.0585
829.192	87.8751
830.882	87.2326
832.571	85.5728
834.261	84.9059
835.95	84.0837
837.637	83.3396
839.325	82.536
841.013	81.0851
842.701	79.3278
844.389	77.7334
846.074	76.47
847.761	74.9258
849.447	71.5024
851.131	69.5814
852.817	69.6429
854.503	68.5433
856.188	67.4609
857.871	66.7501
859.556	66.1808
861.24	64.6772
862.922	63.7665
864.606	62.6023
866.289	62.2886
867.97	62.759
869.653	62.7436
871.336	61.8908
873.016	60.8436
874.698	60.2062
876.379	60.4734
878.058	60.7604
879.739	61.6685
881.418	62.6699
883.098	63.4384
884.778	64.3149
886.456	64.5237
888.135	65.0011
889.812	64.4851
891.49	64.7875
893.167	64.1822
894.845	64.1096
896.523	64.9715
898.198	64.1657
899.875	64.9014
901.55	64.2005
903.226	63.4597
904.901	63.0539
906.576	62.9889
908.25	63.184
909.925	63.5529
911.598	63.6902
913.271	63.9102
914.945	64.6803
916.617	64.8132
918.291	66.1599
919.962	64.3965
921.635	64.1329
923.306	64.014
924.978	62.9127
926.648	61.3485
928.318	60.9896
929.989	59.2455
931.659	57.9834
933.328	57.473
934.998	58.5749
936.666	57.8014
938.336	55.6406
940.004	54.4503
941.671	53.2574
943.34	52.0189
945.007	50.0578
946.673	50.9345
948.339	48.7693
950.007	50.0137
951.672	49.391
953.337	48.987
955.004	48.1289
956.669	46.3576
958.333	46.4314
959.997	46.4173
961.662	46.2374
963.326	46.4814
964.989	46.3184
966.651	47.4602
968.315	47.1781
969.977	46.7207
971.639	46.7653
973.301	46.5637
974.962	47.3429
976.624	46.2965
978.285	46.0661
979.945	45.7791
981.605	45.6991
983.264	45.8918
984.924	45.085
986.583	46.4246
988.243	47.482
989.901	47.612
991.56	47.4698
993.217	48.0423
994.875	48.5645
996.532	47.8758
998.188	46.1612
999.845	44.7502
1001.5	43.0702
1003.16	40.5184
1004.81	42.011
1006.47	43.2276
1008.12	45.4618
1009.78	49.3962
1011.43	54.4358
1013.09	59.7998
1014.74	65.3058
1016.39	71.0584
1018.05	76.0563
1019.7	79.9652
1021.35	84.5823
1023	88.9733
1024.65	92.2746
1026.31	94.9719
1027.96	98.9501
1029.61	103.192
1031.26	104.502
1032.91	108.649
1034.56	109.312
1036.21	109.767
1037.86	109.947
1039.51	110.028
1041.16	110.571
1042.8	110.571
1044.45	110.446
1046.1	110.1
1047.75	109.265
1049.39	107.864
1051.04	104.735
1052.69	101.17
1054.33	99.3679
1055.98	96.0361
1057.62	92.8291
1059.27	88.9285
1060.91	85.4992
1062.56	81.5056
1064.2	77.2983
1065.85	72.6912
1067.49	67.1409
1069.13	63.6996
1070.77	58.0804
1072.42	52.2481
1074.06	47.2604
1075.7	42.6357
1077.34	37.8621
1078.98	32.9425
1080.62	30.235
1082.27	28.1966
1083.91	28.0442
1085.55	29.152
1087.18	32.4981
1088.82	35.0656
1090.46	38.4788
1092.1	39.9997
1093.74	41.8626
1095.38	42.9338
1097.02	44.2399
1098.65	45.5437
1100.29	46.9388
1101.93	46.9318
1103.56	48.1037
1105.2	48.8816
1106.84	48.4933
1108.47	48.7678
1110.11	49.3953
1111.74	50.0605
1113.38	49.8274
1115.01	49.3428
1116.64	48.7613
1118.28	48.2224
1119.91	47.5155
1121.54	46.3778
1123.18	46.5468
1124.81	47.222
1126.44	46.88
1128.07	45.5138
1129.7	44.5682
1131.33	43.8368
1132.97	42.8287
1134.6	42.2347
1136.23	42.3685
1137.86	41.0973
1139.49	41.3714
1141.11	39.1595
1142.74	37.4457
1144.37	35.9038
1146	33.1872
1147.63	30.8669
1149.26	28.7171
1150.88	27.9085
1152.51	25.7598
1154.14	24.0584
1155.76	22.6692
1157.39	21.9505
1159.01	21.2171
1160.64	20.8169
1162.27	20.8702
1163.89	19.5143
1165.51	18.7929
1167.14	17.1089
1168.76	15.3515
1170.39	14.3603
1172.01	12.9499
1173.63	11.6202
1175.25	11.9933
1176.88	12.0762
1178.5	12.8876
1180.12	12.3131
1181.74	12.3448
1183.36	11.7213
1184.98	12.43
1186.6	11.5346
1188.22	11.0933
1189.84	11.4824
1191.46	10.9987
1193.08	12.1108
1194.7	13.379
1196.32	14.5463
1197.94	17.285
1199.55	18.076
1201.17	18.8384
1202.79	21.4461
1204.41	23.7299
1206.02	25.6757
1207.64	27.0716
1209.25	28.1518
1210.87	31.5306
1212.48	35.604
1214.1	37.3006
1215.71	39.6912
1217.33	41.337
1218.94	42.9215
1220.56	44.8727
1222.17	46.3746
1223.79	49.6409
1225.4	52.3527
1227.01	54.0725
1228.62	56.915
1230.23	60.4552
1231.85	63.8
1233.46	64.9356
1235.07	66.5399
1236.68	68.4647
1238.29	70.881
1239.9	73.1058
1241.51	74.9864
1243.12	76.7154
1244.73	77.4824
1246.34	78.3668
1247.94	80.2121
1249.55	81.545
1251.16	83.3535
1252.77	84.7346
1254.37	86.8789
1255.98	88.4887
1257.59	89.0271
1259.2	90.5204
1260.8	91.2634
1262.41	92.2674
1264.01	93.4347
1265.62	95.2273
1267.22	95.4873
1268.83	97.2412
1270.43	98.7451
1272.03	100.6
1273.64	103.888
1275.24	105.464
1276.85	106.061
1278.45	106.935
1280.05	108.11
1281.65	108.707
1283.25	111.332
1284.85	112.588
1286.46	114.752
1288.06	116.515
1289.66	117.947
1291.26	120.181
1292.86	122.007
1294.46	122.521
1296.06	123.974
1297.66	125.258
1299.25	126.793
1300.85	128.251
1302.45	129.673
1304.05	129.881
1305.65	129.459
1307.24	129.809
1308.84	131.024
1310.43	130.746
1312.03	131.007
1313.63	129.889
1315.22	129.544
1316.82	130.04
1318.41	130.271
1320.01	130.334
1321.6	130.062
1323.2	129.668
1324.79	128.596
1326.38	127.142
1327.98	126.535
1329.57	124.098
1331.16	124.252
1332.76	123.911
1334.35	122.658
1335.94	121.505
1337.53	119.306
1339.12	118.984
1340.71	116.807
1342.3	114.599
1343.89	112.639
1345.48	110.814
1347.07	109.634
1348.66	108.047
1350.25	106.525
1351.84	105.235
1353.43	103.457
1355.01	101.216
1356.6	99.201
1358.19	97.9994
1359.77	96.3929
1361.36	93.9419
1362.95	93.2142
1364.53	91.795
1366.12	90.1962
1367.71	89.1445
1369.29	88.3308
1370.88	86.6152
1372.46	84.2394
1374.04	81.0372
1375.63	78.4826
1377.21	76.6703
1378.8	75.285
1380.38	74.1204
1381.96	71.5997
1383.54	70.1472
1385.13	69.87
1386.71	70.5142
1388.29	70.2267
1389.87	68.3258
1391.45	68.3243
1393.03	65.6834
1394.61	63.8137
1396.19	62.6555
1397.77	61.8449
1399.35	61.133
1400.93	60.813
1402.51	59.3108
1404.09	59.1504
1405.67	58.2417
1407.24	58.5447
1408.82	59.2332
1410.4	61.4586
1411.98	60.5197
1413.55	61.4616
1415.13	63.3767
1416.71	64.5343
1418.28	67.5652
1419.86	69.5641
1421.43	72.786
1423.01	76.8796
1424.58	81.2092
1426.16	85.5144
1427.73	89.2097
1429.31	93.1572
1430.88	97.2851
1432.45	100.952
1434.02	104.918
1435.6	109.166
1437.17	112.994
1438.74	115.918
1440.31	119.345
1441.88	122.424
1443.45	125.673
1445.03	126.649
1446.6	128.549
1448.17	129.499
1449.74	128.119
1451.3	128.077
1452.87	128.209
1454.44	129.536
1456.01	130.899
1457.58	130.173
1459.15	128.794
1460.72	128.031
1462.28	128.675
1463.85	127.27
1465.42	126.217
1466.98	123.466
1468.55	120.493
1470.12	118.722
1471.68	115.912
1473.25	113.661
1474.81	112.197
1476.38	110.386
1477.94	106.657
1479.51	103.535
1481.07	100.088
1482.63	97.8759
1484.2	95.471
1485.76	93.924
1487.32	92.2367
1488.88	88.8702
1490.45	85.4968
1492.01	83.427
1493.57	80.7126
1495.13	77.9128
1496.69	75.8483
1498.25	73.5085
1499.81	71.537
1501.37	68.8103
1502.93	65.7177
1504.49	63.4207
1506.05	61.2486
1507.61	58.8617
1509.17	56.9883
1510.73	54.9892
1512.28	52.6141
1513.84	51.3887
1515.4	48.6568
1516.96	45.8976
1518.51	44.3863
1520.07	42.7124
1521.63	41.4548
1523.18	39.2732
1524.74	37.5563
1526.29	35.2853
1527.85	32.8121
1529.4	31.9884
1530.96	31.2063
1532.51	31.7035
1534.06	31.1823
1535.62	30.2813
1537.17	30.6649
1538.72	31.9384
1540.28	32.1586
1541.83	33.5463
1543.38	34.4614
1544.93	35.1205
1546.48	37.6755
1548.03	39.5767
1549.59	40.8377
1551.14	42.2646
1552.69	43.9652
1554.24	45.3102
1555.79	46.2482
1557.34	48.0069
1558.88	49.5245
1560.43	51.3936
1561.98	52.9453
1563.53	54.2209
1565.08	55.6145
1566.62	55.3044
1568.17	56.2856
1569.72	57.3134
1571.27	59.6337
1572.81	61.7092
1574.36	64.5563
1575.9	66.9135
1577.45	68.4071
1579	70.1178
1580.54	72.6655
1582.09	75.4351
1583.63	77.3718
1585.17	79.1299
1586.72	80.9229
1588.26	83.3368
1589.8	85.925
1591.35	88.8576
1592.89	88.9331
1594.43	89.892
1595.97	92.2276
1597.52	92.5379
1599.06	92.636
1600.6	92.3639
1602.14	91.3179
1603.68	92.0245
1605.22	92.0142
1606.76	92.5421
1608.3	93.0112
1609.84	94.0418
1611.38	94.2152
1612.92	95.1734
1614.46	95.9738
1615.99	96.801
1617.53	98.6656
1619.07	101.097
1620.61	102.794
1622.14	104.852
1623.68	107.266
1625.22	109.238
1626.75	111.571
1628.29	112.775
1629.82	114.263
1631.36	116.538
1632.9	117.144
1634.43	119.803
1635.96	122.436
1637.5	125.173
1639.03	128.215
1640.57	131.188
1642.1	134.2
1643.63	135.804
1645.16	139.604
1646.7	142.666
1648.23	145.264
1649.76	147.809
1651.29	149.802
1652.82	150.404
1654.36	149.515
1655.89	150.246
1657.42	149.965
1658.95	149.054
1660.48	148.663
1662.01	147.535
1663.53	146.627
1665.06	145.323
1666.59	142.712
1668.12	138.79
1669.65	134.889
1671.18	131.114
1672.7	128.005
1674.23	122.886
1675.76	118.711
1677.29	114.252
1678.81	109.311
1680.34	104.41
1681.86	99.2028
1683.39	94.9774
1684.91	90.4509
1686.44	86.0338
1687.96	80.5756
1689.49	74.6498
1691.01	69.7652
1692.54	65.8666
1694.06	61.8366
1695.58	57.2465
1697.11	53.8279
1698.63	50.5625
1700.15	46.9423
1701.67	44.2337
1703.2	40.9743
1704.72	37.7379
1706.24	35.4217
1707.76	33.1081
1709.28	30.3612
1710.8	29.7908
1712.32	28.3117
1713.84	26.8731
1715.36	26.272
1716.88	24.9661
1718.4	23.7123
1719.91	21.9416
1721.43	21.9082
1722.95	20.52
1724.47	19.7094
1725.99	19.0679
1727.5	18.3013
1729.02	17.3514
1730.54	16.0647
1732.05	16.8076
1733.57	16.2535
1735.09	16.1214
1736.6	15.8813
1738.12	14.7986
1739.63	14.307
1741.15	14.7933
1742.66	13.608
1744.18	13.3183
1745.69	12.8839
1747.2	12.1685
1748.72	12.2152
1750.23	11.1286
1751.74	10.6347
1753.25	10.3254
1754.77	9.5421
1756.28	8.98203
1757.79	8.87811
1759.3	7.50216
1760.81	6.17662
1762.32	5.21057
1763.83	4.50386
1765.34	4.04812
1766.85	4.78961
1768.36	5.15352
1769.87	4.7506
1771.38	4.86404
1772.89	5.59886
1774.4	5.02243
1775.91	4.16712
1777.41	4.51839
1778.92	3.83408
1780.43	3.35639
1781.94	3.2349
1783.44	2.55263
1784.95	2.69616
1786.45	2.50409
1787.96	2.04933
1789.47	2.12026
1790.97	1.97493
1792.48	1.26982
1793.98	0.889234
1795.48	1.11684
1796.99	1.44887
1798.49	1.74678
1800	1.68749
1801.5	1.83703
1803	2.26158
1804.51	2.06114
1806.01	2.30602
1807.51	2.49595
1809.01	2.26896
1810.51	2.48619
1812.02	2.27232
1813.52	2.77755
1815.02	3.90066
1816.52	4.68498
1818.02	4.13644
1819.52	4.67831
1821.02	4.25392
1822.52	4.50434
1824.02	4.90566
1825.51	4.76595
1827.01	4.44411
1828.51	4.65034
1830.01	4.05532
1831.51	4.2826
1833	4.54455
1834.5	4.42132
1836	5.31088
1837.5	6.47423
1838.99	6.71647
1840.49	7.11244
1841.98	7.13278
1843.48	7.29767
1844.97	7.2259
1846.47	7.16705
1847.96	7.83621
1849.46	6.82063
1850.95	5.86123
1852.45	5.18983
1853.94	4.22138
1855.43	3.87161
1856.92	3.06204
1858.42	2.40054
1859.91	3.22761
1861.4	2.50022
1862.89	2.67053
1864.39	2.98529
1865.88	2.62481
1867.37	3.02453
1868.86	3.21783
1870.35	3.03462
1871.84	2.88081
1873.33	2.48729
1874.82	2.16141
1876.31	1.58217
1877.8	1.92247
1879.29	2.47823
1880.77	3.32528
1882.26	3.56971
1882.51	4.14603
1884	4.1665
1885.5	3.85036
1886.99	4.14771
1888.48	4.20934
1889.98	4.31027
1891.47	4.74176
1892.97	4.55035
1894.46	3.90126
1895.95	4.91505
1897.44	4.66056
1898.93	4.20442
1900.42	5.27655
1901.92	5.92753
1903.41	5.84766
1904.9	5.97714
1906.39	6.48236
1907.88	6.93983
1909.37	7.30643
1910.86	8.0203
1912.35	7.30146
1913.84	7.48649
1915.32	6.91639
1916.81	6.25101
1918.3	6.30973
1919.79	6.28397
1921.28	6.25785
1922.76	5.41775
1924.25	6.04687
1925.74	6.13333
1927.22	6.95377
1928.71	8.25398
1930.2	7.86342
1931.68	8.54512
1933.17	8.53125
1934.65	8.1777
1936.14	8.54765
1937.62	8.66274
1939.11	7.93896
1940.59	7.2945
1942.08	6.66361
1943.56	6.50847
1945.04	7.22914
1946.53	7.25417
1948.01	7.72296
1949.49	7.49712
1950.97	8.34447
1952.45	8.11954
1953.94	7.26158
1955.42	6.09416
1956.9	5.31262
1958.38	3.95636
1959.86	3.86195
1961.34	4.37069
1962.82	4.43655
1964.3	4.7646
1965.78	4.32826
1967.26	3.5483
1968.74	3.85414
1970.22	4.72877
1971.69	3.81053
1973.17	4.14071
1974.65	4.13177
1976.13	3.82681
1977.61	4.14934
1979.08	5.17016
1980.56	5.76129
1982.03	5.72273
1983.51	6.0892
1984.99	6.2656
1986.46	6.07199
1987.94	6.8144
1989.41	6.99317
1990.89	7.43749
1992.36	8.51623
1993.84	9.01503
1995.31	9.31661
1996.78	9.01928
1998.26	9.44508
1999.73	9.38764
2001.2	10.0569
2002.68	9.71484
2004.15	9.48175
2005.62	9.83126
2007.09	10.3565
2008.56	11.3165
2010.04	11.3004
2011.51	10.7625
2012.98	10.3263
2014.45	10.8547
2015.92	12.5233
2017.39	12.7119
2018.86	12.8827
2020.33	12.2816
2021.8	12.2925
2023.27	11.5703
2024.74	11.6044
2026.2	11.1828
2027.67	10.7827
2029.14	11.6839
2030.61	12.2713
2032.07	13.0049
2033.54	13.9407
2035.01	15.247
2036.47	15.548
2037.94	16.5798
2039.41	16.8213
2040.87	17.3546
2042.34	17.8886
2043.8	18.759
2045.27	19.2696
2046.73	20.5721
2048.2	21.5027
2049.66	22.4034
2051.12	22.504
2052.59	22.6616
2054.05	22.421
2055.51	23.0705
2056.98	23.3387
2058.44	22.7097
2059.9	22.9899
2061.36	22.9643
2062.82	23.3619
2064.29	23.7593
2065.75	24.513
2067.21	24.9155
2068.67	25.0503
2070.13	25.4982
2071.59	26.0689
2073.05	26.6169
2074.51	26.7448
2075.97	28.501
2077.43	30.7577
2078.88	31.3424
2080.34	32.6784
2081.8	33.0438
2083.26	33.9287
2084.72	34.9968
2086.17	35.851
2087.63	37.9097
2089.09	40.13
2090.54	40.4007
2092	41.794
2093.46	42.9011
2094.91	44.1433
2096.37	44.5666
2097.82	45.8587
2099.28	46.3919
2100.73	47.7581
2102.19	49.9001
2103.64	51.3311
2105.09	52.7586
2106.55	54.363
2108	56.9178
2109.46	58.0055
2110.91	59.0796
2112.36	60.2508
2113.81	61.8285
2115.27	63.6478
2116.72	66.244
2118.17	68.8708
2119.62	70.3542
2121.07	72.5269
2122.52	74.7828
2123.97	77.4348
2125.42	80.1868
2126.87	82.8197
2128.32	85.6464
2129.77	88.1413
2131.22	91.5006
