#Acq. time (s)=	45
#Accumulations=	2
#Range (cm-¹)=	200...3150
#Windows=	2
#Auto scanning=	Off
#Autofocus=	Off
#Macrospot=	Off
#AutoExposure=	Off
#Spike filter=	Multiple accum.
#Delay time (s)=	0
#Binning=	1
#Readout mode=	Signal
#DeNoise=	Off
#ICS correction=	On
#Dark correction=	Off
#Inst. Process=	Off
#Detector Gain=	Best Dynamic Range
#Detector ADC=	20 kHz       
#Detector temperature (°C)=	-69.85
#Instrument=	LabRAM HR Evol
#Detector=	Synapse
#Objective=	x100
#Grating=	600 gr/mm
#ND Filter=	100%
#Laser (nm)=	532 
#Hole=	100.021
#Range=	Auto
#Laser Pol.=	No
#Raman. Pol.=	No
#Laser Pol. (°)=	-0.0007625
#Raman Pol. (°)=	89.9995
#Collection=	Microscope
#StageXY=	Marzhauser
#StageZ=	Marzhauser
#X (µm)=	-6402.9
#Y (µm)=	781.5
#Z (µm)=	-64.6
#Full time(mm:ss)=	3:18
#Project=	
#Sample=	
#Site=	
#Title=	Mb_30_27_45_2x_45s_532 nm_x100_100%_600 gr_mm
#Remark=	
#Date=	13.07.2022 12:09
#Acquired=	13.07.2022 12:09:19
#Base:Fit=	10.08.2022 10:40:03
#Base:Sub=	10.08.2022 10:40:17
#Filter:Polynom=	16.08.2022 10:16:15
#AxisType[0]=Intens
#AxisUnit[0]=Cnt
#AxisType[1]=Spectr
#AxisUnit[1]=1/cm
200.563	-7.98069
202.377	-1.79171
204.194	-0.275832
206.008	1.73988
207.821	3.62049
209.634	4.9371
211.449	6.39901
213.262	7.42429
215.074	7.57429
216.885	4.72608
218.699	2.85102
220.51	1.42716
222.321	2.54582
224.131	4.26599
225.941	6.83434
227.751	8.94064
229.562	10.0201
231.371	11.1022
233.18	12.9746
234.988	13.1109
236.796	14.431
238.603	16.162
240.411	17.5173
242.219	18.7079
244.026	18.9342
245.832	19.5658
247.638	20.3453
249.443	20.8708
251.248	20.5683
253.053	22.0188
254.857	21.0848
256.661	21.5532
258.465	21.6078
260.268	21.6468
262.071	21.1006
263.874	20.5744
265.678	20.0143
267.48	18.7291
269.282	18.5613
271.083	16.6971
272.884	15.6346
274.684	14.9312
276.484	15.3124
278.284	15.7091
280.084	15.9221
281.883	15.7149
283.682	14.6238
285.48	13.0104
287.276	12.7183
289.074	11.7959
290.871	11.226
292.668	9.54853
294.465	10.4368
296.261	9.20304
298.057	8.11872
299.853	8.33285
301.648	7.24753
303.443	5.62121
305.237	4.69216
307.032	4.74407
308.823	7.97568
310.617	10.063
312.41	12.228
314.203	12.8947
315.995	13.2348
317.788	13.5423
319.579	13.5525
321.369	14.665
323.16	15.4149
324.951	15.8793
326.741	17.6809
328.531	18.1542
330.321	18.5509
332.108	18.6326
333.897	18.8485
335.686	19.6852
337.474	19.5386
339.26	19.7491
341.048	18.8248
342.835	18.6958
344.622	18.6991
346.406	20.2915
348.192	19.0042
349.978	18.5077
351.764	17.1627
353.547	16.4885
355.332	15.2698
357.116	13.9396
358.901	13.9517
360.682	13.8515
362.466	14.386
364.249	14.1083
366.03	14.7853
367.812	14.4293
369.594	15.0974
371.374	14.9339
373.155	15.1504
374.936	15.2984
376.715	16.4917
378.495	16.6271
380.273	17.9976
382.053	18.6145
383.832	19.2202
385.609	18.9955
387.388	19.7602
389.164	20.1063
390.942	21.22
392.72	21.0189
394.495	21.5982
396.272	21.5668
398.047	21.1787
399.823	20.3744
401.597	19.7139
403.372	19.3251
405.145	19.0798
406.92	19.3104
408.693	19.2783
410.467	19.0272
412.239	19.6529
414.012	19.3221
415.783	19.1662
417.556	18.5397
419.327	18.0099
421.099	17.275
422.869	17.3389
424.64	16.8012
426.409	16.1916
428.18	16.299
429.948	15.8399
431.718	16.2935
433.486	16.3577
435.253	15.5851
437.022	14.1333
438.789	14.1108
440.558	12.5354
442.324	11.8743
444.089	10.6875
445.857	10.6701
447.622	11.164
449.386	11.2572
451.153	11.3701
452.917	11.0586
454.682	11.1506
456.446	11.2412
458.208	12.5735
459.973	12.9737
461.735	14.8064
463.497	16.2151
465.259	17.5272
467.022	19.5042
468.783	21.0616
470.544	21.8188
472.306	22.5275
474.066	22.9403
475.825	23.107
477.585	23.2701
479.346	23.9823
481.104	23.6888
482.862	24.0479
484.62	24.9078
486.38	26.4095
488.137	26.8809
489.894	27.287
491.65	28.5317
493.407	28.4889
495.164	29.2536
496.92	30.3624
498.675	30.7467
500.43	32.2135
502.184	32.0652
503.939	33.2155
505.694	33.5302
507.448	33.7969
509.201	34.0504
510.954	35.0127
512.706	35.255
514.459	35.2901
516.21	35.3578
517.962	35.6012
519.715	35.2368
521.466	34.2263
523.216	33.3582
524.966	32.5279
526.716	32.8525
528.466	31.5302
530.215	31.263
531.964	30.4454
533.712	29.6981
535.46	29.7584
537.208	29.2486
538.955	29.2781
540.703	29.4319
542.449	29.2192
544.196	29.6066
545.942	29.7679
547.688	29.2169
549.433	28.8025
551.178	27.3417
552.923	26.5012
554.667	25.3124
556.412	23.8845
558.155	23.0692
559.899	21.0495
561.642	18.408
563.385	17.5076
565.127	17.0147
566.867	16.3808
568.609	15.8257
570.35	15.7595
572.092	15.2673
573.832	14.197
575.573	13.0086
577.313	12.9155
579.053	12.1176
580.79	10.4783
582.529	10.3832
584.268	9.71235
586.006	9.01644
587.745	9.12386
589.482	8.0464
591.218	6.79648
592.955	5.33753
594.692	4.39138
596.428	3.99168
598.164	4.65927
599.898	4.85675
601.634	4.91681
603.369	4.92807
605.104	5.51961
606.836	5.76727
608.57	5.82019
610.304	6.77301
612.037	7.89369
613.769	8.01558
615.501	7.15531
617.234	7.20584
618.966	7.45024
620.696	9.03789
622.427	10.0236
624.159	9.70634
625.887	10.301
627.618	10.6093
629.348	11.2079
631.076	11.1163
632.806	11.4674
634.535	11.6009
636.262	13.1351
637.99	13.5677
639.716	14.415
641.444	15.0093
643.172	15.5774
644.897	16.4292
646.624	16.1209
648.348	16.0174
650.075	17.382
651.801	18.3669
653.524	18.8109
655.249	19.1507
656.972	19.8601
658.697	20.4208
660.419	21.559
662.143	22.5246
663.865	22.8294
665.588	22.6419
667.309	22.4336
669.032	22.563
670.752	23.2747
672.474	23.416
674.194	23.2994
675.915	23.0738
677.634	23.7564
679.355	24.1828
681.073	25.8785
682.793	27.178
684.511	28.2615
686.23	28.9485
687.947	30.0282
689.664	30.5583
691.382	31.3908
693.098	32.0694
694.816	32.8317
696.531	33.8919
698.247	34.9049
699.963	35.5044
701.678	36.8634
703.392	36.5911
705.108	37.5392
706.821	38.5826
708.534	38.9671
710.249	39.8925
711.962	41.6123
713.674	43.4578
715.388	43.5399
717.099	44.7577
718.81	46.0846
720.523	46.6282
722.234	46.7754
723.944	46.2694
725.654	46.187
727.365	45.8664
729.075	45.8087
730.784	46.3346
732.492	46.0968
734.202	46.2731
735.91	47.6067
737.618	47.4438
739.325	47.8734
741.034	48.2821
742.741	49.3973
744.447	50.1608
746.153	50.6145
747.859	51.3159
749.564	51.7252
751.271	51.7293
752.976	52.7091
754.681	54.2807
756.385	55.179
758.088	54.7844
759.792	56.1241
761.495	57.3658
763.2	57.9909
764.902	59.3083
766.604	60.8413
768.306	62.1654
770.008	63.5458
771.709	65.0096
773.41	67.2298
775.11	67.8222
776.811	69.1716
778.51	70.5235
780.21	71.8615
781.909	73.0916
783.608	74.5635
785.307	75.4843
787.005	76.4958
788.703	77.0889
790.401	79.4772
792.098	80.2574
793.795	81.2714
795.492	81.5592
797.188	81.9686
798.884	82.3679
800.58	82.6086
802.276	83.3996
803.971	82.8922
805.665	82.348
807.36	81.5721
809.054	81.9852
810.748	81.7465
812.441	82.0093
814.135	82.3692
815.826	82.7471
817.518	82.7641
819.21	82.8087
820.902	82.6572
822.594	81.9416
824.285	82.5338
825.976	81.3402
827.665	80.8864
829.355	79.9461
831.045	79.2949
832.735	78.522
834.424	76.6718
836.111	75.3404
837.8	75.3451
839.488	74.1786
841.177	72.3242
842.864	71.7767
844.55	70.9337
846.237	69.1786
847.924	68.4814
849.61	68.7214
851.295	67.2824
852.98	66.4255
854.666	65.8724
856.349	63.8394
858.034	62.6379
859.719	60.5889
861.403	59.568
863.085	58.3522
864.769	57.8675
866.452	56.677
868.133	56.4813
869.816	55.358
871.498	54.5147
873.179	53.7149
874.86	52.168
876.54	51.6705
878.221	50.6372
879.902	49.9845
881.58	49.1792
883.26	49.61
884.938	49.6554
886.618	48.3122
888.297	47.9896
889.974	47.0149
891.653	46.9989
893.329	47.3937
895.007	47.2184
896.683	47.47
898.36	47.2686
900.035	47.4855
901.712	47.8378
903.387	47.9995
905.063	48.1193
906.737	48.101
908.412	47.7292
910.085	47.3132
911.76	47.3937
913.433	47.6992
915.107	47.9495
916.779	47.4212
918.452	47.6814
920.124	48.8753
921.797	49.9765
923.467	50.2734
925.138	50.0329
926.81	49.7736
928.48	49.0219
930.151	49.1998
931.82	49.7514
933.489	49.8843
935.16	49.0467
936.828	48.5995
938.496	48.5408
940.165	47.6206
941.833	48.2269
943.5	48.0361
945.168	48.4898
946.834	48.016
948.5	47.5734
950.168	47.7327
951.834	47.9487
953.499	47.3221
955.163	47.6591
956.83	47.7698
958.494	46.6298
960.158	46.391
961.821	46.0336
963.487	46.4432
965.15	46.5645
966.812	47.7616
968.474	47.8989
970.138	47.741
971.8	48.4835
973.461	48.633
975.123	49.5527
976.783	49.9278
978.446	50.6093
980.106	50.7162
981.766	50.3615
983.425	51.3369
985.084	52.0829
986.743	52.0451
988.402	52.7922
990.06	51.8721
991.72	51.3333
993.378	50.6457
995.035	49.8097
996.692	49.3508
998.349	49.0203
1000.01	48.0577
1001.66	48.0551
1003.32	47.1788
1004.97	46.4902
1006.63	46.3968
1008.28	45.8281
1009.94	46.5905
1011.59	47.7047
1013.25	48.6459
1014.9	49.5937
1016.55	49.8602
1018.21	49.8652
1019.86	49.4762
1021.51	50.5848
1023.16	51.3616
1024.81	50.8732
1026.47	50.8504
1028.12	51.0703
1029.77	51.0439
1031.42	51.0728
1033.07	51.0857
1034.72	50.4645
1036.37	50.5982
1038.02	49.8845
1039.67	49.3003
1041.31	47.644
1042.96	47.8113
1044.61	48.0587
1046.26	48.044
1047.91	47.4049
1049.55	47.02
1051.2	45.7981
1052.84	44.4262
1054.49	42.8184
1056.14	41.2603
1057.78	40.1345
1059.43	39.1041
1061.07	37.4719
1062.72	35.633
1064.36	34.1515
1066	33.1462
1067.65	30.9721
1069.29	29.1388
1070.93	28.0681
1072.58	25.0825
1074.22	23.4608
1075.86	21.7901
1077.5	21.0467
1079.14	20.1001
1080.78	19.5423
1082.42	18.1147
1084.06	17.878
1085.7	18.1716
1087.34	18.8867
1088.98	19.9052
1090.62	19.7318
1092.26	20.0229
1093.9	20.0331
1095.54	20.4705
1097.17	19.3886
1098.81	19.7191
1100.45	20.737
1102.09	20.326
1103.72	20.7582
1105.36	20.0137
1106.99	19.0107
1108.63	19.9848
1110.27	20.0293
1111.9	20.0173
1113.53	19.8067
1115.17	19.9009
1116.8	19.8385
1118.43	19.2489
1120.07	18.6672
1121.7	17.9745
1123.33	17.2562
1124.97	18.027
1126.6	17.1281
1128.23	16.7957
1129.86	15.8746
1131.49	15.5431
1133.12	14.5317
1134.75	13.576
1136.38	12.8835
1138.01	12.3534
1139.64	11.7267
1141.27	11.4539
1142.9	10.7825
1144.53	10.1733
1146.16	9.2662
1147.78	7.77279
1149.41	7.39499
1151.04	7.54587
1152.67	7.18561
1154.29	5.60311
1155.92	5.72506
1157.54	4.55136
1159.17	3.55142
1160.8	3.28649
1162.42	2.53068
1164.05	1.04797
1165.67	0.716852
1167.29	0.799927
1168.92	1.07407
1170.54	0.620601
1172.16	0.614402
1173.79	0.659594
1175.41	1.30378
1177.03	1.8188
1178.65	1.90054
1180.28	3.51316
1181.9	2.57779
1183.52	2.33617
1185.14	2.89018
1186.76	3.00356
1188.38	3.34288
1190	5.00247
1191.62	5.27415
1193.24	7.08955
1194.86	8.5655
1196.47	8.94012
1198.09	9.6941
1199.71	11.1467
1201.33	12.5742
1202.95	13.8693
1204.56	16.3623
1206.18	17.8488
1207.8	19.8376
1209.41	22.0576
1211.03	23.1149
1212.64	24.2669
1214.26	25.9242
1215.87	27.3755
1217.49	29.6657
1219.1	31.7594
1220.71	34.4732
1222.33	36.4719
1223.94	38.5984
1225.55	40.1627
1227.16	41.3903
1228.78	42.9561
1230.39	45.5195
1232	47.1594
1233.61	48.5542
1235.22	49.2168
1236.83	49.7314
1238.44	50.9924
1240.05	53.4777
1241.66	55.6475
1243.27	56.6385
1244.88	57.895
1246.49	59.5657
1248.1	60.4058
1249.71	62.2311
1251.32	62.3837
1252.92	63.499
1254.53	62.9176
1256.14	63.3696
1257.74	63.9083
1259.35	63.8318
1260.96	63.8352
1262.56	62.8701
1264.17	64
1265.77	64.1607
1267.38	64.3211
1268.98	64.3817
1270.59	66.094
1272.19	66.3387
1273.79	67.1648
1275.4	67.2518
1277	67.1699
1278.6	68.6629
1280.21	68.803
1281.81	69.4898
1283.41	70.3707
1285.01	71.342
1286.61	71.8354
1288.21	72.8365
1289.81	71.6456
1291.41	71.9107
1293.01	72.97
1294.61	74.4152
1296.21	74.8352
1297.81	75.9206
1299.41	76.0366
1301.01	76.4087
1302.6	76.158
1304.2	76.945
1305.8	76.4247
1307.4	76.2133
1308.99	76.3051
1310.59	76.8252
1312.19	77.5477
1313.78	78.6912
1315.38	78.5489
1316.97	79.7668
1318.57	81.05
1320.16	80.4875
1321.76	80.3292
1323.35	79.5928
1324.94	79.1782
1326.54	78.6063
1328.13	78.7827
1329.72	78.7565
1331.32	77.0501
1332.91	76.2799
1334.5	74.683
1336.09	74.2394
1337.68	73.4609
1339.27	72.695
1340.87	71.5612
1342.45	70.4343
1344.04	69.6652
1345.64	68.005
1347.22	66.7729
1348.81	65.1013
1350.4	63.8942
1351.99	62.3317
1353.58	60.6015
1355.17	59.9008
1356.75	58.4019
1358.34	57.0048
1359.93	55.6845
1361.51	54.941
1363.1	53.0484
1364.69	51.2437
1366.27	49.1015
1367.86	46.8853
1369.44	45.315
1371.03	43.852
1372.61	42.6646
1374.2	41.4758
1375.78	39.5568
1377.37	37.836
1378.95	36.3262
1380.53	35.0558
1382.11	33.9533
1383.7	32.8936
1385.28	31.6037
1386.86	31.3912
1388.44	31.0221
1390.02	31.8778
1391.6	32.6543
1393.19	32.6062
1394.77	31.9541
1396.35	31.7086
1397.93	30.2151
1399.51	29.8188
1401.08	29.8953
1402.66	29.1117
1404.24	29.4359
1405.82	29.891
1407.4	30.8355
1408.97	30.7646
1410.55	31.7622
1412.13	33.0145
1413.71	34.4961
1415.28	36.1389
1416.86	37.5161
1418.43	38.8855
1420.01	40.2241
1421.59	42.6318
1423.16	44.3579
1424.73	46.8938
1426.31	49.3933
1427.88	51.1982
1429.46	53.5089
1431.03	56.7973
1432.6	59.1458
1434.18	61.5061
1435.75	63.703
1437.32	65.5967
1438.89	67.0353
1440.46	68.4808
1442.04	69.2993
1443.61	70.0746
1445.18	70.7425
1446.75	70.909
1448.32	72.0243
1449.89	71.2033
1451.46	70.9289
1453.03	70.0778
1454.6	68.7642
1456.16	67.9153
1457.73	67.3801
1459.3	67.2043
1460.87	66.7424
1462.44	65.4862
1464	64.4935
1465.57	63.8631
1467.14	63.19
1468.7	62.1844
1470.27	60.5826
1471.83	57.6977
1473.4	56.3394
1474.96	54.037
1476.53	51.5642
1478.09	49.9903
1479.66	47.5673
1481.22	45.3741
1482.78	44.3655
1484.35	43.2135
1485.91	41.8012
1487.47	40.2645
1489.04	38.4262
1490.6	36.2735
1492.16	34.7815
1493.72	33.7268
1495.28	32.8774
1496.84	32.5065
1498.4	32.5274
1499.96	32.0158
1501.52	31.5963
1503.08	31.3395
1504.64	31.0425
1506.2	30.6964
1507.76	30.4961
1509.32	30.2134
1510.88	29.5018
1512.44	28.4653
1513.99	28.1362
1515.55	26.7374
1517.11	25.7313
1518.66	25.5738
1520.22	24.2231
1521.78	23.847
1523.33	23.5278
1524.89	23.3224
1526.44	22.6783
1528	21.879
1529.55	21.6327
1531.11	21.9545
1532.66	22.3144
1534.21	22.3191
1535.77	21.5744
1537.32	22.2723
1538.87	22.88
1540.43	23.4382
1541.98	23.8813
1543.53	24.8013
1545.08	25.0777
1546.63	25.5103
1548.18	26.2149
1549.74	27.0711
1551.29	28.4702
1552.84	28.7123
1554.39	29.0888
1555.94	29.5504
1557.48	30.0102
1559.03	30.7439
1560.58	31.9425
1562.13	32.1577
1563.68	32.692
1565.23	33.6296
1566.78	34.1921
1568.32	35.0975
1569.87	37.2463
1571.42	39.0797
1572.96	40.8667
1574.51	42.1333
1576.05	44.0974
1577.6	45.1525
1579.14	46.5912
1580.69	47.7245
1582.24	48.9294
1583.78	50.1003
1585.32	51.9756
1586.87	53.2277
1588.41	54.3546
1589.95	55.5128
1591.5	56.6054
1593.04	58.114
1594.58	58.871
1596.12	60.0349
1597.67	61.0915
1599.21	61.5961
1600.75	61.5853
1602.29	61.5507
1603.83	61.4064
1605.37	61.5963
1606.91	61.116
1608.45	60.924
1609.99	60.6185
1611.53	59.684
1613.07	60.1454
1614.6	60.9682
1616.14	61.5423
1617.68	61.7131
1619.22	62.1317
1620.75	63.3551
1622.29	64.4197
1623.83	66.2155
1625.37	67.7101
1626.9	70.1844
1628.44	71.7965
1629.97	73.1485
1631.51	74.6488
1633.04	76.7853
1634.58	78.9191
1636.11	80.9181
1637.65	82.9416
1639.18	85.1622
1640.72	87.5859
1642.25	89.7024
1643.78	92.5408
1645.31	95.0256
1646.85	98.0465
1648.38	100.169
1649.91	102.521
1651.44	103.589
1652.97	105.109
1654.5	105.639
1656.03	106.06
1657.56	106.622
1659.1	106.804
1660.62	107.333
1662.15	106.735
1663.68	105.313
1665.21	105.042
1666.74	103.586
1668.27	102.064
1669.8	99.6038
1671.32	96.6937
1672.85	94.5239
1674.38	91.4611
1675.91	87.8688
1677.43	84.2743
1678.96	80.3642
1680.49	76.4423
1682.01	71.9501
1683.54	68.1877
1685.06	64.2163
1686.59	60.0744
1688.11	56.4672
1689.64	52.9069
1691.16	49.4218
1692.68	46.6915
1694.21	43.8633
1695.73	40.8721
1697.25	38.1981
1698.78	35.9696
1700.3	33.6085
1701.82	31.666
1703.34	29.9998
1704.86	28.0785
1706.39	25.4323
1707.91	22.0643
1709.43	19.5069
1710.95	18.5589
1712.47	18.2958
1713.99	18.2485
1715.51	18.2635
1717.02	18.2123
1718.54	19.286
1720.06	19.9982
1721.58	19.311
1723.1	19.172
1724.62	19.1043
1726.13	18.3283
1727.65	17.6155
1729.17	17.0028
1730.68	16.6753
1732.2	16.6298
1733.72	16.6782
1735.23	16.5722
1736.75	16.671
1738.26	16.2737
1739.78	16.2945
1741.29	16.5519
1742.81	15.6216
1744.32	15.1681
1745.84	14.6792
1747.35	14.793
1748.86	14.3122
1750.37	13.575
1751.89	12.8981
1753.4	11.6856
1754.91	11.282
1756.42	11.0863
1757.93	10.5343
1759.45	9.93376
1760.96	9.22327
1762.47	8.48146
1763.98	7.9754
1765.49	7.04994
1767	6.60938
1768.51	5.83343
1770.02	5.21422
1771.53	4.58878
1773.03	3.99141
1774.54	3.7208
1776.05	3.12314
1777.56	2.82847
1779.07	2.11422
1780.57	1.53482
1782.08	0.246073
1783.59	0.312701
1785.09	2.11423
1786.6	3.82859
1788.11	4.17412
1789.61	4.45893
1791.12	4.2067
1792.62	4.09822
1794.13	4.3806
1795.63	3.173
1797.13	2.52829
1798.64	2.29796
1800.14	1.97317
1801.65	1.77763
1803.15	2.0989
1804.65	2.29075
1806.15	2.56141
1807.66	2.06783
1809.16	1.56594
1810.66	1.1345
1812.16	1.0984
1813.66	1.0146
1815.16	1.30009
1816.66	1.41706
1818.16	1.11397
1819.66	1.18913
1821.16	1.15111
1822.66	0.789364
1824.16	0.70808
1825.66	0.682116
1827.16	0.726951
1828.66	0.667188
1830.16	1.05996
1831.65	0.625883
1833.15	0.458638
1834.65	0.909309
1836.14	1.04653
1837.64	1.18869
1839.14	1.22616
1840.63	1.30412
1842.13	1.82614
1843.62	1.70464
1845.12	1.88622
1846.61	2.27835
1848.11	2.3326
1849.6	2.85762
1851.1	2.53821
1852.59	2.53591
1854.08	2.41229
1855.58	1.82618
1857.07	1.52676
1858.56	1.56923
1860.05	1.45033
1861.55	1.63541
1863.04	1.73498
1864.53	1.93161
1866.02	1.13484
1867.51	0.896136
1869	1.29316
1870.49	1.31309
1871.98	1.57111
1873.47	1.81779
1874.96	2.20368
1876.45	2.75952
1877.94	2.66813
1879.43	2.66606
1880.92	2.21045
1882.41	2.48365
1882.51	3.22783
1884	3.13664
1885.5	3.64513
1886.99	3.50025
1888.48	3.26829
1889.98	3.10501
1891.47	3.5782
1892.96	4.56047
1894.46	4.58345
1895.95	5.36598
1897.44	5.57641
1898.93	5.46127
1900.42	5.7624
1901.91	5.65048
1903.41	5.68073
1904.9	5.50176
1906.39	5.91042
1907.88	6.18548
1909.37	5.83288
1910.86	6.1464
1912.35	6.48818
1913.83	6.59966
1915.32	6.28109
1916.81	5.69967
1918.3	5.79725
1919.79	5.67575
1921.27	5.56256
1922.76	5.26924
1924.25	4.90457
1925.74	5.57895
1927.22	5.34572
1928.71	5.31525
1930.19	5.61905
1931.68	5.9426
1933.17	4.94375
1934.65	4.19826
1936.14	3.71528
1937.62	3.77012
1939.11	3.56029
1940.59	4.41852
1942.07	4.69865
1943.56	4.69893
1945.04	4.89826
1946.52	4.87949
1948.01	5.24353
1949.49	5.45714
1950.97	5.25091
1952.45	4.92792
1953.93	4.54405
1955.42	4.71308
1956.9	3.94575
1958.38	3.43395
1959.86	3.10112
1961.34	2.87802
1962.82	3.02315
1964.3	3.10736
1965.78	3.40438
1967.26	3.76832
1968.74	3.19863
1970.21	3.07447
1971.69	2.7762
1973.17	2.79689
1974.65	2.80607
1976.13	2.76368
1977.6	2.65092
1979.08	2.25613
1980.56	2.28617
1982.03	2.4395
1983.51	2.54404
1984.99	3.27678
1986.46	3.19016
1987.94	2.29923
1989.41	2.43526
1990.89	2.94054
1992.36	3.23475
1993.84	3.87175
1995.31	3.94776
1996.78	4.89306
1998.26	5.4345
1999.73	6.04733
2001.2	5.95003
2002.68	5.73135
2004.15	5.72366
2005.62	5.65565
2007.09	4.73302
2008.56	5.40546
2010.04	6.37969
2011.51	7.04082
2012.98	7.87967
2014.45	8.23655
2015.92	7.70142
2017.39	8.15504
2018.86	8.13725
2020.33	8.13864
2021.8	8.06155
2023.26	7.83892
2024.73	7.72436
2026.2	7.21319
2027.67	6.80155
2029.14	6.94567
2030.61	6.84373
2032.07	7.26629
2033.54	7.53976
2035.01	7.16569
2036.47	7.27307
2037.94	7.48269
2039.4	7.55839
2040.87	7.6857
2042.33	7.66059
2043.8	7.83475
2045.27	8.10214
2046.73	8.05671
2048.19	7.94135
2049.66	7.93803
2051.12	7.68419
2052.59	7.73096
2054.05	7.95819
2055.51	8.69098
2056.97	9.69683
2058.44	10.1173
2059.9	9.69105
2061.36	10.3375
2062.82	11.7882
2064.28	11.6348
2065.74	12.35
2067.21	12.7591
2068.67	12.8725
2070.13	13.8427
2071.59	13.5962
2073.05	14.7618
2074.51	14.9412
2075.96	15.0422
2077.42	15.6783
2078.88	15.98
2080.34	16.8075
2081.8	17.5031
2083.26	17.8886
2084.72	18.6946
2086.17	19.2249
2087.63	19.3882
2089.09	20.2154
2090.54	21.0355
2092	21.6463
2093.45	22.1233
2094.91	22.7406
2096.37	23.0378
2097.82	23.8235
2099.28	23.8093
2100.73	24.7083
2102.19	25.557
2103.64	25.971
2105.09	27.0224
2106.55	27.4356
2108	27.4538
2109.45	28.8345
2110.91	29.8503
2112.36	30.8973
2113.81	32.2742
2115.26	33.7734
2116.72	34.0239
2118.17	35.2644
2119.62	36.3896
2121.07	37.3921
2122.52	38.9351
2123.97	40.858
2125.42	42.483
2126.87	44.6843
2128.32	47.1926
2129.77	48.6834
2131.22	49.6835
2132.67	51.8485
2134.11	53.8727
2135.56	55.5199
2137.01	56.6972
