#Acq. time (s)=	45
#Accumulations=	2
#Range (cm-¹)=	200...3150
#Windows=	2
#Auto scanning=	Off
#Autofocus=	Off
#Macrospot=	Off
#AutoExposure=	Off
#Spike filter=	Multiple accum.
#Delay time (s)=	0
#Binning=	1
#Readout mode=	Signal
#DeNoise=	Off
#ICS correction=	On
#Dark correction=	Off
#Inst. Process=	Off
#Detector Gain=	Best Dynamic Range
#Detector ADC=	20 kHz       
#Detector temperature (°C)=	-69.85
#Instrument=	LabRAM HR Evol
#Detector=	Synapse
#Objective=	x100
#Grating=	600 gr/mm
#ND Filter=	100%
#Laser (nm)=	532 
#Hole=	100.021
#Range=	Auto
#Laser Pol.=	No
#Raman. Pol.=	No
#Laser Pol. (°)=	-0.0007625
#Raman Pol. (°)=	89.9995
#Collection=	Microscope
#StageXY=	Marzhauser
#StageZ=	Marzhauser
#X (µm)=	28061.2
#Y (µm)=	-557.8
#Z (µm)=	1083.7
#Full time(mm:ss)=	3:18
#Project=	
#Sample=	
#Site=	
#Title=	Mb_30_27_03_2x_45s_532 nm_x100_100%_600 gr_mm
#Remark=	
#Date=	12.07.2022 15:39
#Acquired=	12.07.2022 15:39:39
#Base:Fit=	10.08.2022 10:39:47
#Base:Sub=	10.08.2022 10:39:55
#Base:Fit=	10.08.2022 10:40:03
#Base:Sub=	10.08.2022 10:40:17
#Filter:Polynom=	16.08.2022 10:16:15
#AxisType[0]=Intens
#AxisUnit[0]=Cnt
#AxisType[1]=Spectr
#AxisUnit[1]=1/cm
200.388	61.5861
202.204	54.2957
204.019	47.42
205.832	42.1266
207.646	36.5453
209.459	32.3384
211.274	29.3056
213.087	26.3295
214.899	23.7358
216.711	21.6675
218.524	20.1349
220.335	19.033
222.146	18.3175
223.956	16.8545
225.766	15.5832
227.576	12.8496
229.388	11.4814
231.197	11.3536
233.005	10.3639
234.813	10.4121
236.621	9.61838
238.429	9.43716
240.236	8.37427
242.045	8.84154
243.852	8.648
245.658	8.12366
247.464	8.05452
249.269	8.83146
251.074	9.41295
252.879	9.02375
254.683	9.15941
256.487	9.38135
258.291	10.3739
260.094	9.59235
261.897	9.92897
263.702	11.0561
265.504	10.5057
267.306	10.2512
269.108	9.53717
270.909	7.61202
272.71	6.44687
274.511	6.27349
276.311	5.82393
278.111	4.43773
279.91	2.66118
281.709	2.76426
283.508	1.69899
285.306	2.8369
287.105	2.15197
288.9	1.54809
290.698	1.46573
292.495	0.947342
294.291	2.38656
296.088	2.86473
297.884	4.69496
299.679	6.0252
301.475	5.51598
303.27	4.99339
305.064	5.1336
306.858	5.71452
308.652	6.1105
310.444	6.23215
312.237	6.05836
314.03	5.90404
315.822	6.39693
317.615	5.80404
319.406	7.47551
321.198	7.34278
322.987	7.2595
324.778	7.89139
326.568	7.98118
328.358	7.84478
330.148	8.5023
331.935	9.51011
333.724	9.49701
335.513	9.82633
337.301	10.3005
339.089	11.4337
340.875	12.0692
342.662	11.6083
344.449	11.4888
346.236	11.6839
348.02	11.2751
349.806	10.7289
351.592	11.2487
353.375	10.7922
355.16	10.2843
356.944	9.92875
358.728	8.9765
360.51	8.41764
362.294	8.37078
364.077	8.9875
365.858	8.67656
367.64	8.49571
369.422	8.36474
371.202	9.49689
372.983	7.22131
374.764	8.76414
376.543	8.53896
378.324	8.77501
380.102	10.6542
381.881	11.6216
383.661	13.1204
385.438	12.1188
387.216	12.135
388.993	12.0684
390.771	12.0328
392.548	12.2432
394.324	12.7304
396.101	13.7577
397.875	14.3978
399.651	13.9723
401.425	13.557
403.201	14.7742
404.974	15.0847
406.749	14.2411
408.524	14.2183
410.296	13.569
412.07	14.5208
413.841	14.2486
415.614	14.2679
417.385	14.4289
419.156	14.6525
420.928	14.2341
422.698	14.7149
424.469	14.2941
426.238	14.8118
428.009	13.805
429.777	12.5999
431.548	11.5138
433.315	11.4423
435.083	10.9934
436.852	10.0304
438.618	10.3219
440.387	9.91797
442.153	9.74681
443.919	9.80965
445.686	9.03007
447.451	8.84875
449.218	8.72818
450.982	9.3994
452.746	10.0476
454.512	10.7794
456.275	10.8324
458.038	11.1983
459.803	11.3143
461.565	11.4456
463.327	13.1109
465.091	13.309
466.852	14.7117
468.613	16.5482
470.374	16.3501
472.136	16.3955
473.896	17.7198
475.655	19.4014
477.415	21.6073
479.176	22.5159
480.934	22.804
482.692	24.1505
484.45	24.4192
486.21	24.6256
487.967	23.9057
489.724	24.6433
491.481	25.7693
493.237	24.9572
494.995	24.6196
496.75	25.4575
498.506	25.9074
500.26	27.1209
502.015	27.1998
503.771	27.1659
505.525	28.04
507.279	27.2582
509.032	27.2021
510.785	27.5715
512.537	27.4498
514.289	27.3541
516.041	26.2923
517.793	26.7375
519.546	26.7928
521.297	26.8573
523.047	26.6817
524.797	26.2219
526.547	26.7755
528.297	25.3078
530.046	24.6526
531.795	23.4232
533.543	22.9358
535.291	22.3677
537.039	22.587
538.787	22.5252
540.534	22.3628
542.281	21.4783
544.027	20.7688
545.773	20.1023
547.519	18.8902
549.264	18.485
551.01	17.7467
552.754	18.2032
554.499	17.756
556.243	16.3497
557.987	15.3159
559.73	14.7952
561.474	14.5958
563.216	13.5299
564.959	12.2483
566.701	10.5602
568.441	9.83127
570.182	9.22789
571.923	8.11029
573.664	7.53072
575.405	7.10382
577.145	6.72493
578.885	6.15473
580.624	5.79089
582.361	5.52381
584.1	5.59455
585.839	4.71357
587.577	3.50673
589.315	2.99863
591.052	2.11389
592.787	2.96886
594.524	1.62419
596.26	2.77971
597.997	3.62219
599.732	3.38669
601.466	3.39511
603.201	4.3122
604.936	4.29336
606.67	4.13441
608.403	3.80981
610.136	3.4492
611.87	3.2347
613.603	3.12278
615.334	1.98677
617.067	2.66205
618.799	2.76748
620.529	4.1227
622.26	5.11982
623.991	6.77579
625.72	6.72405
627.451	7.66131
629.181	7.24684
630.909	8.3573
632.638	8.70309
634.368	8.87319
636.095	9.92839
637.823	10.1254
639.551	11.5791
641.277	10.8538
643.005	11.3012
644.73	12.2221
646.457	12.7855
648.184	12.5879
649.908	12.4541
651.634	12.8979
653.357	13.1374
655.083	13.637
656.806	13.7801
658.53	13.7621
660.253	13.3518
661.977	13.1279
663.7	12.1425
665.422	12.9808
667.145	13.6919
668.865	14.833
670.588	15.3817
672.308	14.6506
674.027	15.3717
675.749	17.0554
677.468	17.6542
679.188	19.9553
680.907	20.4393
682.627	22.8984
684.345	23.2789
686.064	24.307
687.781	24.9028
689.498	24.8267
691.216	25.1411
692.932	26.1725
694.65	26.9585
696.366	29.1919
698.081	31.4467
699.797	32.4015
701.512	33.4872
703.228	35.6818
704.942	36.8295
706.655	38.3598
708.371	38.8043
710.083	39.7068
711.796	39.5317
713.51	40.1709
715.222	40.3576
716.934	42.483
718.645	42.3563
720.358	41.9836
722.068	42.6629
723.779	42.7048
725.49	42.8495
727.2	42.265
728.909	42.5684
730.618	42.9011
732.329	42.69
734.037	43.0991
735.745	43.6891
737.453	44.304
739.16	43.9283
740.869	44.6673
742.576	43.9737
744.282	44.9941
745.988	45.6314
747.694	46.5509
749.401	47.8084
751.107	49.0097
752.811	49.7354
754.516	51.1185
756.22	51.5209
757.924	53.2698
759.627	56.3284
761.332	57.7408
763.035	59.4609
764.738	61.1027
766.44	61.4985
768.142	61.598
769.843	62.8623
771.544	64.4411
773.245	65.898
774.946	68.195
776.646	70.861
778.346	72.3512
780.046	73.7436
781.745	75.8979
783.444	75.952
785.143	76.353
786.841	76.5854
788.539	78.3853
790.237	79.1132
791.934	79.688
793.631	81.1686
795.328	81.7325
797.024	80.833
798.72	82.3505
800.416	82.658
802.112	83.6321
803.807	82.3022
805.502	82.9127
807.196	82.8402
808.89	82.6217
810.584	82.6727
812.278	82.8015
813.971	82.3661
815.664	81.2357
817.354	79.8016
819.047	79.0887
820.739	77.82
822.43	77.0081
824.122	76.4098
825.813	76.3737
827.503	76.2759
829.192	75.7021
830.882	73.4441
832.571	72.0841
834.261	70.8444
835.95	69.86
837.637	69.8646
839.325	68.9104
841.013	67.713
842.701	67.6799
844.389	65.9121
846.074	64.1548
847.761	63.06
849.447	61.6727
851.131	60.5805
852.817	59.4032
854.503	60.0065
856.188	57.9285
857.871	57.2974
859.556	56.0998
861.24	55.4458
862.922	54.1895
864.606	53.1325
866.289	52.5315
867.97	52.5104
869.653	53.0719
871.336	52.0171
873.016	52.6644
874.698	53.3394
876.379	52.8939
878.058	52.8779
879.739	51.8937
881.418	51.1411
883.098	51.7588
884.778	51.2384
886.456	51.7693
888.135	51.1135
889.812	51.5866
891.49	51.544
893.167	50.9035
894.845	50.0994
896.523	48.5266
898.198	47.5219
899.875	47.2943
901.55	47.3628
903.226	48.0504
904.901	48.4522
906.576	48.8217
908.25	48.3627
909.925	47.4358
911.598	46.8902
913.271	45.3698
914.945	44.7061
916.617	45.1872
918.291	44.6606
919.962	44.6284
921.635	43.9857
923.306	43.0851
924.978	43.4606
926.648	43.4053
928.318	42.194
929.989	40.538
931.659	38.7644
933.328	37.0648
934.998	36.0695
936.666	34.7244
938.336	33.7804
940.004	32.5265
941.671	31.8618
943.34	29.1142
945.007	28.096
946.673	26.7331
948.339	26.0971
950.007	26.0349
951.672	26.8134
953.337	26.2861
955.004	25.7776
956.669	25.4119
958.333	24.7564
959.997	23.4463
961.662	23.7823
963.326	24.5613
964.989	25.0439
966.651	26.6694
968.315	27.4876
969.977	28.78
971.639	28.3717
973.301	29.693
974.962	30.3521
976.624	30.7582
978.285	32.2505
979.945	34.127
981.605	35.9597
983.264	37.5743
984.924	38.3134
986.583	38.7809
988.243	40.0831
989.901	40.7583
991.56	40.6021
993.217	41.0845
994.875	41.6866
996.532	40.6832
998.188	39.3349
999.845	39.4259
1001.5	38.3455
1003.16	38.6798
1004.81	39.2663
1006.47	40.0814
1008.12	42.0576
1009.78	43.6229
1011.43	44.7991
1013.09	45.9805
1014.74	48.9713
1016.39	50.6464
1018.05	52.8429
1019.7	54.4124
1021.35	55.468
1023	56.1489
1024.65	57.4133
1026.31	57.3709
1027.96	58.9671
1029.61	59.8705
1031.26	60.3934
1032.91	60.3815
1034.56	60.0654
1036.21	58.2794
1037.86	57.7252
1039.51	57.0896
1041.16	57.5364
1042.8	57.4366
1044.45	57.9058
1046.1	57.5911
1047.75	55.5575
1049.39	54.6332
1051.04	52.8764
1052.69	51.585
1054.33	50.0052
1055.98	50.2616
1057.62	48.1523
1059.27	45.8541
1060.91	43.7549
1062.56	41.1011
1064.2	38.0621
1065.85	35.8684
1067.49	32.955
1069.13	29.7356
1070.77	27.9427
1072.42	24.7465
1074.06	21.7902
1075.7	19.8182
1077.34	18.0778
1078.98	16.5403
1080.62	15.5172
1082.27	15.2551
1083.91	14.6698
1085.55	15.3579
1087.18	16.0419
1088.82	17.2172
1090.46	18.873
1092.1	19.2363
1093.74	20.2532
1095.38	21.4581
1097.02	21.5626
1098.65	21.453
1100.29	21.9952
1101.93	21.8297
1103.56	21.4679
1105.2	20.9107
1106.84	20.6654
1108.47	19.0577
1110.11	19.5958
1111.74	18.7402
1113.38	18.3258
1115.01	17.0805
1116.64	17.1285
1118.28	17.4737
1119.91	18.5279
1121.54	17.8755
1123.18	18.0714
1124.81	17.5914
1126.44	16.5697
1128.07	16.4899
1129.7	16.0386
1131.33	15.485
1132.97	15.4263
1134.6	15.3654
1136.23	15.2662
1137.86	15.2133
1139.49	14.18
1141.11	13.6587
1142.74	14.3612
1144.37	13.6948
1146	12.7638
1147.63	12.1312
1149.26	11.2764
1150.88	10.755
1152.51	11.0825
1154.14	10.8195
1155.76	10.8622
1157.39	10.3704
1159.01	10.1874
1160.64	8.87576
1162.27	7.53664
1163.89	6.69426
1165.51	6.75995
1167.14	6.91515
1168.76	5.99695
1170.39	6.70253
1172.01	6.18421
1173.63	6.69592
1175.25	7.68253
1176.88	7.28849
1178.5	7.06742
1180.12	7.22599
1181.74	7.39329
1183.36	7.48045
1184.98	7.69959
1186.6	8.09769
1188.22	8.75197
1189.84	8.72717
1191.46	9.9896
1193.08	11.5052
1194.7	13.7139
1196.32	14.8204
1197.94	16.2587
1199.55	17.4394
1201.17	19.0984
1202.79	20.1199
1204.41	21.6429
1206.02	23.0952
1207.64	23.7492
1209.25	26.7542
1210.87	28.3435
1212.48	29.8007
1214.1	32.9897
1215.71	34.8826
1217.33	37.0198
1218.94	39.6627
1220.56	42.0272
1222.17	43.4503
1223.79	45.9611
1225.4	47.4469
1227.01	50.3232
1228.62	52.0937
1230.23	54.8282
1231.85	57.3848
1233.46	59.7836
1235.07	62.6339
1236.68	64.455
1238.29	65.7303
1239.9	67.406
1241.51	68.2927
1243.12	70.4489
1244.73	72.6508
1246.34	73.9169
1247.94	74.5474
1249.55	75.1886
1251.16	77.4141
1252.77	77.9387
1254.37	79.757
1255.98	80.3571
1257.59	80.6419
1259.2	81.2545
1260.8	81.9883
1262.41	83.5005
1264.01	84.0552
1265.62	85.2394
1267.22	86.0832
1268.83	88.1459
1270.43	88.6511
1272.03	91.4818
1273.64	93.1563
1275.24	93.7528
1276.85	93.3874
1278.45	94.5254
1280.05	95.5224
1281.65	96.3574
1283.25	95.7508
1284.85	95.4906
1286.46	96.6347
1288.06	97.241
1289.66	98.301
1291.26	98.44
1292.86	98.9821
1294.46	99.5904
1296.06	99.7701
1297.66	100.249
1299.25	101.167
1300.85	101.552
1302.45	101.765
1304.05	101.794
1305.65	102.591
1307.24	103.21
1308.84	102.514
1310.43	103.687
1312.03	104.46
1313.63	104.674
1315.22	105.136
1316.82	104.746
1318.41	104.841
1320.01	105.057
1321.6	105.307
1323.2	104.88
1324.79	104.146
1326.38	103.063
1327.98	101.737
1329.57	100.519
1331.16	99.3148
1332.76	97.9846
1334.35	96.9178
1335.94	95.6015
1337.53	95.0049
1339.12	93.8495
1340.71	94.1563
1342.3	93.0767
1343.89	91.4998
1345.48	90.1856
1347.07	89.6169
1348.66	88.5774
1350.25	86.3497
1351.84	86.0111
1353.43	83.7108
1355.01	80.7825
1356.6	78.183
1358.19	77.0272
1359.77	75.0426
1361.36	72.3891
1362.95	70.7323
1364.53	69.1087
1366.12	67.9853
1367.71	65.6818
1369.29	64.2365
1370.88	62.3075
1372.46	61.1118
1374.04	58.7124
1375.63	57.4754
1377.21	56.5773
1378.8	55.2868
1380.38	53.8793
1381.96	53.9134
1383.54	52.9528
1385.13	54.3873
1386.71	54.0936
1388.29	53.8926
1389.87	53.7497
1391.45	53.4122
1393.03	53.4809
1394.61	54.0401
1396.19	53.5148
1397.77	52.7967
1399.35	51.7453
1400.93	51.595
1402.51	51.7817
1404.09	51.6957
1405.67	52.294
1407.24	52.5432
1408.82	53.0055
1410.4	54.9828
1411.98	56.2472
1413.55	57.0209
1415.13	59.234
1416.71	61.0465
1418.28	62.7866
1419.86	66.529
1421.43	67.5993
1423.01	70.6591
1424.58	73.5581
1426.16	78.0654
1427.73	80.3984
1429.31	83.2165
1430.88	86.7526
1432.45	89.9819
1434.02	92.2008
1435.6	96.105
1437.17	98.8033
1438.74	101.115
1440.31	102.64
1441.88	104.947
1443.45	105.23
1445.03	106.418
1446.6	106.872
1448.17	107.617
1449.74	107.258
1451.3	107.356
1452.87	106.148
1454.44	105.188
1456.01	103.226
1457.58	100.929
1459.15	100.204
1460.72	99.3745
1462.28	96.3597
1463.85	95.2862
1465.42	92.2552
1466.98	89.4056
1468.55	86.4418
1470.12	84.5945
1471.68	82.5038
1473.25	79.7347
1474.81	76.6893
1476.38	74.0504
1477.94	71.814
1479.51	69.6462
1481.07	66.6412
1482.63	63.4068
1484.2	61.9968
1485.76	59.2962
1487.32	56.5106
1488.88	54.8757
1490.45	52.2381
1492.01	50.5989
1493.57	49.8879
1495.13	48.8745
1496.69	48.6072
1498.25	47.8219
1499.81	46.3843
1501.37	46.559
1502.93	46.3551
1504.49	45.7594
1506.05	44.9128
1507.61	45.3061
1509.17	45.7409
1510.73	45.2924
1512.28	44.252
1513.84	43.7662
1515.4	43.0164
1516.96	42.7593
1518.51	42.6873
1520.07	41.4077
1521.63	40.2329
1523.18	39.5295
1524.74	38.6888
1526.29	37.8579
1527.85	36.5182
1529.4	35.5383
1530.96	35.0655
1532.51	35.1916
1534.06	36.4165
1535.62	37.7512
1537.17	39.2283
1538.72	39.8894
1540.28	39.8688
1541.83	41.4573
1543.38	41.5865
1544.93	42.5858
1546.48	43.8293
1548.03	44.1507
1549.59	44.2098
1551.14	44.8986
1552.69	44.7855
1554.24	45.5519
1555.79	45.3747
1557.34	45.4161
1558.88	46.0698
1560.43	46.8488
1561.98	48.0124
1563.53	48.083
1565.08	49.1773
1566.62	50.0182
1568.17	49.9388
1569.72	50.8496
1571.27	51.7297
1572.81	53.183
1574.36	54.9817
1575.9	55.7826
1577.45	58.208
1579	59.7449
1580.54	61.7221
1582.09	63.2125
1583.63	65.4807
1585.17	67.688
1586.72	67.9568
1588.26	69.0393
1589.8	70.3379
1591.35	72.1091
1592.89	72.5157
1594.43	72.7686
1595.97	73.4678
1597.52	73.2362
1599.06	73.5803
1600.6	73.6479
1602.14	74.5343
1603.68	74.8248
1605.22	75.7115
1606.76	75.9018
1608.3	77.5212
1609.84	77.368
1611.38	77.9751
1612.92	77.7081
1614.46	78.5944
1615.99	79.3652
1617.53	79.5204
1619.07	80.8494
1620.61	81.8502
1622.14	83.6136
1623.68	84.5104
1625.22	86.0406
1626.75	88.48
1628.29	89.6386
1629.82	90.6648
1631.36	93.2475
1632.9	94.5185
1634.43	97.1779
1635.96	99.7761
1637.5	101.516
1639.03	102.906
1640.57	105.313
1642.1	107.875
1643.63	109.344
1645.16	111.816
1646.7	114.735
1648.23	117.349
1649.76	119.998
1651.29	122.491
1652.82	123.888
1654.36	126.089
1655.89	126.963
1657.42	128.413
1658.95	128.773
1660.48	128.069
1662.01	127.83
1663.53	126.638
1665.06	125.377
1666.59	124.331
1668.12	122.935
1669.65	118.856
1671.18	117.016
1672.7	113.787
1674.23	111.062
1675.76	106.809
1677.29	103.263
1678.81	99.246
1680.34	94.8709
1681.86	90.805
1683.39	86.3879
1684.91	82.975
1686.44	78.0596
1687.96	74.6607
1689.49	71.0691
1691.01	68.2206
1692.54	64.5243
1694.06	60.8546
1695.58	57.5734
1697.11	54.4189
1698.63	51.078
1700.15	47.8764
1701.67	44.3491
1703.2	41.1239
1704.72	37.5078
1706.24	35.0949
1707.76	32.8506
1709.28	29.5702
1710.8	27.0787
1712.32	24.4645
1713.84	22.8343
1715.36	21.3652
1716.88	20.4433
1718.4	19.1193
1719.91	17.9507
1721.43	17.6797
1722.95	16.253
1724.47	14.905
1725.99	14.0521
1727.5	13.1905
1729.02	12.745
1730.54	12.2041
1732.05	11.3562
1733.57	10.7669
1735.09	10.2022
1736.6	8.98645
1738.12	9.22817
1739.63	8.94473
1741.15	8.07882
1742.66	8.66634
1744.18	7.90382
1745.69	7.07984
1747.2	6.89834
1748.72	6.4208
1750.23	6.49781
1751.74	5.36051
1753.25	5.44272
1754.77	5.26802
1756.28	5.54319
1757.79	5.26852
1759.3	5.08716
1760.81	4.5767
1762.32	4.29337
1763.83	4.64882
1765.34	4.6889
1766.85	4.61924
1768.36	4.3367
1769.87	3.44804
1771.38	3.40897
1772.89	3.19527
1774.4	3.24684
1775.91	3.07315
1777.41	2.68936
1778.92	2.61641
1780.43	2.20124
1781.94	2.14058
1783.44	1.80589
1784.95	1.84963
1786.45	2.26469
1787.96	2.4382
1789.47	2.65301
1790.97	1.5388
1792.48	1.96507
1793.98	1.78768
1795.48	2.11369
1796.99	1.62378
1798.49	1.1667
1800	0.999532
1801.5	1.60676
1803	1.90722
1804.51	2.32699
1806.01	2.11466
1807.51	1.89349
1809.01	1.51566
1810.51	1.35204
1812.02	0.877448
1813.52	1.24393
1815.02	1.19566
1816.52	1.10311
1818.02	1.02569
1819.52	1.08539
1821.02	0.921337
1822.52	-0.0156222
1824.02	0.317344
1825.51	0.255433
1827.01	0.380214
1828.51	-0.110869
1830.01	0.0308894
1831.51	-0.455621
1833	-0.610857
1834.5	-1.30291
1836	-1.02483
1837.5	-0.657357
1838.99	-0.529937
1840.49	-0.871881
1841.98	-0.775221
1843.48	-0.512181
1844.97	-0.571693
1846.47	-0.0982668
1847.96	-0.339382
1849.46	-0.226267
1850.95	-0.382932
1852.45	-0.0421496
1853.94	-0.0257683
1855.43	0.129476
1856.92	-0.122942
1858.42	-0.0635235
1859.91	-0.0534402
1861.4	-0.284487
1862.89	0.28581
1864.39	0.94605
1865.88	1.501
1867.37	1.90858
1868.86	2.08133
1870.35	2.74611
1871.84	2.002
1873.33	3.06859
1874.82	3.10409
1876.31	3.2602
1877.8	3.31409
1879.29	3.19751
1880.77	3.48804
1882.26	3.54645
1882.51	3.29502
1884	4.29151
1885.5	4.84377
1886.99	5.1384
1888.48	4.83579
1889.98	4.63913
1891.47	4.91993
1892.97	5.26751
1894.46	4.6204
1895.95	4.14921
1897.44	4.58833
1898.93	4.66861
1900.42	4.198
1901.92	4.02392
1903.41	4.17068
1904.9	4.0685
1906.39	4.09475
1907.88	4.31916
1909.37	5.17704
1910.86	4.99349
1912.35	5.07083
1913.84	5.16622
1915.32	4.94485
1916.81	5.1399
1918.3	4.97986
1919.79	5.1443
1921.28	5.02175
1922.76	4.82309
1924.25	4.72974
1925.74	4.61852
1927.22	4.14961
1928.71	3.8921
1930.2	3.81299
1931.68	4.36891
1933.17	3.82822
1934.65	3.74298
1936.14	4.61115
1937.62	5.09754
1939.11	4.73563
1940.59	3.8885
1942.08	4.34337
1943.56	4.15549
1945.04	4.31825
1946.53	4.70674
1948.01	4.86232
1949.49	4.91383
1950.97	5.29873
1952.45	5.64042
1953.94	6.16505
1955.42	5.97464
1956.9	5.86028
1958.38	6.42672
1959.86	5.35376
1961.34	5.01835
1962.82	4.38997
1964.3	4.40667
1965.78	4.26742
1967.26	4.00168
1968.74	3.1106
1970.22	2.96272
1971.69	3.7573
1973.17	3.42929
1974.65	3.16297
1976.13	3.32092
1977.61	3.01559
1979.08	3.35164
1980.56	3.39884
1982.03	3.46661
1983.51	3.92421
1984.99	3.79538
1986.46	4.28498
1987.94	3.74191
1989.41	3.97464
1990.89	4.56838
1992.36	4.57423
1993.84	4.11119
1995.31	3.40319
1996.78	3.54326
1998.26	3.27453
1999.73	3.02739
2001.2	3.1713
2002.68	3.91237
2004.15	4.15615
2005.62	3.94839
2007.09	3.67163
2008.56	4.01515
2010.04	4.29085
2011.51	4.67157
2012.98	4.28865
2014.45	4.14983
2015.92	5.22275
2017.39	4.5843
2018.86	5.05092
2020.33	5.22813
2021.8	5.96587
2023.27	5.90005
2024.74	6.49201
2026.2	6.71711
2027.67	7.27914
2029.14	7.66634
2030.61	7.71793
2032.07	7.5844
2033.54	7.61033
2035.01	8.26494
2036.47	8.17975
2037.94	8.38228
2039.41	8.12008
2040.87	8.3677
2042.34	8.44201
2043.8	9.13387
2045.27	9.93268
2046.73	9.93231
2048.2	10.6203
2049.66	11.2612
2051.12	11.6522
2052.59	12.2066
2054.05	12.1698
2055.51	12.4009
2056.98	13.4559
2058.44	13.8425
2059.9	14.3356
2061.36	14.2152
2062.82	14.6072
2064.29	14.4599
2065.75	14.012
2067.21	13.4536
2068.67	14.1
2070.13	14.8306
2071.59	15.1177
2073.05	15.7775
2074.51	16.621
2075.97	16.5959
2077.43	16.2584
2078.88	16.345
2080.34	16.494
2081.8	16.6877
2083.26	17.2811
2084.72	18.1342
2086.17	18.9754
2087.63	19.446
2089.09	20.9266
2090.54	21.7275
2092	23.0594
2093.46	24.087
2094.91	25.7176
2096.37	26.9277
2097.82	27.9026
2099.28	28.5105
2100.73	29.4096
2102.19	30.347
2103.64	31.0713
2105.09	32.7119
2106.55	34.5905
2108	36.1149
2109.46	37.1143
2110.91	37.9804
2112.36	39.5182
2113.81	40.93
2115.27	42.9767
2116.72	44.9434
2118.17	46.3068
2119.62	47.811
2121.07	49.594
2122.52	51.6124
2123.97	53.0348
2125.42	54.7999
2126.87	57.1644
2128.32	60.0026
