#Acq. time (s)=	45
#Accumulations=	2
#Range (cm-¹)=	200...3150
#Windows=	2
#Auto scanning=	Off
#Autofocus=	Off
#Macrospot=	Off
#AutoExposure=	Off
#Spike filter=	Multiple accum.
#Delay time (s)=	0
#Binning=	1
#Readout mode=	Signal
#DeNoise=	Off
#ICS correction=	On
#Dark correction=	Off
#Inst. Process=	Off
#Detector Gain=	Best Dynamic Range
#Detector ADC=	20 kHz       
#Detector temperature (°C)=	-69.85
#Instrument=	LabRAM HR Evol
#Detector=	Synapse
#Objective=	x100
#Grating=	600 gr/mm
#ND Filter=	100%
#Laser (nm)=	532 
#Hole=	100.021
#Range=	Auto
#Laser Pol.=	No
#Raman. Pol.=	No
#Laser Pol. (°)=	-0.0007625
#Raman Pol. (°)=	89.9995
#Collection=	Microscope
#StageXY=	Marzhauser
#StageZ=	Marzhauser
#X (µm)=	-6352.7
#Y (µm)=	798.7
#Z (µm)=	-64.8
#Full time(mm:ss)=	3:19
#Project=	
#Sample=	
#Site=	
#Title=	Mb_30_27_40_2x_45s_532 nm_x100_100%_600 gr_mm
#Remark=	
#Date=	13.07.2022 11:43
#Acquired=	13.07.2022 11:43:48
#Base:Fit=	10.08.2022 10:40:03
#Base:Sub=	10.08.2022 10:40:17
#Filter:Polynom=	16.08.2022 10:16:15
#AxisType[0]=Intens
#AxisUnit[0]=Cnt
#AxisType[1]=Spectr
#AxisUnit[1]=1/cm
200.563	1.75557
202.377	4.22256
204.194	5.85589
206.008	6.93881
207.821	7.55973
209.634	7.84958
211.449	8.4022
213.262	8.27799
215.074	8.75011
216.885	8.4581
218.699	7.92478
220.51	7.41266
222.321	7.3853
224.131	8.308
225.941	7.07761
227.751	6.64715
229.562	6.11186
231.371	5.26289
233.18	5.48557
234.988	4.45385
236.796	4.27618
238.603	5.15655
240.411	5.02173
242.219	4.2476
244.026	3.44626
245.832	2.97797
247.638	2.22657
249.443	2.03323
251.248	1.36965
253.053	1.26406
254.857	0.308699
256.661	0.500244
258.465	0.274408
260.268	-0.0512726
262.071	0.0536194
263.874	0.283617
265.678	1.24002
267.48	0.27865
269.282	0.723194
271.083	1.71599
272.884	2.16861
274.684	2.29171
276.484	1.89233
278.284	2.81233
280.084	1.88767
281.883	2.03012
283.682	2.15162
285.48	1.91635
287.276	1.45871
289.074	2.22932
290.871	2.38158
292.668	2.69148
294.465	2.31988
296.261	2.61566
298.057	3.12584
299.853	3.67541
301.648	3.91197
303.443	2.92475
305.237	3.18967
307.032	2.35476
308.823	2.6485
310.617	3.13414
312.41	4.27934
314.203	4.05134
315.995	3.10706
317.788	3.97832
319.579	3.9705
321.369	3.86872
323.16	4.39141
324.951	3.97979
326.741	4.41374
328.531	3.39959
330.321	2.4075
332.108	2.76847
333.897	3.69776
335.686	4.1044
337.474	4.67256
339.26	4.60373
341.048	4.66474
342.835	4.15878
344.622	4.65584
346.406	4.26365
348.192	4.23878
349.978	4.09499
351.764	3.69623
353.547	3.22892
355.332	2.99602
357.116	2.76598
358.901	3.33419
360.682	2.80768
362.466	2.29779
364.249	2.16034
366.03	2.6477
367.812	3.11281
369.594	2.56806
371.374	3.58004
373.155	4.49727
374.936	5.04391
376.715	5.3424
378.495	5.78833
380.273	5.51888
382.053	5.66843
383.832	5.84221
385.609	6.17622
387.388	6.02774
389.164	5.10342
390.942	5.6469
392.72	5.49051
394.495	5.67851
396.272	5.76899
398.047	6.52457
399.823	6.71731
401.597	6.39198
403.372	5.7294
405.145	5.95312
406.92	5.86909
408.693	5.71637
410.467	5.52367
412.239	5.66789
414.012	5.21268
415.783	5.00349
417.556	5.29414
419.327	6.38046
421.099	6.55417
422.869	5.73174
424.64	4.5394
426.409	4.62837
428.18	4.38161
429.948	4.31511
431.718	3.60786
433.486	4.01882
435.253	2.44229
437.022	2.27682
438.789	1.81815
440.558	1.39128
442.324	0.871343
444.089	1.27018
445.857	1.80729
447.622	2.07115
449.386	3.13463
451.153	4.77894
452.917	5.39069
454.682	5.91738
456.446	6.52026
458.208	7.19807
459.973	8.92576
461.735	9.36353
463.497	9.3224
465.259	10.3613
467.022	10.6224
468.783	10.183
470.544	10.3853
472.306	10.6313
474.066	10.5928
475.825	10.8304
477.585	11.4854
479.346	13.1058
481.104	12.9345
482.862	13.7479
484.62	14.5621
486.38	15.3684
488.137	15.7211
489.894	15.5227
491.65	16.5788
493.407	16.641
495.164	16.7375
496.92	18.0464
498.675	18.2027
500.43	18.6583
502.184	18.5853
503.939	18.6241
505.694	18.7209
507.448	18.5099
509.201	18.6411
510.954	18.4293
512.706	18.9804
514.459	19.2216
516.21	18.9461
517.962	18.7249
519.715	18.7894
521.466	18.8181
523.216	18.0778
524.966	18.3647
526.716	18.208
528.466	17.9831
530.215	17.7662
531.964	18.3531
533.712	17.7786
535.46	17.4613
537.208	17.6729
538.955	16.9647
540.703	15.8445
542.449	15.4658
544.196	15.8144
545.942	14.8657
547.688	14.5059
549.433	13.3756
551.178	12.626
552.923	12.5446
554.667	11.4456
556.412	11.4733
558.155	11.9901
559.899	11.2243
561.642	10.6158
563.385	9.97198
565.127	9.9667
566.867	9.79256
568.609	8.92153
570.35	8.01301
572.092	7.37025
573.832	7.23953
575.573	6.48931
577.313	6.31231
579.053	6.70942
580.79	5.42417
582.529	5.32058
584.268	5.61378
586.006	5.34165
587.745	4.76886
589.482	4.61649
591.218	5.4675
592.955	5.4155
594.692	5.89359
596.428	5.58626
598.164	5.72596
599.898	7.05163
601.634	6.22897
603.369	6.33388
605.104	7.01608
606.836	6.84961
608.57	6.77035
610.304	7.11414
612.037	7.54695
613.769	8.13488
615.501	8.85007
617.234	9.1509
618.966	9.33048
620.696	9.41098
622.427	9.71239
624.159	10.4574
625.887	10.6289
627.618	11.4428
629.348	12.4348
631.076	13.0709
632.806	12.8238
634.535	13.8162
636.262	14.1945
637.99	14.9425
639.716	15.9007
641.444	15.8023
643.172	16.4212
644.897	16.671
646.624	16.0505
648.348	16.2785
650.075	17.7895
651.801	18.4469
653.524	18.1602
655.249	17.7955
656.972	18.1574
658.697	19.1239
660.419	19.811
662.143	19.9048
663.865	20.636
665.588	20.525
667.309	20.6672
669.032	21.2929
670.752	21.5716
672.474	21.652
674.194	21.6806
675.915	22.9276
677.634	23.8436
679.355	24.2467
681.073	24.9606
682.793	25.7603
684.511	27.4016
686.23	28.6911
687.947	28.9034
689.664	30.6188
691.382	31.8466
693.098	32.8672
694.816	34.4199
696.531	36.2217
698.247	36.5229
699.963	37.3326
701.678	37.797
703.392	38.6192
705.108	39.779
706.821	41.4984
708.534	41.7055
710.249	42.8471
711.962	43.408
713.674	44.7811
715.388	45.1735
717.099	44.7353
718.81	45.1733
720.523	46.4547
722.234	47.3552
723.944	48.4128
725.654	49.029
727.365	48.924
729.075	49.8584
730.784	50.5232
732.492	50.5905
734.202	52.3785
735.91	53.9036
737.618	52.7495
739.325	53.518
741.034	53.8888
742.741	54.5074
744.447	55.3409
746.153	56.152
747.859	56.1917
749.564	56.547
751.271	57.0703
752.976	57.5189
754.681	58.0218
756.385	59.332
758.088	60.8148
759.792	63.5774
761.495	65.6117
763.2	67.2103
764.902	68.9882
766.604	70.1702
768.306	72.5407
770.008	74.3041
771.709	75.2246
773.41	76.9522
775.11	79.0339
776.811	79.8778
778.51	81.3186
780.21	82.4571
781.909	83.1024
783.608	83.8129
785.307	85.2013
787.005	87.1877
788.703	88.7592
790.401	89.3691
792.098	90.0635
793.795	89.6772
795.492	90.4839
797.188	91.1084
798.884	91.7379
800.58	91.7849
802.276	92.6635
803.971	93.6907
805.665	94.07
807.36	93.7512
809.054	93.7277
810.748	93.651
812.441	93.7979
814.135	94.5504
815.826	94.1936
817.518	94.5621
819.21	94.4016
820.902	93.0055
822.594	91.6826
824.285	91.0683
825.976	89.2318
827.665	88.3635
829.355	86.6179
831.045	84.9656
832.735	83.4728
834.424	82.6378
836.111	81.4817
837.8	81.0545
839.488	80.1423
841.177	79.7202
842.864	78.9142
844.55	78.2995
846.237	76.5866
847.924	75.4603
849.61	74.4884
851.295	73.3391
852.98	72.1721
854.666	70.3647
856.349	68.9865
858.034	67.9454
859.719	66.1694
861.403	63.9892
863.085	63.38
864.769	62.6895
866.452	61.606
868.133	60.7335
869.816	60.4286
871.498	59.2702
873.179	58.9275
874.86	57.9581
876.54	57.7895
878.221	57.1693
879.902	56.4242
881.58	56.284
883.26	56.0239
884.938	55.937
886.618	55.7846
888.297	54.9794
889.974	55.6885
891.653	55.8388
893.329	56.676
895.007	57.393
896.683	57.6866
898.36	57.055
900.035	56.8879
901.712	57.7806
903.387	56.7672
905.063	56.6049
906.737	55.9483
908.412	54.6746
910.085	53.8268
911.76	53.2312
913.433	52.8296
915.107	52.7553
916.779	53.2258
918.452	54.3847
920.124	54.1593
921.797	54.9752
923.467	54.4214
925.138	54.8195
926.81	54.8607
928.48	54.6587
930.151	54.5015
931.82	54.3032
933.489	53.4398
935.16	52.5856
936.828	52.125
938.496	51.4921
940.165	50.8729
941.833	49.9354
943.5	49.2506
945.168	48.5334
946.834	48.5696
948.5	46.9378
950.168	46.4698
951.834	44.9833
953.499	44.5818
955.163	43.2215
956.83	43.4554
958.494	40.8431
960.158	40.1477
961.821	39.0014
963.487	38.474
965.15	38.4416
966.812	38.2679
968.474	37.696
970.138	37.2057
971.8	37.2717
973.461	37.6441
975.123	37.4158
976.783	37.3749
978.446	37.3476
980.106	36.145
981.766	35.6113
983.425	36.7528
985.084	36.0286
986.743	35.2098
988.402	34.6929
990.06	33.721
991.72	33.2101
993.378	33.0225
995.035	33.1706
996.692	32.7382
998.349	32.0582
1000.01	32.4804
1001.66	31.9208
1003.32	30.5824
1004.97	31.4936
1006.63	32.4213
1008.28	33.95
1009.94	35.4112
1011.59	37.5586
1013.25	40.3881
1014.9	42.0085
1016.55	44.526
1018.21	46.7664
1019.86	48.9786
1021.51	51.1533
1023.16	52.6296
1024.81	54.9298
1026.47	56.55
1028.12	58.0276
1029.77	59.1229
1031.42	59.0755
1033.07	60.6174
1034.72	60.7014
1036.37	61.7117
1038.02	61.9065
1039.67	62.2062
1041.31	61.6196
1042.96	62.3829
1044.61	62.3364
1046.26	62.4348
1047.91	61.9204
1049.55	61.0738
1051.2	60.0125
1052.84	59.0345
1054.49	57.9553
1056.14	56.7425
1057.78	54.8356
1059.43	52.7732
1061.07	51.6135
1062.72	49.2605
1064.36	47.6971
1066	45.3243
1067.65	41.565
1069.29	39.611
1070.93	36.606
1072.58	33.7068
1074.22	31.007
1075.86	28.22
1077.5	25.8752
1079.14	23.479
1080.78	21.9697
1082.42	20.1487
1084.06	19.2089
1085.7	19.1519
1087.34	20.102
1088.98	20.8254
1090.62	21.3205
1092.26	21.7451
1093.9	23.2861
1095.54	23.3555
1097.17	22.5531
1098.81	22.2933
1100.45	22.0468
1102.09	22.3251
1103.72	22.2528
1105.36	22.2928
1106.99	22.1314
1108.63	21.7009
1110.27	21.6838
1111.9	21.0897
1113.53	21.1465
1115.17	22.1956
1116.8	22.0402
1118.43	21.3696
1120.07	21.4913
1121.7	21.0454
1123.33	20.154
1124.97	20.5982
1126.6	20.4171
1128.23	20.7453
1129.86	19.2529
1131.49	17.7376
1133.12	17.6524
1134.75	17.3168
1136.38	16.4037
1138.01	16.3769
1139.64	15.4057
1141.27	15.2679
1142.9	14.1955
1144.53	13.0828
1146.16	12.5024
1147.78	11.4647
1149.41	11.4317
1151.04	10.9903
1152.67	9.57826
1154.29	8.75603
1155.92	7.43192
1157.54	7.22225
1159.17	6.23346
1160.8	4.93677
1162.42	3.84546
1164.05	3.00856
1165.67	3.58933
1167.29	3.31691
1168.92	3.45484
1170.54	3.15847
1172.16	1.91015
1173.79	1.2681
1175.41	0.863002
1177.03	0.156946
1178.65	0.154334
1180.28	0.592593
1181.9	1.59828
1183.52	1.37897
1185.14	1.829
1186.76	2.39773
1188.38	3.12923
1190	4.53099
1191.62	5.49928
1193.24	6.4571
1194.86	7.51054
1196.47	9.07222
1198.09	9.66594
1199.71	11.1467
1201.33	12.8784
1202.95	14.036
1204.56	14.9612
1206.18	16.8934
1207.8	17.7441
1209.41	19.5556
1211.03	20.6597
1212.64	22.7099
1214.26	24.7776
1215.87	25.8656
1217.49	27.0012
1219.1	28.7173
1220.71	30.3365
1222.33	32.6388
1223.94	33.6178
1225.55	36.3459
1227.16	37.7771
1228.78	38.5365
1230.39	40.4364
1232	41.517
1233.61	43.2829
1235.22	44.2216
1236.83	45.1783
1238.44	46.0818
1240.05	46.8482
1241.66	47.6558
1243.27	49.6688
1244.88	50.8047
1246.49	51.883
1248.1	52.5359
1249.71	53.1011
1251.32	53.3407
1252.92	53.5258
1254.53	54.9508
1256.14	56.1583
1257.74	56.6696
1259.35	57.7119
1260.96	57.9339
1262.56	57.9446
1264.17	58.4483
1265.77	59.2
1267.38	60.3137
1268.98	61.3613
1270.59	61.6405
1272.19	62.5134
1273.79	62.6729
1275.4	62.3848
1277	63.0047
1278.6	62.9349
1280.21	63.48
1281.81	63.2872
1283.41	63.7852
1285.01	63.9518
1286.61	64.4346
1288.21	64.518
1289.81	65.2923
1291.41	65.4142
1293.01	65.2809
1294.61	65.1223
1296.21	65.4078
1297.81	65.6368
1299.41	66.1023
1301.01	66.7103
1302.6	66.9457
1304.2	66.2664
1305.8	67.2367
1307.4	66.9967
1308.99	67.3612
1310.59	68.9904
1312.19	68.9979
1313.78	69.137
1315.38	68.6532
1316.97	69.3332
1318.57	69.8705
1320.16	70.6877
1321.76	70.7252
1323.35	71.5809
1324.94	71.1684
1326.54	71.9708
1328.13	71.0449
1329.72	70.6093
1331.32	70.0239
1332.91	69.6092
1334.5	68.9543
1336.09	67.2651
1337.68	65.9836
1339.27	65.9234
1340.87	64.2102
1342.45	63.5228
1344.04	61.8304
1345.64	60.547
1347.22	60.2981
1348.81	58.494
1350.4	56.3559
1351.99	54.8505
1353.58	52.646
1355.17	51.8779
1356.75	50.9733
1358.34	49.474
1359.93	48.5715
1361.51	47.2029
1363.1	46.4276
1364.69	45.2231
1366.27	43.3833
1367.86	42.1583
1369.44	41.5275
1371.03	39.9976
1372.61	38.9839
1374.2	38.7527
1375.78	38.6294
1377.37	37.9805
1378.95	37.8969
1380.53	37.179
1382.11	36.322
1383.7	36.0825
1385.28	36.3107
1386.86	36.4618
1388.44	36.3664
1390.02	36.6328
1391.6	36.1679
1393.19	36.6924
1394.77	36.7116
1396.35	37.3429
1397.93	37.987
1399.51	38.1805
1401.08	38.6725
1402.66	39.3237
1404.24	39.2607
1405.82	39.2822
1407.4	38.6577
1408.97	39.0397
1410.55	39.653
1412.13	40.3178
1413.71	40.9819
1415.28	41.924
1416.86	43.385
1418.43	44.4985
1420.01	45.4245
1421.59	47.2214
1423.16	48.5408
1424.73	50.0711
1426.31	51.4443
1427.88	52.1601
1429.46	54.115
1431.03	56.991
1432.6	58.7409
1434.18	60.6571
1435.75	61.4002
1437.32	62.3831
1438.89	63.7569
1440.46	65.1617
1442.04	65.5763
1443.61	66.5935
1445.18	67.4156
1446.75	67.5152
1448.32	67.6222
1449.89	67.6022
1451.46	67.8103
1453.03	68.4098
1454.6	67.7401
1456.16	67.9144
1457.73	67.3259
1459.3	66.2529
1460.87	66.1483
1462.44	66.1514
1464	65.3434
1465.57	64.6972
1467.14	63.7794
1468.7	63.5271
1470.27	62.5247
1471.83	61.5339
1473.4	60.6348
1474.96	59.2287
1476.53	58.5311
1478.09	56.7643
1479.66	55.0881
1481.22	53.8266
1482.78	51.5451
1484.35	50.1873
1485.91	48.0642
1487.47	46.7809
1489.04	46.1672
1490.6	44.5297
1492.16	43.4265
1493.72	42.281
1495.28	41.5943
1496.84	40.5039
1498.4	40.0926
1499.96	38.728
1501.52	37.5193
1503.08	36.2254
1504.64	35.4854
1506.2	35.2986
1507.76	34.7105
1509.32	33.5127
1510.88	32.6067
1512.44	31.5017
1513.99	29.459
1515.55	28.3794
1517.11	27.5712
1518.66	26.7131
1520.22	25.4908
1521.78	25.3622
1523.33	24.4745
1524.89	22.5738
1526.44	22.1436
1528	22.2299
1529.55	22.5602
1531.11	23.4114
1532.66	23.0678
1534.21	22.9443
1535.77	22.6177
1537.32	22.129
1538.87	22.7985
1540.43	22.7854
1541.98	22.6448
1543.53	22.0678
1545.08	23.0312
1546.63	23.2798
1548.18	23.3383
1549.74	23.5942
1551.29	24.1041
1552.84	24.7246
1554.39	25.8255
1555.94	26.5214
1557.48	27.6283
1559.03	28.7413
1560.58	28.6576
1562.13	28.7933
1563.68	28.8006
1565.23	31.1957
1566.78	32.6098
1568.32	32.9547
1569.87	34.436
1571.42	36.3658
1572.96	37.3396
1574.51	38.9428
1576.05	41.0121
1577.6	40.9287
1579.14	42.1364
1580.69	42.5859
1582.24	42.9169
1583.78	44.2122
1585.32	44.7362
1586.87	44.7859
1588.41	45.5627
1589.95	45.8825
1591.5	45.7176
1593.04	47.3542
1594.58	47.9696
1596.12	48.3267
1597.67	48.4123
1599.21	48.1678
1600.75	47.7377
1602.29	47.1514
1603.83	47.7461
1605.37	47.9336
1606.91	47.4341
1608.45	46.5271
1609.99	45.4737
1611.53	45.2445
1613.07	44.9293
1614.6	44.864
1616.14	45.2359
1617.68	45.0797
1619.22	45.4379
1620.75	46.4973
1622.29	48.8456
1623.83	49.4865
1625.37	50.0945
1626.9	51.6925
1628.44	53.6254
1629.97	54.8097
1631.51	56.4452
1633.04	58.011
1634.58	59.9532
1636.11	61.7621
1637.65	62.8083
1639.18	65.3198
1640.72	68.1554
1642.25	70.3433
1643.78	70.9671
1645.31	72.2176
1646.85	74.5284
1648.38	76.1557
1649.91	77.1894
1651.44	78.4545
1652.97	78.8308
1654.5	78.5457
1656.03	79.3012
1657.56	79.8611
1659.1	80.5987
1660.62	80.8883
1662.15	81.088
1663.68	80.3568
1665.21	79.9505
1666.74	79.6521
1668.27	78.3154
1669.8	77.3966
1671.32	76.1822
1672.85	74.0012
1674.38	71.0959
1675.91	68.5311
1677.43	66.407
1678.96	64.306
1680.49	62.3917
1682.01	59.4626
1683.54	56.2254
1685.06	53.942
1686.59	51.2655
1688.11	48.7951
1689.64	46.4908
1691.16	44.073
1692.68	41.8882
1694.21	40.039
1695.73	37.4616
1697.25	35.5975
1698.78	33.8644
1700.3	31.4634
1701.82	29.0551
1703.34	27.7746
1704.86	26.1033
1706.39	25.054
1707.91	24.2177
1709.43	23.2572
1710.95	22.6211
1712.47	20.9889
1713.99	19.0238
1715.51	18.2819
1717.02	16.8042
1718.54	15.301
1720.06	14.6609
1721.58	14.4591
1723.1	13.8571
1724.62	13.2327
1726.13	12.3503
1727.65	11.8124
1729.17	11.8604
1730.68	11.1287
1732.2	11.1147
1733.72	10.8516
1735.23	10.1126
1736.75	9.85949
1738.26	9.86315
1739.78	9.63609
1741.29	10.2082
1742.81	10.8103
1744.32	10.3876
1745.84	10.2573
1747.35	10.4668
1748.86	9.58938
1750.37	9.15493
1751.89	9.37253
1753.4	9.74819
1754.91	9.75547
1756.42	9.15446
1757.93	8.22384
1759.45	7.32561
1760.96	7.12123
1762.47	6.55933
1763.98	6.54464
1765.49	6.57972
1767	5.7406
1768.51	5.87123
1770.02	4.44855
1771.53	4.09924
1773.03	4.41214
1774.54	4.3828
1776.05	3.85567
1777.56	3.77786
1779.07	3.90538
1780.57	4.13624
1782.08	4.03681
1783.59	3.25847
1785.09	3.02106
1786.6	2.46699
1788.11	2.71065
1789.61	2.85636
1791.12	3.37608
1792.62	3.10831
1794.13	3.4104
1795.63	3.42212
1797.13	3.24497
1798.64	2.59671
1800.14	2.38531
1801.65	2.31412
1803.15	2.39243
1804.65	2.7372
1806.15	2.60745
1807.66	2.54347
1809.16	2.10719
1810.66	2.08087
1812.16	2.47443
1813.66	2.80777
1815.16	3.33046
1816.66	3.7223
1818.16	3.41846
1819.66	2.9076
1821.16	2.78073
1822.66	2.49257
1824.16	1.64818
1825.66	1.54859
1827.16	1.80955
1828.66	2.04673
1830.16	1.7476
1831.65	1.50459
1833.15	1.72574
1834.65	1.75606
1836.14	2.09573
1837.64	2.34024
1839.14	2.73146
1840.63	2.81033
1842.13	2.38071
1843.62	2.01728
1845.12	2.20932
1846.61	3.14702
1848.11	3.11485
1849.6	4.04501
1851.1	4.01507
1852.59	4.34383
1854.08	4.16531
1855.58	5.2028
1857.07	5.70157
1858.56	6.10651
1860.05	6.71471
1861.55	7.43735
1863.04	8.11969
1864.53	7.79482
1866.02	7.78016
1867.51	7.5681
1869	7.74477
1870.49	7.58103
1871.98	8.00809
1873.47	7.64846
1874.96	7.80325
1876.45	7.9252
1877.94	8.07316
1879.43	8.29473
1880.92	7.79645
1882.41	7.90825
1882.51	8.26583
1884	8.79409
1885.5	8.86251
1886.99	8.36127
1888.48	8.7908
1889.98	8.59617
1891.47	7.9257
1892.96	7.22631
1894.46	7.95219
1895.95	7.77327
1897.44	7.70044
1898.93	8.26726
1900.42	7.97624
1901.91	8.03736
1903.41	7.54558
1904.9	7.22755
1906.39	6.86854
1907.88	7.01045
1909.37	7.15373
1910.86	7.05615
1912.35	6.69036
1913.83	6.33694
1915.32	6.71526
1916.81	7.0087
1918.3	7.53872
1919.79	7.71752
1921.27	7.58751
1922.76	7.31119
1924.25	6.7655
1925.74	7.25182
1927.22	7.32128
1928.71	7.31858
1930.19	6.34485
1931.68	6.15591
1933.17	5.83708
1934.65	5.34723
1936.14	5.00906
1937.62	4.43151
1939.11	4.48578
1940.59	4.17069
1942.07	4.01566
1943.56	3.84692
1945.04	3.50721
1946.52	3.1047
1948.01	3.03003
1949.49	3.40382
1950.97	3.45851
1952.45	3.82995
1953.93	4.06001
1955.42	4.71839
1956.9	4.85729
1958.38	4.99258
1959.86	4.69182
1961.34	4.13876
1962.82	5.05946
1964.3	4.122
1965.78	4.53045
1967.26	5.04348
1968.74	5.89699
1970.21	5.8739
1971.69	5.61547
1973.17	5.91668
1974.65	5.99253
1976.13	5.92769
1977.6	6.13013
1979.08	6.47053
1980.56	7.2785
1982.03	7.98922
1983.51	8.3112
1984.99	8.33502
1986.46	8.85202
1987.94	9.64832
1989.41	10.4094
1990.89	10.1548
1992.36	10.6417
1993.84	11.3198
1995.31	11.1838
1996.78	11.0613
1998.26	11.7514
1999.73	11.7951
2001.2	11.3522
2002.68	11.0724
2004.15	11.3439
2005.62	11.6068
2007.09	11.3831
2008.56	11.3811
2010.04	11.7418
2011.51	11.6875
2012.98	11.7664
2014.45	11.3095
2015.92	11.6009
2017.39	11.5879
2018.86	11.7365
2020.33	11.8663
2021.8	12.4813
2023.26	13.2052
2024.73	13.5053
2026.2	14.107
2027.67	14.0209
2029.14	14.8862
2030.61	14.2963
2032.07	14.2627
2033.54	13.9437
2035.01	13.5062
2036.47	14.654
2037.94	14.1149
2039.4	14.9775
2040.87	14.4634
2042.33	14.1091
2043.8	13.3095
2045.27	13.0682
2046.73	13.4491
2048.19	13.3671
2049.66	13.1837
2051.12	13.9645
2052.59	14.0445
2054.05	14.3181
2055.51	14.0107
2056.97	14.1464
2058.44	14.6629
2059.9	15.7915
2061.36	16.1095
2062.82	16.4678
2064.28	16.8166
2065.74	17.5272
2067.21	17.6225
2068.67	17.3008
2070.13	17.4997
2071.59	18.1506
2073.05	18.3324
2074.51	18.3793
2075.96	18.9102
2077.42	19.4766
2078.88	19.5788
2080.34	20.473
2081.8	20.9743
2083.26	21.2632
2084.72	21.648
2086.17	22.3277
2087.63	22.6412
2089.09	23.3771
2090.54	23.805
2092	24.8906
2093.45	26.4574
2094.91	27.8174
2096.37	28.1853
2097.82	29.0944
2099.28	29.8182
2100.73	30.9081
2102.19	32.0603
2103.64	31.9562
2105.09	33.0456
2106.55	33.9433
2108	34.5292
2109.45	35.3319
2110.91	35.6597
2112.36	36.3421
2113.81	36.7994
2115.26	38.075
2116.72	38.7453
2118.17	40.1894
2119.62	41.3868
2121.07	42.0492
2122.52	43.1177
2123.97	44.1715
2125.42	45.5527
2126.87	46.8826
2128.32	48.1031
2129.77	50.2845
2131.22	51.6228
2132.67	52.4208
2134.11	53.2743
2135.56	55.0296
2137.01	56.5069
