#Acq. time (s)=	45
#Accumulations=	2
#Range (cm-¹)=	200...3150
#Windows=	2
#Auto scanning=	Off
#Autofocus=	Off
#Macrospot=	Off
#AutoExposure=	Off
#Spike filter=	Multiple accum.
#Delay time (s)=	0
#Binning=	1
#Readout mode=	Signal
#DeNoise=	Off
#ICS correction=	On
#Dark correction=	Off
#Inst. Process=	Off
#Detector Gain=	Best Dynamic Range
#Detector ADC=	20 kHz       
#Detector temperature (°C)=	-69.85
#Instrument=	LabRAM HR Evol
#Detector=	Synapse
#Objective=	x100
#Grating=	600 gr/mm
#ND Filter=	100%
#Laser (nm)=	532 
#Hole=	100.021
#Range=	Auto
#Laser Pol.=	No
#Raman. Pol.=	No
#Laser Pol. (°)=	-0.0007625
#Raman Pol. (°)=	89.9995
#Collection=	Microscope
#StageXY=	Marzhauser
#StageZ=	Marzhauser
#X (µm)=	-6367.9
#Y (µm)=	825.8
#Z (µm)=	-64.65
#Full time(mm:ss)=	3:18
#Project=	
#Sample=	
#Site=	
#Title=	Mb_30_27_32_2x_45s_532 nm_x100_100%_600 gr_mm
#Remark=	
#Date=	13.07.2022 11:06
#Acquired=	13.07.2022 11:06:04
#Base:Fit=	10.08.2022 10:40:03
#Base:Sub=	10.08.2022 10:40:17
#Filter:Polynom=	16.08.2022 10:16:15
#AxisType[0]=Intens
#AxisUnit[0]=Cnt
#AxisType[1]=Spectr
#AxisUnit[1]=1/cm
200.563	14.3039
202.377	14.7062
204.194	14.2509
206.008	13.7299
207.821	14.0423
209.634	13.5258
211.449	13.0202
213.262	12.4198
215.074	12.0073
216.885	11.8616
218.699	11.5276
220.51	10.6455
222.321	9.82818
224.131	9.00739
225.941	8.51065
227.751	8.59075
229.562	8.10037
231.371	7.3755
233.18	7.17083
234.988	6.54603
236.796	6.33214
238.603	6.91603
240.411	6.23762
242.219	5.89207
244.026	4.72111
245.832	4.62794
247.638	4.67642
249.443	3.44716
251.248	2.78052
253.053	2.6919
254.857	2.59403
256.661	2.19061
258.465	0.773633
260.268	0.258137
262.071	1.2574
263.874	1.07302
265.678	1.59536
267.48	2.22669
269.282	2.09791
271.083	1.83891
272.884	3.66841
274.684	3.04603
276.484	2.20525
278.284	2.34883
280.084	2.02599
281.883	2.24964
283.682	3.16292
285.48	3.03816
287.276	3.65681
289.074	2.95519
290.871	4.53793
292.668	4.67646
294.465	4.93121
296.261	5.16329
298.057	3.98703
299.853	4.38523
301.648	4.91411
303.443	4.68696
305.237	5.25268
307.032	4.97065
308.823	4.34941
310.617	4.01476
312.41	4.01865
314.203	4.28426
315.995	4.24062
317.788	4.72685
319.579	5.07542
321.369	5.52714
323.16	5.63495
324.951	5.53516
326.741	6.32523
328.531	5.78265
330.321	5.07708
332.108	4.72547
333.897	4.71852
335.686	5.66393
337.474	5.85839
339.26	4.87394
341.048	4.48399
342.835	4.57388
344.622	4.93603
346.406	4.17803
348.192	4.1893
349.978	4.02659
351.764	3.92077
353.547	3.81472
355.332	3.99746
357.116	3.75565
358.901	3.45575
360.682	3.57573
362.466	3.65688
364.249	2.46004
366.03	2.47036
367.812	3.59947
369.594	4.18534
371.374	3.96245
373.155	3.59349
374.936	3.08095
376.715	3.52055
378.495	4.21975
380.273	4.941
382.053	4.58541
383.832	4.54249
385.609	4.03989
387.388	3.04566
389.164	3.48742
390.942	3.87658
392.72	3.83189
394.495	3.52464
396.272	2.90355
398.047	3.10632
399.823	3.58382
401.597	3.81108
403.372	4.40505
405.145	4.63363
406.92	5.72535
408.693	6.28387
410.467	5.8262
412.239	5.2465
414.012	5.39278
415.783	5.71984
417.556	5.75994
419.327	6.63784
421.099	6.48633
422.869	7.00012
424.64	6.4243
426.409	5.6937
428.18	4.95051
429.948	3.61816
431.718	4.53842
433.486	3.41013
435.253	2.75976
437.022	2.69229
438.789	2.5694
440.558	2.14201
442.324	2.16162
444.089	2.23872
445.857	1.9735
447.622	2.23447
449.386	2.03211
451.153	3.40811
452.917	4.12151
454.682	5.05978
456.446	5.18921
458.208	5.48721
459.973	6.0219
461.735	6.98266
463.497	8.0366
465.259	8.5024
467.022	8.95583
468.783	9.53623
470.544	10.4951
472.306	10.67
474.066	11.3325
475.825	12.2674
477.585	13.935
479.346	14.413
481.104	14.3829
482.862	16.1161
484.62	17.1422
486.38	18.2843
488.137	18.3405
489.894	18.6929
491.65	19.4098
493.407	19.3645
495.164	19.0867
496.92	19.6429
498.675	19.2887
500.43	20.0875
502.184	20.6365
503.939	21.0897
505.694	21.2345
507.448	20.0529
509.201	19.9199
510.954	19.0028
512.706	18.5834
514.459	18.6424
516.21	18.3195
517.962	17.2984
519.715	17.8674
521.466	17.1529
523.216	17.3798
524.966	16.7664
526.716	16.4091
528.466	15.4296
530.215	15.1514
531.964	14.5919
533.712	13.4503
535.46	12.5313
537.208	11.4406
538.955	10.9264
540.703	10.4917
542.449	9.36691
544.196	9.1757
545.942	8.97406
547.688	8.28375
549.433	7.84516
551.178	7.75774
552.923	7.83165
554.667	8.16188
556.412	8.54479
558.155	8.57615
559.899	8.83272
561.642	9.38171
563.385	10.3035
565.127	10.3269
566.867	10.2626
568.609	11.0148
570.35	11.7435
572.092	11.3136
573.832	13.1091
575.573	13.0643
577.313	13.8765
579.053	14.2991
580.79	14.3537
582.529	14.6506
584.268	15.3799
586.006	15.0245
587.745	15.7393
589.482	16.0488
591.218	16.4319
592.955	16.7514
594.692	16.8569
596.428	18.4742
598.164	18.1066
599.898	18.7391
601.634	19.7349
603.369	19.4104
605.104	20.0024
606.836	20.6086
608.57	20.8682
610.304	20.1306
612.037	19.7759
613.769	19.3581
615.501	19.0115
617.234	18.7442
618.966	18.182
620.696	18.6429
622.427	19.0695
624.159	19.65
625.887	19.4686
627.618	20.3508
629.348	20.9025
631.076	21.5627
632.806	21.7111
634.535	22.3308
636.262	23.4222
637.99	24.4454
639.716	24.5785
641.444	24.7886
643.172	25.5399
644.897	25.7211
646.624	26.727
648.348	26.6887
650.075	27.2508
651.801	27.0589
653.524	28.6373
655.249	29.2538
656.972	30.345
658.697	30.3261
660.419	30.7942
662.143	30.2152
663.865	30.2774
665.588	30.8309
667.309	30.7332
669.032	30.7234
670.752	30.8963
672.474	31.9232
674.194	32.5717
675.915	32.9516
677.634	33.1968
679.355	33.4553
681.073	34.6011
682.793	35.3948
684.511	35.7383
686.23	37.2858
687.947	38.3472
689.664	38.7304
691.382	40.5756
693.098	41.4389
694.816	42.1389
696.531	42.853
698.247	44.2122
699.963	44.3427
701.678	45.1133
703.392	45.8095
705.108	47.2992
706.821	48.504
708.534	48.9582
710.249	49.1886
711.962	49.8256
713.674	51.012
715.388	52.4675
717.099	52.1699
718.81	52.6589
720.523	53.2586
722.234	53.7424
723.944	54.3057
725.654	54.6656
727.365	54.6354
729.075	55.1748
730.784	55.6707
732.492	56.6504
734.202	57.2786
735.91	58.7753
737.618	59.1915
739.325	58.9373
741.034	58.3298
742.741	59.0858
744.447	59.9303
746.153	60.4056
747.859	61.5783
749.564	62.5292
751.271	63.2472
752.976	63.7617
754.681	65.1294
756.385	65.7618
758.088	66.3257
759.792	66.271
761.495	67.7777
763.2	69.4993
764.902	70.8147
766.604	71.9752
768.306	73.3451
770.008	74.3358
771.709	75.3383
773.41	76.0911
775.11	77.3942
776.811	78.6916
778.51	80.5264
780.21	81.5938
781.909	83.3077
783.608	83.9286
785.307	85.1134
787.005	86.2805
788.703	87.5145
790.401	88.8357
792.098	88.7976
793.795	88.8711
795.492	89.2542
797.188	90.0006
798.884	90.8818
800.58	90.6764
802.276	90.4192
803.971	91.4095
805.665	91.5884
807.36	92.6651
809.054	92.7625
810.748	92.9577
812.441	92.4323
814.135	93.5637
815.826	93.6
817.518	93.5353
819.21	92.5468
820.902	91.3755
822.594	90.5734
824.285	90.4375
825.976	90.8742
827.665	90.7379
829.355	90.8784
831.045	89.6405
832.735	90.7995
834.424	90.4346
836.111	88.7911
837.8	87.697
839.488	86.669
841.177	85.0024
842.864	83.4414
844.55	82.5833
846.237	82.181
847.924	81.3961
849.61	79.9366
851.295	78.7578
852.98	77.8878
854.666	76.7332
856.349	76.2098
858.034	75.8116
859.719	75.3112
861.403	76.0858
863.085	76.3745
864.769	74.4898
866.452	74.6931
868.133	73.9622
869.816	74.4001
871.498	72.7636
873.179	72.0963
874.86	71.2937
876.54	69.6953
878.221	68.8386
879.902	68.5798
881.58	68.1492
883.26	67.4376
884.938	65.4946
886.618	66.4958
888.297	66.1916
889.974	65.3773
891.653	65.9332
893.329	64.953
895.007	64.8575
896.683	64.8795
898.36	64.4555
900.035	63.2075
901.712	62.5442
903.387	61.9626
905.063	62.2134
906.737	62.5991
908.412	61.9254
910.085	61.448
911.76	60.9467
913.433	60.8451
915.107	60.2319
916.779	60.1362
918.452	59.235
920.124	58.2339
921.797	57.6165
923.467	56.8488
925.138	55.6478
926.81	54.1695
928.48	53.4875
930.151	52.8819
931.82	52.0272
933.489	50.8011
935.16	50.3293
936.828	50.0042
938.496	50.3983
940.165	50.3075
941.833	49.582
943.5	48.7689
945.168	48.4755
946.834	47.4166
948.5	46.1015
950.168	45.8803
951.834	44.4983
953.499	42.8096
955.163	41.4783
956.83	40.916
958.494	39.8699
960.158	39.3729
961.821	38.7114
963.487	38.2121
965.15	37.541
966.812	36.007
968.474	35.7884
970.138	36.3429
971.8	35.0952
973.461	34.1372
975.123	33.4037
976.783	32.7071
978.446	32.5731
980.106	33.02
981.766	31.885
983.425	32.1716
985.084	32.6969
986.743	32.995
988.402	32.7067
990.06	32.4026
991.72	32.2986
993.378	32.3702
995.035	32.4924
996.692	32.7989
998.349	33.1134
1000.01	33.0616
1001.66	32.9465
1003.32	32.2098
1004.97	31.7644
1006.63	31.1066
1008.28	31.5827
1009.94	31.6676
1011.59	31.109
1013.25	32.1609
1014.9	31.9532
1016.55	33.2814
1018.21	34.4998
1019.86	34.7582
1021.51	34.6644
1023.16	34.3259
1024.81	33.2557
1026.47	33.044
1028.12	32.9459
1029.77	32.9709
1031.42	32.2991
1033.07	32.3401
1034.72	32.9625
1036.37	33.0624
1038.02	33.1839
1039.67	31.8319
1041.31	31.6019
1042.96	31.3259
1044.61	30.5593
1046.26	30.9229
1047.91	29.6614
1049.55	28.3302
1051.2	27.9579
1052.84	27.1735
1054.49	26.3542
1056.14	25.6371
1057.78	25.7954
1059.43	26.0541
1061.07	25.8179
1062.72	24.9006
1064.36	23.8183
1066	22.6158
1067.65	21.3038
1069.29	20.0395
1070.93	18.535
1072.58	17.8235
1074.22	17.1072
1075.86	17.1006
1077.5	16.9775
1079.14	16.133
1080.78	15.1054
1082.42	14.8335
1084.06	14.5882
1085.7	14.1403
1087.34	13.3579
1088.98	12.3667
1090.62	12.7196
1092.26	11.7601
1093.9	11.5276
1095.54	12.633
1097.17	11.9474
1098.81	12.942
1100.45	12.1252
1102.09	11.4827
1103.72	11.3628
1105.36	11.2453
1106.99	10.8712
1108.63	10.5902
1110.27	10.9725
1111.9	10.9393
1113.53	10.5011
1115.17	10.684
1116.8	11.3245
1118.43	10.971
1120.07	10.161
1121.7	10.4621
1123.33	11.4783
1124.97	11.9174
1126.6	11.7756
1128.23	11.5329
1129.86	10.8257
1131.49	11.3912
1133.12	11.4287
1134.75	11.7545
1136.38	11.6514
1138.01	11.6967
1139.64	11.9841
1141.27	11.0835
1142.9	10.6597
1144.53	10.1391
1146.16	9.66776
1147.78	9.20259
1149.41	8.92568
1151.04	8.72199
1152.67	8.45243
1154.29	8.3562
1155.92	7.97973
1157.54	8.14882
1159.17	6.85241
1160.8	6.46917
1162.42	5.85401
1164.05	5.79322
1165.67	4.58179
1167.29	3.67854
1168.92	3.30987
1170.54	2.71694
1172.16	3.77435
1173.79	3.01651
1175.41	3.05889
1177.03	2.82914
1178.65	2.07121
1180.28	1.99798
1181.9	1.23089
1183.52	1.83929
1185.14	1.34413
1186.76	0.423018
1188.38	0.798307
1190	0.520392
1191.62	1.07478
1193.24	0.94196
1194.86	1.46177
1196.47	2.64465
1198.09	3.59537
1199.71	3.55288
1201.33	3.67705
1202.95	5.2321
1204.56	6.11109
1206.18	6.4308
1207.8	6.77414
1209.41	7.7276
1211.03	8.53594
1212.64	9.19997
1214.26	8.99774
1215.87	10.6434
1217.49	11.7279
1219.1	12.3193
1220.71	13.2585
1222.33	13.264
1223.94	14.2963
1225.55	14.5465
1227.16	15.5571
1228.78	16.3173
1230.39	16.5959
1232	17.1166
1233.61	17.6158
1235.22	18.2192
1236.83	19.3104
1238.44	19.8417
1240.05	20.3625
1241.66	21.092
1243.27	21.0812
1244.88	21.5706
1246.49	20.9526
1248.1	21.3067
1249.71	21.6663
1251.32	20.9946
1252.92	21.1484
1254.53	20.254
1256.14	20.5965
1257.74	19.9638
1259.35	19.508
1260.96	19.6339
1262.56	19.6523
1264.17	19.8763
1265.77	19.1366
1267.38	19.5591
1268.98	19.9596
1270.59	20.0432
1272.19	21.2178
1273.79	22.299
1275.4	22.8474
1277	23.3878
1278.6	23.1066
1280.21	23.7897
1281.81	23.8696
1283.41	24.6832
1285.01	25.4682
1286.61	26.0055
1288.21	26.9265
1289.81	27.6528
1291.41	28.1288
1293.01	29.6477
1294.61	30.0467
1296.21	31.2914
1297.81	32.0666
1299.41	32.6275
1301.01	33.8883
1302.6	34.1946
1304.2	36.396
1305.8	37.1505
1307.4	38.2941
1308.99	38.5134
1310.59	39.8123
1312.19	40.7057
1313.78	41.8316
1315.38	42.4455
1316.97	42.5143
1318.57	42.0466
1320.16	42.3769
1321.76	40.9263
1323.35	40.2752
1324.94	40.2298
1326.54	39.4978
1328.13	39.4915
1329.72	38.9782
1331.32	38.3002
1332.91	38.0024
1334.5	37.5203
1336.09	36.1703
1337.68	34.3192
1339.27	33.4129
1340.87	32.7119
1342.45	31.937
1344.04	31.0653
1345.64	30.452
1347.22	28.9281
1348.81	28.4293
1350.4	28.0686
1351.99	27.5108
1353.58	26.8441
1355.17	25.4354
1356.75	24.5306
1358.34	23.521
1359.93	23.4763
1361.51	22.6818
1363.1	22.9708
1364.69	22.1807
1366.27	20.461
1367.86	21.0429
1369.44	21.1617
1371.03	21.178
1372.61	21.1036
1374.2	19.5614
1375.78	20.1417
1377.37	20.5272
1378.95	20.3777
1380.53	20.4826
1382.11	21.0811
1383.7	21.4739
1385.28	20.82
1386.86	21.538
1388.44	21.9357
1390.02	22.0724
1391.6	21.5569
1393.19	20.9127
1394.77	20.725
1396.35	19.8798
1397.93	20.1637
1399.51	19.5741
1401.08	19.8848
1402.66	20.2892
1404.24	20.3171
1405.82	20.1974
1407.4	20.9242
1408.97	20.8187
1410.55	20.6426
1412.13	20.5551
1413.71	21.2289
1415.28	21.3553
1416.86	22.0276
1418.43	23.747
1420.01	24.9129
1421.59	25.4117
1423.16	26.5903
1424.73	26.3167
1426.31	26.9839
1427.88	29.4575
1429.46	30.4796
1431.03	32.1577
1432.6	33.162
1434.18	33.4791
1435.75	34.3457
1437.32	35.2122
1438.89	36.9059
1440.46	37.7503
1442.04	38.3106
1443.61	38.7766
1445.18	39.4592
1446.75	40.7465
1448.32	40.6621
1449.89	41.0502
1451.46	41.6491
1453.03	42.5032
1454.6	43.6028
1456.16	43.3556
1457.73	42.7015
1459.3	42.4065
1460.87	42.9757
1462.44	42.1675
1464	41.6351
1465.57	40.841
1467.14	39.5171
1468.7	38.6965
1470.27	37.8404
1471.83	37.3378
1473.4	36.69
1474.96	35.9215
1476.53	36.0525
1478.09	35.0079
1479.66	35.4379
1481.22	33.4118
1482.78	32.9627
1484.35	32.612
1485.91	31.5393
1487.47	30.1962
1489.04	29.2529
1490.6	28.7013
1492.16	27.8421
1493.72	26.227
1495.28	25.2934
1496.84	24.5864
1498.4	22.5969
1499.96	21.0023
1501.52	20.1958
1503.08	18.7626
1504.64	18.4048
1506.2	17.8409
1507.76	16.6368
1509.32	15.0506
1510.88	13.2744
1512.44	13.2378
1513.99	12.3692
1515.55	11.2296
1517.11	10.8677
1518.66	10.1864
1520.22	9.20996
1521.78	8.37901
1523.33	7.98188
1524.89	7.69682
1526.44	7.51204
1528	7.10435
1529.55	6.88025
1531.11	5.71167
1532.66	5.36074
1534.21	4.70891
1535.77	4.98519
1537.32	5.06674
1538.87	5.05631
1540.43	4.64892
1541.98	4.33058
1543.53	5.44807
1545.08	6.77936
1546.63	7.89789
1548.18	8.63846
1549.74	9.60202
1551.29	10.6537
1552.84	11.844
1554.39	12.9127
1555.94	13.0144
1557.48	13.1272
1559.03	12.8348
1560.58	13.9692
1562.13	14.4669
1563.68	14.6474
1565.23	15.0763
1566.78	15.6327
1568.32	16.1799
1569.87	16.7598
1571.42	17.5255
1572.96	17.599
1574.51	18.4063
1576.05	18.7579
1577.6	19.1389
1579.14	20.241
1580.69	20.6855
1582.24	21.5651
1583.78	23.2483
1585.32	23.5075
1586.87	24.5216
1588.41	25.5977
1589.95	26.7528
1591.5	26.49
1593.04	26.9609
1594.58	27.6898
1596.12	28.6549
1597.67	28.8764
1599.21	28.8898
1600.75	29.2726
1602.29	28.7411
1603.83	28.8309
1605.37	29.1114
1606.91	29.1979
1608.45	29.7106
1609.99	30.1341
1611.53	30.3023
1613.07	30.8897
1614.6	30.5148
1616.14	29.8078
1617.68	30.0248
1619.22	29.5861
1620.75	30.4332
1622.29	30.0455
1623.83	29.8049
1625.37	29.7767
1626.9	30.0441
1628.44	30.8971
1629.97	30.8363
1631.51	30.9295
1633.04	31.379
1634.58	32.4085
1636.11	32.831
1637.65	33.1306
1639.18	32.8877
1640.72	33.325
1642.25	33.5959
1643.78	33.6481
1645.31	34.15
1646.85	34.2084
1648.38	34.2941
1649.91	34.7433
1651.44	35.1529
1652.97	34.7118
1654.5	34.3004
1656.03	34.8447
1657.56	34.6051
1659.1	34.5396
1660.62	34.3993
1662.15	34.0459
1663.68	34.403
1665.21	33.2404
1666.74	32.5297
1668.27	31.4525
1669.8	30.4753
1671.32	29.6656
1672.85	28.9446
1674.38	27.625
1675.91	26.2205
1677.43	25.4504
1678.96	24.6115
1680.49	24.5712
1682.01	23.3779
1683.54	22.8468
1685.06	22.4669
1686.59	21.0321
1688.11	19.3195
1689.64	17.5083
1691.16	15.5177
1692.68	14.0805
1694.21	13.2375
1695.73	12.1024
1697.25	12.012
1698.78	10.9485
1700.3	10.2382
1701.82	9.78818
1703.34	9.72252
1704.86	9.51259
1706.39	9.32047
1707.91	9.58049
1709.43	9.92173
1710.95	9.25261
1712.47	8.47179
1713.99	7.87178
1715.51	7.66169
1717.02	7.55702
1718.54	6.71225
1720.06	6.64495
1721.58	7.29015
1723.1	7.27926
1724.62	7.42346
1726.13	6.9204
1727.65	6.24021
1729.17	6.55537
1730.68	6.37113
1732.2	6.33337
1733.72	5.82653
1735.23	5.95609
1736.75	6.59272
1738.26	6.36558
1739.78	6.02153
1741.29	5.08424
1742.81	5.00815
1744.32	4.86031
1745.84	5.48088
1747.35	5.32033
1748.86	5.60695
1750.37	5.86617
1751.89	5.6058
1753.4	5.88593
1754.91	6.0089
1756.42	6.05096
1757.93	5.28734
1759.45	5.46268
1760.96	4.46751
1762.47	3.17755
1763.98	2.18168
1765.49	2.33552
1767	2.03385
1768.51	2.09776
1770.02	1.42774
1771.53	1.29017
1773.03	1.06706
1774.54	0.60308
1776.05	0.818294
1777.56	1.2565
1779.07	1.46582
1780.57	1.70737
1782.08	1.73684
1783.59	1.82005
1785.09	1.81147
1786.6	1.52544
1788.11	1.52884
1789.61	0.988329
1791.12	1.00182
1792.62	0.819819
1794.13	1.29223
1795.63	1.94229
1797.13	2.42577
1798.64	2.91418
1800.14	2.78521
1801.65	2.88424
1803.15	3.54077
1804.65	4.00287
1806.15	3.55388
1807.66	3.43914
1809.16	3.6379
1810.66	4.33349
1812.16	4.58898
1813.66	4.60111
1815.16	4.83195
1816.66	5.00931
1818.16	5.3666
1819.66	5.30091
1821.16	5.80682
1822.66	5.69563
1824.16	5.6988
1825.66	5.78058
1827.16	5.82368
1828.66	6.48189
1830.16	6.57451
1831.65	6.69652
1833.15	6.73691
1834.65	6.86521
1836.14	6.49011
1837.64	6.59911
1839.14	6.70488
1840.63	7.83845
1842.13	8.00489
1843.62	8.21992
1845.12	7.5729
1846.61	7.21539
1848.11	7.61152
1849.6	8.24262
1851.1	8.4851
1852.59	8.53253
1854.08	8.19843
1855.58	7.9372
1857.07	7.52002
1858.56	7.41459
1860.05	6.8924
1861.55	6.55233
1863.04	5.9261
1864.53	5.41012
1866.02	5.57754
1867.51	6.11206
1869	5.78424
1870.49	5.73988
1871.98	5.57202
1873.47	5.5301
1874.96	5.50028
1876.45	5.3897
1877.94	5.38976
1879.43	5.02942
1880.92	4.33556
1882.41	4.32927
1882.51	5.01646
1884	5.24702
1885.5	5.6616
1886.99	5.96642
1888.48	6.19372
1889.98	6.38327
1891.47	6.98454
1892.96	6.95173
1894.46	7.26086
1895.95	6.64062
1897.44	6.51196
1898.93	6.71178
1900.42	7.06265
1901.91	6.71617
1903.41	6.50349
1904.9	6.2662
1906.39	6.5375
1907.88	6.34071
1909.37	6.38405
1910.86	6.59111
1912.35	7.09454
1913.83	7.53549
1915.32	7.04162
1916.81	7.09729
1918.3	6.77752
1919.79	7.21304
1921.27	8.10354
1922.76	7.66308
1924.25	6.67346
1925.74	6.13605
1927.22	5.27397
1928.71	5.13366
1930.19	4.72216
1931.68	4.2701
1933.17	3.65466
1934.65	3.65682
1936.14	3.34605
1937.62	3.82883
1939.11	3.79664
1940.59	3.74628
1942.07	3.29418
1943.56	3.18189
1945.04	3.30553
1946.52	3.39621
1948.01	3.59915
1949.49	3.87759
1950.97	3.84879
1952.45	4.11389
1953.93	4.50135
1955.42	5.163
1956.9	5.95312
1958.38	5.82391
1959.86	6.7142
1961.34	6.57002
1962.82	6.81091
1964.3	6.58895
1965.78	6.43343
1967.26	5.68023
1968.74	5.08477
1970.21	5.34813
1971.69	5.52425
1973.17	6.54218
1974.65	6.37627
1976.13	6.23543
1977.6	6.58214
1979.08	6.721
1980.56	6.95572
1982.03	6.73933
1983.51	6.98583
1984.99	6.81831
1986.46	7.09206
1987.94	6.38128
1989.41	5.8731
1990.89	5.98495
1992.36	5.86801
1993.84	6.10565
1995.31	5.6629
1996.78	5.41503
1998.26	4.66382
1999.73	4.17431
2001.2	3.60944
2002.68	3.25357
2004.15	2.81113
2005.62	2.45652
2007.09	2.30084
2008.56	2.21734
2010.04	1.74871
2011.51	1.88088
2012.98	1.09342
2014.45	1.23906
2015.92	0.900762
2017.39	0.839999
2018.86	1.14197
2020.33	0.780565
2021.8	1.22281
2023.26	0.936571
2024.73	0.764976
2026.2	0.799656
2027.67	0.169228
2029.14	-0.226127
2030.61	-0.549541
2032.07	-0.579486
2033.54	-0.117409
2035.01	-0.147289
2036.47	0.163392
2037.94	0.608717
2039.4	1.03764
2040.87	1.70967
2042.33	2.31088
2043.8	3.8387
2045.27	4.74068
2046.73	5.6445
2048.19	5.3951
2049.66	6.04698
2051.12	6.09034
2052.59	6.51937
2054.05	7.01603
2055.51	7.53103
2056.97	8.03698
2058.44	8.21576
2059.9	8.49476
2061.36	8.36527
2062.82	8.81742
2064.28	9.68511
2065.74	9.51022
2067.21	9.91679
2068.67	10.2242
2070.13	10.1271
2071.59	9.41937
2073.05	9.75443
2074.51	9.62786
2075.96	9.69027
2077.42	9.44866
2078.88	9.66942
2080.34	9.94964
2081.8	10.0894
2083.26	10.739
2084.72	11.565
2086.17	11.723
2087.63	12.3185
2089.09	11.9927
2090.54	11.6398
2092	11.2041
2093.45	11.2264
2094.91	11.2318
2096.37	10.3322
2097.82	10.5811
2099.28	9.83985
2100.73	9.6874
2102.19	10.3765
2103.64	11.1771
2105.09	12.2467
2106.55	13.1544
2108	13.6248
2109.45	14.0927
2110.91	14.6508
2112.36	14.612
2113.81	15.2147
2115.26	15.7659
2116.72	16.1573
2118.17	16.6955
2119.62	17.1373
2121.07	17.3402
2122.52	17.5736
2123.97	17.6911
2125.42	18.2179
2126.87	18.9476
2128.32	19.6504
2129.77	20.0614
2131.22	20.354
2132.67	21.1944
2134.11	22.1229
2135.56	22.0692
