#Acq. time (s)=	45
#Accumulations=	2
#Range (cm-¹)=	200...3150
#Windows=	2
#Auto scanning=	Off
#Autofocus=	Off
#Macrospot=	Off
#AutoExposure=	Off
#Spike filter=	Multiple accum.
#Delay time (s)=	0
#Binning=	1
#Readout mode=	Signal
#DeNoise=	Off
#ICS correction=	On
#Dark correction=	Off
#Inst. Process=	Off
#Detector Gain=	Best Dynamic Range
#Detector ADC=	20 kHz       
#Detector temperature (°C)=	-70.31
#Instrument=	LabRAM HR Evol
#Detector=	Synapse
#Objective=	x100
#Grating=	600 gr/mm
#ND Filter=	100%
#Laser (nm)=	532 
#Hole=	100.021
#Range=	Auto
#Laser Pol.=	No
#Raman. Pol.=	No
#Laser Pol. (°)=	-0.0007625
#Raman Pol. (°)=	89.9995
#Collection=	Microscope
#StageXY=	Marzhauser
#StageZ=	Marzhauser
#X (µm)=	-6389.2
#Y (µm)=	877.9
#Z (µm)=	-65
#Full time(mm:ss)=	3:18
#Project=	
#Sample=	
#Site=	
#Title=	Mb_30_27_22_2x_45s_532 nm_x100_100%_600 gr_mm
#Remark=	
#Date=	13.07.2022 10:15
#Acquired=	13.07.2022 10:15:00
#Base:Fit=	10.08.2022 10:40:03
#Base:Sub=	10.08.2022 10:40:17
#Filter:Polynom=	16.08.2022 10:16:15
#AxisType[0]=Intens
#AxisUnit[0]=Cnt
#AxisType[1]=Spectr
#AxisUnit[1]=1/cm
200.563	8.47199
202.377	10.4457
204.194	10.1908
206.008	10.022
207.821	9.626
209.634	9.34353
211.449	9.39939
213.262	10.2343
215.074	10.2533
216.885	10.5639
218.699	11.4895
220.51	12.1038
222.321	12.9019
224.131	13.7851
225.941	12.7044
227.751	11.9471
229.562	12.6792
231.371	12.5752
233.18	12.1168
234.988	13.0422
236.796	12.1746
238.603	12.0631
240.411	12.0076
242.219	12.8385
244.026	12.5545
245.832	13.5697
247.638	13.6422
249.443	13.4001
251.248	13.3474
253.053	13.6994
254.857	12.9003
256.661	13.557
258.465	14.3384
260.268	14.0443
262.071	13.7947
263.874	13.1761
265.678	13.6858
267.48	13.1567
269.282	12.4555
271.083	11.7189
272.884	12.159
274.684	11.7219
276.484	12.1095
278.284	11.6478
280.084	10.8632
281.883	11.9598
283.682	11.8096
285.48	11.5628
287.276	11.3731
289.074	11.2401
290.871	10.7707
292.668	10.2247
294.465	11.1082
296.261	11.3195
298.057	13.1882
299.853	13.7659
301.648	14.4362
303.443	13.7909
305.237	13.5508
307.032	14.0158
308.823	14.4758
310.617	13.4426
312.41	12.6858
314.203	11.9705
315.995	10.9523
317.788	11.6813
319.579	12.4069
321.369	12.7378
323.16	12.3032
324.951	12.3493
326.741	11.3465
328.531	11.726
330.321	11.2346
332.108	10.9745
333.897	10.7432
335.686	10.7104
337.474	9.83007
339.26	9.50061
341.048	9.10922
342.835	7.61725
344.622	7.35621
346.406	6.89183
348.192	6.22684
349.978	5.39982
351.764	5.26787
353.547	4.27653
355.332	5.05799
357.116	4.02427
358.901	3.68401
360.682	3.263
362.466	3.1577
364.249	2.77826
366.03	2.2672
367.812	2.8624
369.594	3.30131
371.374	3.90795
373.155	4.21985
374.936	3.81396
376.715	4.91571
378.495	5.54968
380.273	4.64443
382.053	5.48024
383.832	5.93469
385.609	5.68475
387.388	7.39578
389.164	6.56883
390.942	6.35678
392.72	5.73426
394.495	5.8487
396.272	6.41729
398.047	6.01891
399.823	5.63235
401.597	6.19247
403.372	6.63192
405.145	7.08945
406.92	8.2348
408.693	7.91232
410.467	7.69589
412.239	6.65585
414.012	6.30203
415.783	6.32232
417.556	6.1764
419.327	6.18301
421.099	6.30475
422.869	6.29091
424.64	5.70166
426.409	5.45352
428.18	5.32199
429.948	5.20538
431.718	3.99161
433.486	4.18335
435.253	4.13846
437.022	3.66096
438.789	4.59466
440.558	5.23257
442.324	5.39618
444.089	6.91418
445.857	6.63724
447.622	6.28736
449.386	6.79986
451.153	6.79071
452.917	7.0979
454.682	7.0411
456.446	7.24457
458.208	6.75507
459.973	7.72754
461.735	8.41789
463.497	8.49937
465.259	9.44851
467.022	9.87613
468.783	9.00245
470.544	10.8341
472.306	11.4278
474.066	11.6411
475.825	13.8865
477.585	13.5127
479.346	13.9311
481.104	13.8644
482.862	14.7122
484.62	16.6056
486.38	17.067
488.137	18.2768
489.894	18.463
491.65	18.3805
493.407	19.3553
495.164	19.7252
496.92	19.8383
498.675	21.6516
500.43	22.2107
502.184	22.5141
503.939	23.6118
505.694	23.2429
507.448	23.032
509.201	23.201
510.954	24.1357
512.706	25.3225
514.459	25.2642
516.21	26.2329
517.962	25.7871
519.715	24.9252
521.466	26.1707
523.216	26.3868
524.966	25.6723
526.716	26.0998
528.466	24.4809
530.215	23.8208
531.964	23.2933
533.712	21.8114
535.46	21.3321
537.208	20.266
538.955	18.8446
540.703	18.8413
542.449	17.5292
544.196	16.3938
545.942	16.1298
547.688	16.6142
549.433	16.3507
551.178	16.1302
552.923	14.5392
554.667	12.8753
556.412	10.7954
558.155	10.563
559.899	9.40334
561.642	9.18856
563.385	10.1569
565.127	9.1859
566.867	8.06626
568.609	7.5912
570.35	8.19707
572.092	7.70615
573.832	7.05582
575.573	6.25581
577.313	5.88956
579.053	5.97459
580.79	6.03982
582.529	5.95466
584.268	6.35884
586.006	6.54996
587.745	5.3755
589.482	4.58804
591.218	3.46873
592.955	3.01634
594.692	3.04531
596.428	3.49582
598.164	3.68409
599.898	3.21666
601.634	3.49912
603.369	3.25374
605.104	3.90119
606.836	5.12477
608.57	5.5872
610.304	5.32673
612.037	5.24208
613.769	5.99396
615.501	4.9533
617.234	6.12819
618.966	5.92281
620.696	5.37642
622.427	6.02669
624.159	6.02334
625.887	7.34414
627.618	7.86334
629.348	7.72332
631.076	7.77036
632.806	9.45579
634.535	10.0924
636.262	10.1121
637.99	10.0042
639.716	8.60126
641.444	8.28292
643.172	9.31313
644.897	10.7782
646.624	12.4759
648.348	13.981
650.075	15.3232
651.801	15.7245
653.524	16.1515
655.249	17.3376
656.972	18.0301
658.697	17.9661
660.419	18.6344
662.143	19.4835
663.865	20.3072
665.588	20.4137
667.309	20.788
669.032	22.0295
670.752	22.8568
672.474	23.788
674.194	24.472
675.915	25.0088
677.634	25.9836
679.355	27.3588
681.073	27.5367
682.793	28.9279
684.511	29.5577
686.23	30.0975
687.947	30.6955
689.664	30.7845
691.382	32.1146
693.098	32.0217
694.816	31.0032
696.531	30.5252
698.247	30.9291
699.963	31.4643
701.678	30.8228
703.392	31.4766
705.108	31.9223
706.821	32.225
708.534	33.4662
710.249	34.2114
711.962	34.3709
713.674	34.387
715.388	36.2219
717.099	36.6966
718.81	37.3669
720.523	37.1946
722.234	37.8635
723.944	38.2847
725.654	38.3902
727.365	40.4792
729.075	42.2031
730.784	43.0515
732.492	44.5166
734.202	45.0868
735.91	46.8329
737.618	47.5253
739.325	48.6175
741.034	49.8886
742.741	50.9287
744.447	52.0772
746.153	54.1619
747.859	55.9989
749.564	57.484
751.271	59.1543
752.976	61.1283
754.681	62.742
756.385	64.597
758.088	65.9491
759.792	66.6914
761.495	67.8761
763.2	68.7242
764.902	69.3182
766.604	69.7846
768.306	71.4582
770.008	71.988
771.709	73.0537
773.41	72.4131
775.11	73.4271
776.811	73.073
778.51	74.4558
780.21	74.0545
781.909	75.1495
783.608	76.7604
785.307	77.861
787.005	78.1172
788.703	79.1324
790.401	79.7636
792.098	80.5699
793.795	81.8712
795.492	82.3086
797.188	82.845
798.884	84.2394
800.58	84.5878
802.276	83.9912
803.971	84.274
805.665	84.6952
807.36	85.0671
809.054	84.3742
810.748	83.6516
812.441	83.9097
814.135	82.4041
815.826	81.9299
817.518	80.9727
819.21	79.8477
820.902	79.9027
822.594	79.973
824.285	79.4746
825.976	78.8653
827.665	77.5695
829.355	77.5428
831.045	76.9671
832.735	75.6115
834.424	74.7869
836.111	73.4557
837.8	71.2123
839.488	68.7628
841.177	67.8134
842.864	66.4852
844.55	65.1015
846.237	64.8834
847.924	63.7452
849.61	61.9449
851.295	60.6761
852.98	60.5897
854.666	58.7478
856.349	56.9125
858.034	54.0306
859.719	54.1019
861.403	53.752
863.085	54.2069
864.769	52.4557
866.452	52.5974
868.133	52.9478
869.816	53.2523
871.498	52.7276
873.179	51.8626
874.86	51.5303
876.54	51.8219
878.221	51.4078
879.902	51.9525
881.58	52.9083
883.26	53.0931
884.938	51.5516
886.618	51.9502
888.297	51.66
889.974	50.5131
891.653	49.5146
893.329	49.1288
895.007	49.3608
896.683	49.8261
898.36	49.5132
900.035	50.2069
901.712	49.4487
903.387	50.0466
905.063	51.1379
906.737	51.3575
908.412	49.5297
910.085	49.7687
911.76	49.1714
913.433	49.0404
915.107	49.2448
916.779	48.3697
918.452	47.4929
920.124	46.8932
921.797	45.9992
923.467	46.1816
925.138	46.3077
926.81	45.8623
928.48	45.0723
930.151	45.4361
931.82	43.6006
933.489	42.5325
935.16	42.7185
936.828	42.4538
938.496	41.4861
940.165	41.2233
941.833	39.6223
943.5	40.289
945.168	40.5316
946.834	39.2025
948.5	39.2365
950.168	39.3576
951.834	39.666
953.499	39.6165
955.163	39.2522
956.83	39.0515
958.494	39.121
960.158	38.2991
961.821	37.4674
963.487	36.9998
965.15	37.0484
966.812	36.4317
968.474	35.6416
970.138	35.6351
971.8	35.5403
973.461	35.1857
975.123	36.3335
976.783	36.3411
978.446	36.4063
980.106	36.097
981.766	35.2615
983.425	34.7412
985.084	33.3585
986.743	33.7979
988.402	33.6546
990.06	32.8514
991.72	31.95
993.378	31.7443
995.035	30.8751
996.692	29.7584
998.349	29.0367
1000.01	26.0817
1001.66	23.8616
1003.32	21.9392
1004.97	20.6413
1006.63	20.9909
1008.28	22.1542
1009.94	24.1007
1011.59	26.388
1013.25	29.3244
1014.9	31.7646
1016.55	35.6824
1018.21	38.5252
1019.86	40.5552
1021.51	43.3964
1023.16	45.667
1024.81	47.5757
1026.47	51.9961
1028.12	54.7047
1029.77	55.906
1031.42	58.6814
1033.07	60.4554
1034.72	62.6621
1036.37	63.3628
1038.02	63.2236
1039.67	64.1637
1041.31	63.618
1042.96	64.0898
1044.61	65.1169
1046.26	65.6546
1047.91	66.3962
1049.55	65.1471
1051.2	64.8066
1052.84	64.2827
1054.49	63.9358
1056.14	62.9655
1057.78	61.3153
1059.43	58.106
1061.07	55.6149
1062.72	53.3875
1064.36	50.4301
1066	47.4393
1067.65	43.7665
1069.29	40.3337
1070.93	36.4535
1072.58	32.8021
1074.22	29.2645
1075.86	25.3719
1077.5	21.7275
1079.14	18.7807
1080.78	15.842
1082.42	13.3429
1084.06	12.1898
1085.7	13.068
1087.34	14.5838
1088.98	16.0021
1090.62	17.1987
1092.26	17.796
1093.9	18.63
1095.54	19.6864
1097.17	20.0879
1098.81	19.4299
1100.45	19.2599
1102.09	19.8
1103.72	20.5266
1105.36	20.6066
1106.99	20.3973
1108.63	20.7624
1110.27	20.2265
1111.9	19.7731
1113.53	20.3207
1115.17	20.2374
1116.8	19.7322
1118.43	18.7575
1120.07	19.0535
1121.7	19.7495
1123.33	18.8985
1124.97	18.2878
1126.6	16.788
1128.23	16.7788
1129.86	16.5243
1131.49	14.8958
1133.12	14.6366
1134.75	13.29
1136.38	12.3529
1138.01	11.6775
1139.64	10.6981
1141.27	10.073
1142.9	9.11803
1144.53	9.04207
1146.16	8.29432
1147.78	8.26752
1149.41	8.15727
1151.04	7.93113
1152.67	7.92327
1154.29	7.34459
1155.92	6.86835
1157.54	5.56512
1159.17	5.91731
1160.8	6.87491
1162.42	6.83045
1164.05	7.02912
1165.67	7.66014
1167.29	9.11547
1168.92	9.24966
1170.54	9.74883
1172.16	10.5401
1173.79	10.8881
1175.41	10.7394
1177.03	11.3804
1178.65	10.7314
1180.28	10.0217
1181.9	11.3689
1183.52	10.9792
1185.14	10.7387
1186.76	10.2452
1188.38	10.6549
1190	10.9602
1191.62	10.593
1193.24	9.29975
1194.86	9.80421
1196.47	10.7698
1198.09	10.8174
1199.71	10.3464
1201.33	10.7213
1202.95	10.5657
1204.56	10.6978
1206.18	10.8271
1207.8	11.3273
1209.41	12.9255
1211.03	12.521
1212.64	13.6421
1214.26	14.8954
1215.87	15.3733
1217.49	16.8984
1219.1	18.4891
1220.71	19.7209
1222.33	20.8956
1223.94	20.8496
1225.55	22.4567
1227.16	23.2495
1228.78	24.2634
1230.39	24.6399
1232	25.3365
1233.61	26.4578
1235.22	27.8637
1236.83	28.9768
1238.44	30.7173
1240.05	33.7768
1241.66	35.1902
1243.27	36.8927
1244.88	38.4341
1246.49	40.6359
1248.1	41.2579
1249.71	40.7378
1251.32	41.6824
1252.92	41.8834
1254.53	41.9634
1256.14	42.0831
1257.74	42.8516
1259.35	43.201
1260.96	43.8978
1262.56	44.0774
1264.17	44.3434
1265.77	45.7028
1267.38	45.9194
1268.98	46.9218
1270.59	47.0969
1272.19	47.9878
1273.79	48.9225
1275.4	51.0237
1277	50.9766
1278.6	49.8743
1280.21	50.5163
1281.81	51.5689
1283.41	51.7327
1285.01	51.5102
1286.61	51.7084
1288.21	51.0788
1289.81	52.0811
1291.41	52.3098
1293.01	53.0911
1294.61	52.4272
1296.21	52.5382
1297.81	53.5765
1299.41	54.3873
1301.01	54.3192
1302.6	54.431
1304.2	53.9428
1305.8	55.2796
1307.4	55.0766
1308.99	56.3473
1310.59	56.9069
1312.19	57.2541
1313.78	58.0463
1315.38	58.5446
1316.97	58.3927
1318.57	59.9051
1320.16	59.8071
1321.76	58.9002
1323.35	58.9766
1324.94	59.123
1326.54	58.7524
1328.13	58.4205
1329.72	58.4839
1331.32	59.3264
1332.91	59.2596
1334.5	59.6021
1336.09	58.8839
1337.68	58.645
1339.27	58.4466
1340.87	57.343
1342.45	56.8406
1344.04	57.7939
1345.64	56.9015
1347.22	55.6827
1348.81	55.133
1350.4	55.0628
1351.99	53.57
1353.58	51.9752
1355.17	51.2369
1356.75	49.4653
1358.34	49.0238
1359.93	49.0861
1361.51	48.3745
1363.1	47.9666
1364.69	46.9363
1366.27	47.2304
1367.86	46.6351
1369.44	46.4043
1371.03	44.9406
1372.61	44.1264
1374.2	43.5247
1375.78	43.1167
1377.37	44.044
1378.95	43.4989
1380.53	42.383
1382.11	42.2005
1383.7	41.1238
1385.28	40.749
1386.86	40.5417
1388.44	41.0654
1390.02	41.6206
1391.6	41.708
1393.19	42.4553
1394.77	43.2348
1396.35	42.8365
1397.93	43.4992
1399.51	43.4164
1401.08	43.9421
1402.66	44.7763
1404.24	45.8533
1405.82	45.391
1407.4	46.2059
1408.97	47.2853
1410.55	48.411
1412.13	48.7987
1413.71	49.6384
1415.28	50.3877
1416.86	51.4025
1418.43	53.4172
1420.01	54.8975
1421.59	57.1565
1423.16	58.7195
1424.73	59.911
1426.31	60.9911
1427.88	62.4449
1429.46	64.1577
1431.03	65.2023
1432.6	67.1389
1434.18	69.3197
1435.75	71.2181
1437.32	73.3871
1438.89	74.4645
1440.46	75.4985
1442.04	75.9901
1443.61	76.1745
1445.18	76.5802
1446.75	76.1482
1448.32	75.3722
1449.89	75.4151
1451.46	76.0267
1453.03	75.9091
1454.6	75.4243
1456.16	75.3273
1457.73	73.9412
1459.3	73.2754
1460.87	72.4952
1462.44	71.5933
1464	70.9607
1465.57	70.3541
1467.14	68.9238
1468.7	68.4165
1470.27	66.9901
1471.83	65.9188
1473.4	64.9215
1474.96	62.9734
1476.53	62.6281
1478.09	61.7822
1479.66	60.0003
1481.22	58.3053
1482.78	56.5457
1484.35	54.1229
1485.91	52.9604
1487.47	51.5044
1489.04	49.1604
1490.6	47.2401
1492.16	45.8131
1493.72	44.0642
1495.28	42.5339
1496.84	41.9531
1498.4	39.7486
1499.96	38.6506
1501.52	37.4736
1503.08	35.4764
1504.64	34.2894
1506.2	33.7557
1507.76	33.1822
1509.32	32.267
1510.88	31.0386
1512.44	29.7678
1513.99	28.5699
1515.55	27.0341
1517.11	25.6328
1518.66	24.5273
1520.22	23.4782
1521.78	22.2974
1523.33	20.9937
1524.89	20.2997
1526.44	19.7877
1528	20.1132
1529.55	19.7189
1531.11	19.3116
1532.66	18.9989
1534.21	19.0529
1535.77	19.2736
1537.32	19.3419
1538.87	19.3936
1540.43	19.9869
1541.98	19.8717
1543.53	20.1096
1545.08	21.2077
1546.63	22.8418
1548.18	23.8132
1549.74	23.7535
1551.29	24.2835
1552.84	24.2547
1554.39	24.9748
1555.94	24.5138
1557.48	24.8501
1559.03	25.4373
1560.58	26.7027
1562.13	27.7049
1563.68	28.5939
1565.23	29.7116
1566.78	30.1784
1568.32	31.3811
1569.87	31.9917
1571.42	33.3555
1572.96	34.518
1574.51	35.507
1576.05	36.7505
1577.6	38.3049
1579.14	39.1626
1580.69	40.1017
1582.24	42.2119
1583.78	43.6229
1585.32	44.2213
1586.87	44.3594
1588.41	44.297
1589.95	44.3158
1591.5	45.3313
1593.04	45.7061
1594.58	45.5022
1596.12	45.5554
1597.67	45.9832
1599.21	45.2635
1600.75	45.5264
1602.29	45.8833
1603.83	46.1123
1605.37	45.8639
1606.91	45.698
1608.45	45.437
1609.99	45.4327
1611.53	45.7227
1613.07	45.9528
1614.6	46.4413
1616.14	47.1779
1617.68	47.0697
1619.22	47.2965
1620.75	47.7855
1622.29	49.1046
1623.83	49.0507
1625.37	48.3177
1626.9	47.4137
1628.44	48.1292
1629.97	49.2721
1631.51	50.0605
1633.04	50.2602
1634.58	52.2258
1636.11	53.6127
1637.65	54.8119
1639.18	55.7118
1640.72	56.0826
1642.25	56.7913
1643.78	57.0703
1645.31	58.3077
1646.85	58.1962
1648.38	59.6165
1649.91	59.4445
1651.44	60.5252
1652.97	60.6819
1654.5	60.5355
1656.03	61.3855
1657.56	61.1068
1659.1	61.1011
1660.62	60.7459
1662.15	58.8058
1663.68	57.8504
1665.21	56.4332
1666.74	55.2238
1668.27	53.9279
1669.8	52.3178
1671.32	50.3052
1672.85	48.7682
1674.38	47.1766
1675.91	45.1611
1677.43	44.9771
1678.96	43.1412
1680.49	41.3069
1682.01	39.2889
1683.54	38.3236
1685.06	37.0562
1686.59	36.1096
1688.11	34.6108
1689.64	33.44
1691.16	32.2454
1692.68	30.3363
1694.21	28.1256
1695.73	26.7602
1697.25	24.3228
1698.78	22.062
1700.3	19.7986
1701.82	18.7726
1703.34	18.0046
1704.86	17.2739
1706.39	15.9487
1707.91	14.9442
1709.43	14.3215
1710.95	13.9291
1712.47	12.7028
1713.99	11.6768
1715.51	10.6938
1717.02	9.06018
1718.54	8.08352
1720.06	7.23885
1721.58	7.27748
1723.1	6.27729
1724.62	5.94475
1726.13	4.97455
1727.65	4.54203
1729.17	3.42132
1730.68	3.58026
1732.2	3.53508
1733.72	2.58261
1735.23	3.21361
1736.75	2.41215
1738.26	1.4339
1739.78	1.07821
1741.29	0.459658
1742.81	0.366273
1744.32	0.446395
1745.84	0.489214
1747.35	-0.143902
1748.86	0.083626
1750.37	0.575261
1751.89	0.59713
1753.4	0.530068
1754.91	-0.0634047
1756.42	0.0822739
1757.93	0.405897
1759.45	1.18353
1760.96	1.58954
1762.47	1.41205
1763.98	1.7155
1765.49	1.96975
1767	1.85449
1768.51	1.40567
1770.02	1.53905
1771.53	1.5597
1773.03	1.40989
1774.54	2.092
1776.05	2.83743
1777.56	3.5172
1779.07	3.45007
1780.57	3.74683
1782.08	4.01311
1783.59	4.2991
1785.09	4.30843
1786.6	4.47844
1788.11	4.55957
1789.61	5.12081
1791.12	4.65278
1792.62	4.57282
1794.13	4.58349
1795.63	4.4181
1797.13	4.08213
1798.64	3.4285
1800.14	3.43214
1801.65	3.59898
1803.15	3.25148
1804.65	3.62403
1806.15	3.39574
1807.66	3.33393
1809.16	3.33155
1810.66	3.28013
1812.16	2.53674
1813.66	2.18023
1815.16	2.05339
1816.66	2.12365
1818.16	1.95222
1819.66	1.73337
1821.16	1.45527
1822.66	0.771923
1824.16	0.765892
1825.66	0.881095
1827.16	0.826463
1828.66	1.01567
1830.16	1.38367
1831.65	1.18665
1833.15	1.55529
1834.65	1.67948
1836.14	1.68354
1837.64	1.55683
1839.14	1.59541
1840.63	1.19231
1842.13	0.7269
1843.62	0.914798
1845.12	1.15771
1846.61	1.36257
1848.11	1.25398
1849.6	1.6741
1851.1	2.02386
1852.59	2.35032
1854.08	2.32668
1855.58	2.21553
1857.07	1.61897
1858.56	1.41006
1860.05	1.70721
1861.55	1.63502
1863.04	1.26759
1864.53	1.68747
1866.02	1.68335
1867.51	2.34998
1869	2.62035
1870.49	2.90208
1871.98	3.02027
1873.47	3.87257
1874.96	3.96129
1876.45	3.64313
1877.94	3.27015
1879.43	3.45018
1880.92	4.45163
1882.41	5.08589
1882.51	5.27284
1884	5.85508
1885.5	6.32018
1886.99	6.45823
1888.48	6.28974
1889.98	6.59568
1891.47	6.46748
1892.96	5.86968
1894.46	6.19095
1895.95	6.47878
1897.44	6.64691
1898.93	6.32665
1900.42	5.86421
1901.91	5.98669
1903.41	6.0925
1904.9	5.87882
1906.39	6.03943
1907.88	5.90722
1909.37	5.66633
1910.86	5.48705
1912.35	5.64772
1913.83	6.40677
1915.32	7.10989
1916.81	6.87078
1918.3	6.61987
1919.79	6.18986
1921.27	5.85861
1922.76	5.79231
1924.25	6.14537
1925.74	5.63332
1927.22	5.04822
1928.71	4.89671
1930.19	5.00637
1931.68	5.03204
1933.17	5.60056
1934.65	5.21544
1936.14	4.69868
1937.62	5.13614
1939.11	4.99505
1940.59	4.87487
1942.07	4.7152
1943.56	4.56678
1945.04	4.43478
1946.52	4.59113
1948.01	4.53383
1949.49	4.32501
1950.97	4.53945
1952.45	5.25327
1953.93	5.85906
1955.42	4.6161
1956.9	4.68327
1958.38	4.69304
1959.86	4.33521
1961.34	3.1686
1962.82	3.11707
1964.3	2.65123
1965.78	2.16511
1967.26	2.22752
1968.74	2.85857
1970.21	2.47871
1971.69	1.8792
1973.17	2.57103
1974.65	3.06303
1976.13	4.07252
1977.6	3.53341
1979.08	3.32395
1980.56	3.76922
1982.03	3.51462
1983.51	3.19808
1984.99	3.74893
1986.46	4.09319
1987.94	4.22284
1989.41	3.69811
1990.89	2.83369
1992.36	2.92316
1993.84	3.10529
1995.31	3.81063
1996.78	4.39625
1998.26	4.30167
1999.73	4.01533
2001.2	4.74218
2002.68	5.51904
2004.15	5.56907
2005.62	5.93991
2007.09	6.16138
2008.56	5.6275
2010.04	5.77357
2011.51	5.97414
2012.98	5.44191
2014.45	5.64853
2015.92	5.90517
2017.39	6.76951
2018.86	6.62709
2020.33	6.68732
2021.8	6.21887
2023.26	5.65736
2024.73	5.68741
2026.2	6.0831
2027.67	6.05795
2029.14	5.95059
2030.61	6.46162
2032.07	6.96261
2033.54	6.6172
2035.01	6.37254
2036.47	6.66527
2037.94	6.90179
2039.4	7.63989
2040.87	7.70269
2042.33	8.14954
2043.8	7.71579
2045.27	8.16563
2046.73	8.65831
2048.19	8.12135
2049.66	7.74218
2051.12	6.64392
2052.59	7.1439
2054.05	6.92937
2055.51	6.48649
2056.97	6.57627
2058.44	7.5131
2059.9	7.70119
2061.36	8.08849
2062.82	8.60645
2064.28	8.91318
2065.74	9.4886
2067.21	10.2106
2068.67	11.0861
2070.13	11.1668
2071.59	11.1205
2073.05	12.0072
2074.51	12.2049
2075.96	12.0839
2077.42	12.2681
2078.88	12.7227
2080.34	12.7383
2081.8	12.9978
2083.26	13.302
2084.72	13.7773
2086.17	14.0701
2087.63	15.401
2089.09	15.9443
2090.54	16.6369
2092	16.1695
2093.45	16.7056
2094.91	16.7762
2096.37	17.8541
2097.82	18.3281
2099.28	19.0235
2100.73	19.5924
2102.19	19.6808
2103.64	20.7499
2105.09	21.6456
2106.55	22.2683
2108	22.638
2109.45	22.9935
2110.91	23.811
2112.36	23.5805
2113.81	23.7544
2115.26	23.7977
2116.72	23.9984
2118.17	24.7735
2119.62	25.2474
2121.07	25.6681
2122.52	26.4699
2123.97	27.3701
2125.42	28.4289
2126.87	29.0712
2128.32	30.5061
2129.77	31.7936
2131.22	32.8113
2132.67	34.5461
2134.11	35.6953
2135.56	37.6103
