#Acq. time (s)=	45
#Accumulations=	2
#Range (cm-¹)=	200...3150
#Windows=	2
#Auto scanning=	Off
#Autofocus=	Off
#Macrospot=	Off
#AutoExposure=	Off
#Spike filter=	Multiple accum.
#Delay time (s)=	0
#Binning=	1
#Readout mode=	Signal
#DeNoise=	Off
#ICS correction=	On
#Dark correction=	Off
#Inst. Process=	Off
#Detector Gain=	Best Dynamic Range
#Detector ADC=	20 kHz       
#Detector temperature (°C)=	-69.85
#Instrument=	LabRAM HR Evol
#Detector=	Synapse
#Objective=	x100
#Grating=	600 gr/mm
#ND Filter=	100%
#Laser (nm)=	532 
#Hole=	100.021
#Range=	Auto
#Laser Pol.=	No
#Raman. Pol.=	No
#Laser Pol. (°)=	-0.0007625
#Raman Pol. (°)=	89.9995
#Collection=	Microscope
#StageXY=	Marzhauser
#StageZ=	Marzhauser
#X (µm)=	-6356.8
#Y (µm)=	812.8
#Z (µm)=	-64.95
#Full time(mm:ss)=	3:18
#Project=	
#Sample=	
#Site=	
#Title=	Mb_30_27_34_2x_45s_532 nm_x100_100%_600 gr_mm
#Remark=	
#Date=	13.07.2022 11:15
#Acquired=	13.07.2022 11:15:41
#Edit:Spike=	13.07.2022 11:20:01
#Base:Fit=	10.08.2022 10:40:03
#Base:Sub=	10.08.2022 10:40:17
#Filter:Polynom=	16.08.2022 10:16:15
#AxisType[0]=Intens
#AxisUnit[0]=Cnt
#AxisType[1]=Spectr
#AxisUnit[1]=1/cm
200.563	66.8556
202.377	65.6447
204.194	62.4287
206.008	59.8819
207.821	57.2479
209.634	54.8723
211.449	51.9511
213.262	49.1396
215.074	45.613
216.885	42.1796
218.699	38.0141
220.51	34.6585
222.321	31.409
224.131	28.4014
225.941	26.0079
227.751	24.5948
229.562	23.6783
231.371	22.1143
233.18	21.4766
234.988	20.368
236.796	19.217
238.603	18.2648
240.411	17.3303
242.219	16.1266
244.026	15.0954
245.832	14.8036
247.638	14.0917
249.443	14.0629
251.248	13.951
253.053	12.8741
254.857	11.792
256.661	10.2031
258.465	10.1071
260.268	9.02995
262.071	8.81243
263.874	8.78781
265.678	8.38871
267.48	8.86643
269.282	8.20482
271.083	8.69496
272.884	9.06246
274.684	9.36296
276.484	8.19905
278.284	7.68766
280.084	6.82598
281.883	6.72856
283.682	6.97432
285.48	7.48994
287.276	8.37817
289.074	8.67459
290.871	8.39473
292.668	8.56397
294.465	8.21691
296.261	8.2022
298.057	7.78794
299.853	6.82578
301.648	5.60415
303.443	4.90651
305.237	3.55465
307.032	3.73379
308.823	3.29125
310.617	4.14006
312.41	4.04628
314.203	4.74904
315.995	5.71307
317.788	6.40653
319.579	7.1916
321.369	7.19691
323.16	8.09441
324.951	8.15809
326.741	8.77509
328.531	8.79163
330.321	9.06521
332.108	9.35432
333.897	9.28756
335.686	9.59319
337.474	9.56621
339.26	10.2005
341.048	9.90125
342.835	9.57757
344.622	8.78737
346.406	7.61267
348.192	7.19928
349.978	6.78253
351.764	6.52457
353.547	7.04765
355.332	6.56082
357.116	6.11949
358.901	5.47819
360.682	5.19172
362.466	4.85497
364.249	4.87214
366.03	4.19626
367.812	5.53295
369.594	5.58703
371.374	7.02239
373.155	6.48911
374.936	6.93754
376.715	8.27632
378.495	7.67626
380.273	8.1031
382.053	8.61233
383.832	8.12331
385.609	8.66133
387.388	8.29048
389.164	8.52178
390.942	8.41191
392.72	8.22924
394.495	7.30427
396.272	8.6803
398.047	8.1016
399.823	7.46532
401.597	7.90885
403.372	7.65483
405.145	7.9725
406.92	8.25561
408.693	7.87573
410.467	7.85753
412.239	7.94291
414.012	7.72724
415.783	7.20117
417.556	6.79001
419.327	6.85561
421.099	6.0491
422.869	4.90746
424.64	6.0278
426.409	6.4229
428.18	6.1272
429.948	4.67382
431.718	3.65199
433.486	2.57521
435.253	2.79073
437.022	2.29226
438.789	2.47239
440.558	2.36896
442.324	3.03644
444.089	3.09798
445.857	3.49658
447.622	3.78747
449.386	4.64359
451.153	6.71661
452.917	7.87197
454.682	7.94258
456.446	8.82442
458.208	9.62358
459.973	10.2321
461.735	9.37591
463.497	10.6984
465.259	11.5947
467.022	11.4504
468.783	12.8309
470.544	13.4205
472.306	14.4598
474.066	15.8254
475.825	16.2907
477.585	16.8379
479.346	17.4634
481.104	17.2099
482.862	17.6666
484.62	19.0177
486.38	19.0795
488.137	20.1812
489.894	21.9377
491.65	21.8688
493.407	23.6779
495.164	24.8342
496.92	25.4502
498.675	26.7511
500.43	28.5531
502.184	28.3218
503.939	28.8505
505.694	29.7155
507.448	29.4335
509.201	29.5123
510.954	30.4269
512.706	31.3372
514.459	30.8755
516.21	31.0477
517.962	31.7
519.715	32.123
521.466	32.2329
523.216	32.3967
524.966	32.005
526.716	32.6222
528.466	32.7129
530.215	32.5611
531.964	33.3842
533.712	33.0683
535.46	32.8996
537.208	31.9452
538.955	31.7358
540.703	29.766
542.449	28.8655
544.196	27.5797
545.942	26.4352
547.688	24.8286
549.433	24.04
551.178	23.642
552.923	22.8293
554.667	22.3178
556.412	22.291
558.155	21.7904
559.899	20.4649
561.642	17.757
563.385	15.7181
565.127	15.3145
566.867	14.317
568.609	12.6337
570.35	10.9505
572.092	10.1901
573.832	10.3435
575.573	9.56698
577.313	9.00733
579.053	9.23374
580.79	9.04469
582.529	8.75665
584.268	7.48866
586.006	6.58495
587.745	6.55823
589.482	4.49988
591.218	4.95497
592.955	5.68489
594.692	5.30395
596.428	5.17726
598.164	5.84283
599.898	6.53657
601.634	6.87611
603.369	8.32179
605.104	8.15717
606.836	7.92184
608.57	8.637
610.304	8.85196
612.037	9.93381
613.769	11.0054
615.501	12.0614
617.234	13.1023
618.966	14.1253
620.696	14.5608
622.427	14.8392
624.159	16.0387
625.887	17.2094
627.618	17.4656
629.348	18.3298
631.076	18.3666
632.806	18.9943
634.535	19.6829
636.262	21.2044
637.99	22.0334
639.716	22.1153
641.444	22.1204
643.172	21.6038
644.897	21.0696
646.624	19.7059
648.348	19.5124
650.075	20.5662
651.801	21.3047
653.524	21.2339
655.249	21.7727
656.972	21.3482
658.697	22.8539
660.419	23.4966
662.143	24.4551
663.865	24.923
665.588	25.3782
667.309	24.8943
669.032	26.1147
670.752	26.5259
672.474	27.6255
674.194	29.6772
675.915	30.4127
677.634	31.8296
679.355	33.5164
681.073	33.1547
682.793	34.6599
684.511	36.8311
686.23	37.6533
687.947	38.2744
689.664	39.0697
691.382	39.8778
693.098	41.3938
694.816	42.0896
696.531	42.4842
698.247	43.7299
699.963	44.9289
701.678	46.0614
703.392	46.2023
705.108	46.0897
706.821	47.5592
708.534	47.2901
710.249	48.4153
711.962	47.8599
713.674	48.1802
715.388	49.389
717.099	49.7053
718.81	50.1138
720.523	51.0915
722.234	50.1266
723.944	49.4955
725.654	49.0644
727.365	48.8218
729.075	49.1379
730.784	49.5474
732.492	49.6838
734.202	49.3666
735.91	49.4982
737.618	49.7429
739.325	49.5011
741.034	49.1923
742.741	49.1388
744.447	50.5608
746.153	50.64
747.859	51.2573
749.564	51.6883
751.271	53.1012
752.976	54.5785
754.681	57.4154
756.385	57.9742
758.088	59.8899
759.792	61.1494
761.495	62.441
763.2	64.7023
764.902	65.3385
766.604	67.0832
768.306	68.5736
770.008	69.3218
771.709	69.8084
773.41	71.1939
775.11	72.369
776.811	74.1581
778.51	73.6399
780.21	73.7781
781.909	74.5919
783.608	75.0716
785.307	75.8116
787.005	75.9725
788.703	76.4066
790.401	77.4365
792.098	79.7272
793.795	80.9195
795.492	82.2157
797.188	82.9306
798.884	84.2268
800.58	86.0618
802.276	85.6822
803.971	86.0863
805.665	85.4696
807.36	84.5429
809.054	85.8617
810.748	86.0265
812.441	86.5425
814.135	87.4141
815.826	86.6959
817.518	85.7006
819.21	85.2474
820.902	85.4515
822.594	85.6928
824.285	84.8166
825.976	84.2282
827.665	85.0334
829.355	85.7068
831.045	85.4975
832.735	85.8848
834.424	86.263
836.111	86.3993
837.8	85.4057
839.488	84.6123
841.177	82.9688
842.864	82.3165
844.55	81.4631
846.237	80.8234
847.924	79.2663
849.61	77.1704
851.295	76.6963
852.98	74.609
854.666	73.5752
856.349	73.03
858.034	71.0937
859.719	69.8206
861.403	67.9751
863.085	65.4855
864.769	64.2237
866.452	61.9328
868.133	60.5407
869.816	60.0344
871.498	58.9173
873.179	58.4804
874.86	56.8447
876.54	56.4076
878.221	55.3277
879.902	54.0042
881.58	54.5536
883.26	53.436
884.938	52.2427
886.618	50.8095
888.297	51.0009
889.974	50.085
891.653	50.5081
893.329	50.5253
895.007	50.1764
896.683	50.0457
898.36	49.5748
900.035	48.7497
901.712	48.9916
903.387	49.2116
905.063	48.5358
906.737	48.0106
908.412	48.1757
910.085	48.5627
911.76	49.0585
913.433	49.3259
915.107	48.3655
916.779	48.1902
918.452	47.9116
920.124	46.8897
921.797	45.8407
923.467	45.9272
925.138	45.8007
926.81	44.8193
928.48	44.3142
930.151	42.8951
931.82	43.0158
933.489	43.2419
935.16	43.6718
936.828	43.96
938.496	43.8305
940.165	43.2173
941.833	41.8454
943.5	42.1051
945.168	39.7961
946.834	38.6089
948.5	38.9803
950.168	39.0063
951.834	39.4558
953.499	39.6968
955.163	39.4189
956.83	39.4473
958.494	37.8301
960.158	38.1747
961.821	38.7571
963.487	38.5748
965.15	39.0063
966.812	38.5824
968.474	39.157
970.138	40.4446
971.8	40.6371
973.461	40.0859
975.123	40.2126
976.783	39.697
978.446	39.4115
980.106	40.3345
981.766	40.141
983.425	41.0216
985.084	40.1648
986.743	40.1228
988.402	40.5535
990.06	40.0596
991.72	39.6805
993.378	38.3952
995.035	37.094
996.692	35.7612
998.349	33.6265
1000.01	32.3503
1001.66	31.0722
1003.32	29.206
1004.97	29.8141
1006.63	30.1865
1008.28	31.5761
1009.94	32.0118
1011.59	33.843
1013.25	35.7964
1014.9	38.3426
1016.55	40.3158
1018.21	40.9882
1019.86	41.1527
1021.51	41.074
1023.16	42.5692
1024.81	43.9929
1026.47	45.2684
1028.12	45.4961
1029.77	46.9033
1031.42	48.105
1033.07	48.1222
1034.72	46.8673
1036.37	47.3847
1038.02	46.3866
1039.67	45.2525
1041.31	45.2068
1042.96	45.8639
1044.61	45.7462
1046.26	45.2392
1047.91	46.2806
1049.55	46.7672
1051.2	45.9422
1052.84	45.3637
1054.49	44.9291
1056.14	44.5281
1057.78	43.4454
1059.43	42.0743
1061.07	41.2585
1062.72	41.7531
1064.36	39.8099
1066	39.0099
1067.65	36.2905
1069.29	34.8576
1070.93	32.7611
1072.58	30.66
1074.22	28.8553
1075.86	26.2335
1077.5	24.6032
1079.14	23.6846
1080.78	23.8255
1082.42	23.3589
1084.06	23.0908
1085.7	23.8789
1087.34	25.6221
1088.98	26.3195
1090.62	26.3608
1092.26	26.189
1093.9	27.1914
1095.54	27.2906
1097.17	27.5523
1098.81	26.7817
1100.45	26.6062
1102.09	26.2773
1103.72	27.7044
1105.36	28.8209
1106.99	28.3845
1108.63	27.7644
1110.27	27.0628
1111.9	27.5012
1113.53	27.7733
1115.17	27.3255
1116.8	26.2366
1118.43	26.2849
1120.07	25.7902
1121.7	26.2616
1123.33	26.5563
1124.97	25.9311
1126.6	26.7175
1128.23	26.7787
1129.86	26.6468
1131.49	26.2329
1133.12	25.7408
1134.75	25.8196
1136.38	25.4723
1138.01	24.8615
1139.64	23.9431
1141.27	23.6943
1142.9	23.4483
1144.53	22.2559
1146.16	20.5963
1147.78	19.9127
1149.41	18.9009
1151.04	18.4853
1152.67	18.1124
1154.29	16.7675
1155.92	15.0827
1157.54	13.1902
1159.17	12.8833
1160.8	11.8057
1162.42	9.65227
1164.05	7.75443
1165.67	6.43022
1167.29	6.09142
1168.92	6.06274
1170.54	4.7907
1172.16	4.41259
1173.79	4.9023
1175.41	4.32819
1177.03	3.28896
1178.65	2.74432
1180.28	2.51741
1181.9	3.02239
1183.52	1.64017
1185.14	2.00374
1186.76	1.76036
1188.38	1.62225
1190	1.99844
1191.62	2.62163
1193.24	2.25405
1194.86	2.10067
1196.47	2.55361
1198.09	2.81349
1199.71	3.7283
1201.33	4.80252
1202.95	5.96765
1204.56	7.00109
1206.18	8.80601
1207.8	10.8327
1209.41	11.5437
1211.03	14.0979
1212.64	17.1478
1214.26	18.9113
1215.87	19.8324
1217.49	22.7989
1219.1	25.7562
1220.71	26.9979
1222.33	29.0043
1223.94	30.9369
1225.55	33.9121
1227.16	37.5937
1228.78	39.6426
1230.39	42.0946
1232	43.7422
1233.61	45.2858
1235.22	47.2036
1236.83	49.6564
1238.44	52.056
1240.05	53.8587
1241.66	55.3941
1243.27	56.283
1244.88	58.1891
1246.49	60.6075
1248.1	63.2584
1249.71	64.6664
1251.32	64.5044
1252.92	65.1825
1254.53	65.038
1256.14	65.6317
1257.74	67.004
1259.35	68.8404
1260.96	69.7003
1262.56	69.7133
1264.17	69.729
1265.77	71.1057
1267.38	72.6959
1268.98	73.2608
1270.59	73.8715
1272.19	74.5419
1273.79	75.2739
1275.4	76.1722
1277	78.0991
1278.6	78.3229
1280.21	78.8515
1281.81	79.312
1283.41	80.465
1285.01	81.4401
1286.61	82.7685
1288.21	83.3672
1289.81	84.0786
1291.41	85.5451
1293.01	87.1128
1294.61	87.5227
1296.21	87.7603
1297.81	89.69
1299.41	89.3921
1301.01	88.0643
1302.6	89.5566
1304.2	91.1811
1305.8	92.2023
1307.4	93.0567
1308.99	92.8042
1310.59	93.0244
1312.19	92.2785
1313.78	93.5998
1315.38	94.1033
1316.97	94.7936
1318.57	94.3787
1320.16	93.1936
1321.76	93.4358
1323.35	91.9514
1324.94	91.6794
1326.54	92.0946
1328.13	90.6331
1329.72	88.6114
1331.32	87.5332
1332.91	88.0798
1334.5	88.1629
1336.09	88.4612
1337.68	88.1286
1339.27	85.8607
1340.87	83.7726
1342.45	81.6789
1344.04	80.1907
1345.64	79.4083
1347.22	78.3394
1348.81	76.7873
1350.4	75.4799
1351.99	74.4355
1353.58	72.5143
1355.17	70.5228
1356.75	70.0956
1358.34	68.3469
1359.93	66.8844
1361.51	65.0123
1363.1	64.0639
1364.69	62.7781
1366.27	62.2918
1367.86	60.5892
1369.44	60.0184
1371.03	58.1913
1372.61	57.5187
1374.2	54.9934
1375.78	53.697
1377.37	53.354
1378.95	51.5554
1380.53	51.0479
1382.11	52.2501
1383.7	50.8876
1385.28	49.9101
1386.86	48.198
1388.44	46.0392
1390.02	45.1522
1391.6	44.9759
1393.19	45.9211
1394.77	44.6817
1396.35	43.5397
1397.93	42.3923
1399.51	41.988
1401.08	40.877
1402.66	39.4827
1404.24	39.7254
1405.82	39.535
1407.4	39.0466
1408.97	39.884
1410.55	41.2624
1412.13	42.6825
1413.71	42.9707
1415.28	43.7554
1416.86	44.1682
1418.43	44.5284
1420.01	46.4953
1421.59	47.8178
1423.16	51.4283
1424.73	55.018
1426.31	58.9922
1427.88	63.2442
1429.46	66.2657
1431.03	69.561
1432.6	72.8205
1434.18	76.7318
1435.75	80.4971
1437.32	83.7388
1438.89	85.4208
1440.46	87.9931
1442.04	90.6112
1443.61	92.6481
1445.18	94.3594
1446.75	95.2761
1448.32	95.8588
1449.89	95.4244
1451.46	96.7893
1453.03	96.8225
1454.6	97.0987
1456.16	96.9618
1457.73	96.6651
1459.3	96.8376
1460.87	96.1779
1462.44	94.6586
1464	94.1315
1465.57	92.869
1467.14	93.2533
1468.7	93.2677
1470.27	93.3957
1471.83	91.9391
1473.4	89.511
1474.96	87.8885
1476.53	86.8097
1478.09	85.3102
1479.66	83.7975
1481.22	82.8223
1482.78	81.8812
1484.35	81.5905
1485.91	81.2311
1487.47	80.6243
1489.04	78.8231
1490.6	77.7217
1492.16	76.0109
1493.72	74.2888
1495.28	73.5834
1496.84	72.7409
1498.4	71.47
1499.96	70.2638
1501.52	69.4864
1503.08	67.7634
1504.64	66.4387
1506.2	64.924
1507.76	62.3412
1509.32	59.8221
1510.88	57.4085
1512.44	55.0377
1513.99	52.073
1515.55	48.1428
1517.11	44.8825
1518.66	42.355
1520.22	39.2482
1521.78	36.923
1523.33	34.1561
1524.89	32.0024
1526.44	29.2885
1528	27.4057
1529.55	26.9804
1531.11	25.6182
1532.66	24.7672
1534.21	24.7665
1535.77	24.8506
1537.32	24.4445
1538.87	23.7604
1540.43	23.9285
1541.98	25.0467
1543.53	25.6346
1545.08	26.7402
1546.63	28.1137
1548.18	29.9184
1549.74	30.3898
1551.29	31.0393
1552.84	32.5267
1554.39	33.6654
1555.94	36.3035
1557.48	38.396
1559.03	39.7508
1560.58	41.3449
1562.13	42.8038
1563.68	44.2974
1565.23	45.5528
1566.78	48.4221
1568.32	49.8977
1569.87	51.6348
1571.42	53.4817
1572.96	55.4858
1574.51	57.6177
1576.05	58.6331
1577.6	61.0795
1579.14	62.5677
1580.69	65.2566
1582.24	67.5363
1583.78	69.36
1585.32	70.3557
1586.87	71.3904
1588.41	72.3116
1589.95	73.5929
1591.5	74.1619
1593.04	74.8763
1594.58	76.5801
1596.12	76.629
1597.67	77.0402
1599.21	77.9405
1600.75	78.39
1602.29	78.7065
1603.83	78.2006
1605.37	79.0034
1606.91	78.9725
1608.45	78.5601
1609.99	78.9462
1611.53	79.1383
1613.07	79.1775
1614.6	77.7378
1616.14	76.9274
1617.68	77.8751
1619.22	77.9493
1620.75	78.5521
1622.29	79.8624
1623.83	81.6337
1625.37	81.6797
1626.9	81.4814
1628.44	81.461
1629.97	82.9036
1631.51	83.6095
1633.04	85.999
1634.58	86.4867
1636.11	86.9786
1637.65	87.8901
1639.18	89.9785
1640.72	91.6197
1642.25	93.2953
1643.78	94.9466
1645.31	95.4125
1646.85	98.2369
1648.38	99.5545
1649.91	101.075
1651.44	101.997
1652.97	101.201
1654.5	101.844
1656.03	101.223
1657.56	101.188
1659.1	100.488
1660.62	99.872
1662.15	99.0703
1663.68	97.1823
1665.21	95.595
1666.74	94.3
1668.27	91.972
1669.8	89.1131
1671.32	85.5639
1672.85	82.3032
1674.38	80.4013
1675.91	77.1441
1677.43	73.4435
1678.96	68.8144
1680.49	65.3098
1682.01	61.9725
1683.54	58.4545
1685.06	55.2898
1686.59	51.4818
1688.11	48.7586
1689.64	45.3461
1691.16	42.0531
1692.68	39.1558
1694.21	37.6715
1695.73	35.3348
1697.25	33.4593
1698.78	31.0768
1700.3	28.554
1701.82	25.4944
1703.34	23.716
1704.86	21.1971
1706.39	19.7005
1707.91	17.8586
1709.43	17.4222
1710.95	15.7152
1712.47	14.0949
1713.99	12.823
1715.51	12.5718
1717.02	12.081
1718.54	12.3962
1720.06	12.2268
1721.58	12.6061
1723.1	12.3974
1724.62	11.2479
1726.13	11.3827
1727.65	11.0193
1729.17	10.2778
1730.68	10.3076
1732.2	10.0355
1733.72	10.2298
1735.23	11.1089
1736.75	11.299
1738.26	11.0426
1739.78	10.766
1741.29	10.9018
1742.81	10.4585
1744.32	10.0471
1745.84	8.50502
1747.35	8.38602
1748.86	8.71665
1750.37	7.92905
1751.89	6.86995
1753.4	6.72019
1754.91	6.97095
1756.42	6.8961
1757.93	6.20411
1759.45	6.29931
1760.96	4.99461
1762.47	4.93727
1763.98	5.12987
1765.49	3.77399
1767	3.17269
1768.51	2.27823
1770.02	2.43722
1771.53	1.98322
1773.03	1.2789
1774.54	0.920086
1776.05	-0.186955
1777.56	-0.144699
1779.07	-0.689691
1780.57	-1.49145
1782.08	-1.20319
1783.59	-1.39111
1785.09	-1.44869
1786.6	-2.4247
1788.11	-2.14671
1789.61	-1.7723
1791.12	-0.714554
1792.62	-0.098045
1794.13	-0.204366
1795.63	0.0428313
1797.13	0.17043
1798.64	0.0573459
1800.14	0.995895
1801.65	1.16411
1803.15	0.868613
1804.65	0.991755
1806.15	1.5095
1807.66	1.48006
1809.16	2.46562
1810.66	3.2976
1812.16	3.3599
1813.66	3.94241
1815.16	5.02666
1816.66	4.83797
1818.16	5.0777
1819.66	5.35429
1821.16	4.93955
1822.66	5.09091
1824.16	4.36386
1825.66	3.01832
1827.16	3.73262
1828.66	3.67835
1830.16	3.97111
1831.65	3.24237
1833.15	4.03803
1834.65	4.83298
1836.14	3.91556
1837.64	3.35988
1839.14	3.3585
1840.63	3.51084
1842.13	3.39998
1843.62	4.35318
1845.12	4.1534
1846.61	4.06087
1848.11	2.94427
1849.6	2.82567
1851.1	2.43277
1852.59	2.29624
1854.08	2.5494
1855.58	2.98077
1857.07	3.30511
1858.56	3.17712
1860.05	2.76085
1861.55	3.64264
1863.04	4.58715
1864.53	4.70717
1866.02	4.36781
1867.51	4.24073
1869	3.95626
1870.49	4.27164
1871.98	4.29756
1873.47	4.01729
1874.96	5.54544
1876.45	4.94421
1877.94	5.04964
1879.43	5.69753
1880.92	5.76328
1882.41	5.57251
1882.51	6.28497
1884	6.81797
1885.5	7.2296
1886.99	7.15535
1888.48	6.67529
1889.98	6.61831
1891.47	6.99581
1892.96	6.99077
1894.46	7.12289
1895.95	8.22931
1897.44	8.32583
1898.93	9.01629
1900.42	11.2525
1901.91	11.2597
1903.41	11.7958
1904.9	13.158
1906.39	13.0838
1907.88	12.453
1909.37	11.8921
1910.86	12.947
1912.35	14.5392
1913.83	14.6425
1915.32	14.5537
1916.81	15.6778
1918.3	15.1346
1919.79	15.785
1921.27	15.9806
1922.76	17.308
1924.25	17.1193
1925.74	16.7979
1927.22	17.6005
1928.71	17.1108
1930.19	16.8534
1931.68	16.4485
1933.17	15.5582
1934.65	16.1451
1936.14	15.6181
1937.62	14.2462
1939.11	13.3728
1940.59	13.0648
1942.07	12.8333
1943.56	11.4968
1945.04	10.8602
1946.52	10.842
1948.01	12.2849
1949.49	12.2242
1950.97	12.2504
1952.45	12.1274
1953.93	11.5372
1955.42	10.7005
1956.9	10.9363
1958.38	10.9496
1959.86	10.0852
1961.34	9.55584
1962.82	9.7169
1964.3	10.0476
1965.78	10.4217
1967.26	10.9142
1968.74	11.6525
1970.21	11.3353
1971.69	10.9689
1973.17	11.2185
1974.65	10.4967
1976.13	9.4231
1977.6	10.0186
1979.08	9.59344
1980.56	8.8578
1982.03	9.43506
1983.51	10.7831
1984.99	10.8502
1986.46	10.1183
1987.94	10.466
1989.41	11.6242
1990.89	12.8888
1992.36	12.2271
1993.84	13.1766
1995.31	13.2677
1996.78	12.4013
1998.26	11.4058
1999.73	11.955
2001.2	12.0552
2002.68	11.8677
2004.15	11.5442
2005.62	11.3065
2007.09	11.3424
2008.56	12.7747
2010.04	14.6873
2011.51	14.823
2012.98	16.1644
2014.45	16.7343
2015.92	17.8186
2017.39	18.5984
2018.86	19.9348
2020.33	21.2655
2021.8	23.041
2023.26	23.8315
2024.73	23.4986
2026.2	23.9964
2027.67	25.0021
2029.14	25.0871
2030.61	26.0884
2032.07	26.221
2033.54	26.5732
2035.01	26.7415
2036.47	27.4353
2037.94	28.6348
2039.4	28.9935
2040.87	27.6921
2042.33	27.3624
2043.8	26.0525
2045.27	25.9353
2046.73	25.0799
2048.19	24.3205
2049.66	25.2633
2051.12	24.6446
2052.59	24.7108
2054.05	26.5815
2055.51	26.7332
2056.97	27.0821
2058.44	26.3315
2059.9	27.7277
2061.36	28.1645
2062.82	28.6983
2064.28	28.2969
2065.74	27.8927
2067.21	28.7954
2068.67	27.7179
2070.13	26.8424
2071.59	28.0114
2073.05	28.5811
2074.51	28.2115
2075.96	29.4692
2077.42	30.4038
2078.88	32.3688
2080.34	33.8729
2081.8	34.6626
2083.26	35.7367
2084.72	35.6201
2086.17	35.9084
2087.63	37.3443
2089.09	38.6325
2090.54	39.5631
2092	40.3343
2093.45	41.2649
2094.91	41.5075
2096.37	41.938
2097.82	42.0326
2099.28	42.6438
2100.73	44.2405
2102.19	44.816
2103.64	46.3457
2105.09	47.9243
2106.55	48.8414
2108	49.8963
2109.45	50.2601
2110.91	50.7242
2112.36	51.0615
2113.81	52.2161
2115.26	54.4023
2116.72	55.6991
2118.17	58.3558
2119.62	59.9929
2121.07	60.8279
2122.52	63.805
2123.97	65.0688
2125.42	68.0532
2126.87	70.7922
2128.32	72.3751
2129.77	73.4607
2131.22	76.7215
2132.67	79.5751
