#Acq. time (s)=	45
#Accumulations=	2
#Range (cm-¹)=	200...3150
#Windows=	2
#Auto scanning=	Off
#Autofocus=	Off
#Macrospot=	Off
#AutoExposure=	Off
#Spike filter=	Multiple accum.
#Delay time (s)=	0
#Binning=	1
#Readout mode=	Signal
#DeNoise=	Off
#ICS correction=	On
#Dark correction=	Off
#Inst. Process=	Off
#Detector Gain=	Best Dynamic Range
#Detector ADC=	20 kHz       
#Detector temperature (°C)=	-69.85
#Instrument=	LabRAM HR Evol
#Detector=	Synapse
#Objective=	x100
#Grating=	600 gr/mm
#ND Filter=	100%
#Laser (nm)=	532 
#Hole=	100.021
#Range=	Auto
#Laser Pol.=	No
#Raman. Pol.=	No
#Laser Pol. (°)=	-0.0007625
#Raman Pol. (°)=	89.9995
#Collection=	Microscope
#StageXY=	Marzhauser
#StageZ=	Marzhauser
#X (µm)=	-6392.1
#Y (µm)=	879.4
#Z (µm)=	-64.7
#Full time(mm:ss)=	3:18
#Project=	
#Sample=	
#Site=	
#Title=	Mb_30_27_21_2x_45s_532 nm_x100_100%_600 gr_mm
#Remark=	
#Date=	13.07.2022 10:11
#Acquired=	13.07.2022 10:11:04
#Base:Fit=	10.08.2022 10:40:03
#Base:Sub=	10.08.2022 10:40:17
#Filter:Polynom=	16.08.2022 10:16:15
#AxisType[0]=Intens
#AxisUnit[0]=Cnt
#AxisType[1]=Spectr
#AxisUnit[1]=1/cm
200.563	14.2494
202.377	15.0505
204.194	14.1317
206.008	13.6294
207.821	13.3565
209.634	12.6543
211.449	11.567
213.262	10.6055
215.074	9.09745
216.885	7.85941
218.699	6.12027
220.51	7.62021
222.321	7.54871
224.131	7.54355
225.941	6.66194
227.751	7.14529
229.562	5.35412
231.371	5.10886
233.18	5.2628
234.988	3.85322
236.796	4.2804
238.603	4.72383
240.411	3.83357
242.219	3.44824
244.026	3.89984
245.832	2.96567
247.638	2.85122
249.443	2.26725
251.248	3.27396
253.053	3.26872
254.857	2.68994
256.661	2.81291
258.465	5.07483
260.268	5.82032
262.071	5.63294
263.874	6.67531
265.678	5.73973
267.48	6.39501
269.282	6.19531
271.083	5.3228
272.884	6.589
274.684	8.39167
276.484	8.27101
278.284	9.11382
280.084	8.9803
281.883	8.75614
283.682	8.84637
285.48	8.88194
287.276	9.5872
289.074	9.37754
290.871	8.57232
292.668	7.88718
294.465	8.31061
296.261	8.06009
298.057	7.18945
299.853	8.31171
301.648	7.95271
303.443	8.65371
305.237	9.58876
307.032	11.0036
308.823	12.5852
310.617	14.7855
312.41	14.2474
314.203	14.6985
315.995	14.5598
317.788	14.6
319.579	13.8262
321.369	14.2086
323.16	13.9857
324.951	13.4623
326.741	14.7128
328.531	14.6677
330.321	13.7696
332.108	14.7998
333.897	14.9693
335.686	14.5383
337.474	15.6964
339.26	15.917
341.048	16.8395
342.835	15.8529
344.622	14.2378
346.406	14.4409
348.192	14.968
349.978	13.8577
351.764	11.8377
353.547	12.144
355.332	11.6428
357.116	11.2034
358.901	10.5899
360.682	10.3804
362.466	10.4147
364.249	10.418
366.03	8.8463
367.812	8.19507
369.594	7.8902
371.374	7.29614
373.155	6.63007
374.936	5.35877
376.715	4.55209
378.495	3.63418
380.273	4.33588
382.053	4.92492
383.832	5.51564
385.609	5.80015
387.388	6.70977
389.164	7.17292
390.942	7.45841
392.72	9.14639
394.495	9.96332
396.272	9.62123
398.047	10.1852
399.823	10.3604
401.597	9.67522
403.372	10.1917
405.145	9.48186
406.92	9.59071
408.693	9.93983
410.467	10.3712
412.239	11.3948
414.012	13.2157
415.783	14.6899
417.556	14.2427
419.327	15.0667
421.099	15.4594
422.869	15.3902
424.64	15.1198
426.409	14.5395
428.18	13.995
429.948	13.1049
431.718	12.1268
433.486	10.8137
435.253	11.6059
437.022	11.1895
438.789	10.9638
440.558	11.0092
442.324	12.1182
444.089	11.2719
445.857	10.5773
447.622	10.712
449.386	9.86662
451.153	8.40446
452.917	7.39973
454.682	6.50906
456.446	5.83693
458.208	5.74791
459.973	5.41483
461.735	5.03368
463.497	5.09184
465.259	5.12665
467.022	6.04268
468.783	6.41882
470.544	6.10718
472.306	6.79306
474.066	7.1491
475.825	7.29401
477.585	6.62696
479.346	7.2736
481.104	7.63088
482.862	7.16481
484.62	8.46507
486.38	9.84052
488.137	10.7308
489.894	11.2433
491.65	12.5521
493.407	14.1292
495.164	16.004
496.92	18.3121
498.675	20.6537
500.43	22.1143
502.184	24.5581
503.939	24.9476
505.694	25.5286
507.448	27.3818
509.201	28.1691
510.954	29.5912
512.706	29.4124
514.459	29.9662
516.21	30.5905
517.962	30.7226
519.715	32.3612
521.466	32.7594
523.216	33.4087
524.966	33.1792
526.716	33.0496
528.466	33.1268
530.215	31.9532
531.964	30.7642
533.712	30.761
535.46	29.2036
537.208	28.1847
538.955	28.0489
540.703	27.6661
542.449	26.6618
544.196	25.7845
545.942	25.7414
547.688	24.3012
549.433	23.3264
551.178	22.6778
552.923	20.6137
554.667	19.6839
556.412	18.4794
558.155	17.0873
559.899	16.3663
561.642	15.3737
563.385	14.0624
565.127	12.5122
566.867	11.4663
568.609	11.2027
570.35	10.2162
572.092	10.4865
573.832	9.27687
575.573	8.65551
577.313	8.42191
579.053	7.56665
580.79	6.98675
582.529	6.67675
584.268	6.87825
586.006	6.25526
587.745	5.59119
589.482	5.17148
591.218	4.25211
592.955	4.30505
594.692	3.60894
596.428	3.60295
598.164	3.15741
599.898	2.80799
601.634	2.67165
603.369	2.03987
605.104	2.75925
606.836	4.87768
608.57	4.25323
610.304	4.08464
612.037	4.1873
613.769	5.00171
615.501	4.9341
617.234	5.04208
618.966	5.1571
620.696	5.65174
622.427	5.28059
624.159	5.68901
625.887	5.29701
627.618	5.3203
629.348	4.9459
631.076	5.8943
632.806	6.01069
634.535	6.76679
636.262	7.41743
637.99	7.55281
639.716	7.20236
641.444	7.79092
643.172	8.7026
644.897	9.90794
646.624	11.2464
648.348	11.5668
650.075	11.5811
651.801	11.9105
653.524	13.0956
655.249	12.876
656.972	12.7815
658.697	12.9384
660.419	12.353
662.143	11.9392
663.865	12.2416
665.588	11.6894
667.309	12.9801
669.032	14.2479
670.752	14.8523
672.474	14.4648
674.194	15.2266
675.915	16.2733
677.634	17.6597
679.355	17.7872
681.073	18.2671
682.793	19.8373
684.511	20.9401
686.23	21.5632
687.947	22.4333
689.664	23.5705
691.382	25.2879
693.098	26.2547
694.816	26.4923
696.531	27.1979
698.247	28.5683
699.963	29.7597
701.678	29.2079
703.392	29.4985
705.108	30.8256
706.821	31.4867
708.534	32.1513
710.249	32.9789
711.962	34.8984
713.674	36.0647
715.388	36.3911
717.099	37.9735
718.81	38.4832
720.523	40.0799
722.234	40.6552
723.944	40.9722
725.654	40.8119
727.365	41.1411
729.075	42.4804
730.784	41.9666
732.492	41.1267
734.202	41.9156
735.91	42.4749
737.618	43.4336
739.325	43.6478
741.034	42.6747
742.741	44.1392
744.447	44.9233
746.153	45.1695
747.859	45.8647
749.564	45.5482
751.271	46.1469
752.976	47.6914
754.681	47.3844
756.385	48.3046
758.088	48.6987
759.792	50.5534
761.495	51.5319
763.2	52.0839
764.902	53.307
766.604	54.1907
768.306	55.8518
770.008	55.915
771.709	57.2743
773.41	59.5868
775.11	59.8873
776.811	61.2593
778.51	63.1095
780.21	63.9804
781.909	64.4755
783.608	65.4823
785.307	66.2511
787.005	67.1013
788.703	69.9603
790.401	72.7208
792.098	74.776
793.795	76.1956
795.492	76.3503
797.188	78.0157
798.884	78.6706
800.58	79.6369
802.276	80.8581
803.971	81.6635
805.665	82.0814
807.36	80.1023
809.054	79.8731
810.748	80.1966
812.441	80.7356
814.135	82.9204
815.826	82.6382
817.518	84.5677
819.21	86.757
820.902	87.1927
822.594	87.6209
824.285	87.2166
825.976	87.3116
827.665	87.3481
829.355	87.0249
831.045	85.1356
832.735	84.469
834.424	83.4539
836.111	84.0821
837.8	83.5368
839.488	81.3989
841.177	81.5663
842.864	80.8313
844.55	79.6923
846.237	77.9639
847.924	75.6656
849.61	72.9778
851.295	71.2182
852.98	70.9737
854.666	68.7514
856.349	67.6931
858.034	64.7175
859.719	61.8172
861.403	61.3055
863.085	58.8684
864.769	57.1899
866.452	55.4657
868.133	54.1645
869.816	53.2032
871.498	52.0583
873.179	51.9649
874.86	50.8301
876.54	49.4427
878.221	46.929
879.902	45.1626
881.58	45.0427
883.26	44.6633
884.938	43.7662
886.618	42.5194
888.297	43.3216
889.974	42.0467
891.653	41.4424
893.329	42.5555
895.007	43.1836
896.683	43.8885
898.36	44.5164
900.035	44.7319
901.712	46.6614
903.387	46.9173
905.063	46.7374
906.737	46.8076
908.412	47.454
910.085	48.2214
911.76	48.0562
913.433	48.7416
915.107	48.2126
916.779	48.5778
918.452	48.2494
920.124	48.6344
921.797	47.9927
923.467	47.4529
925.138	47.0339
926.81	46.7537
928.48	45.7357
930.151	44.7278
931.82	43.4491
933.489	43.3738
935.16	43.7467
936.828	42.6388
938.496	40.4105
940.165	38.4644
941.833	36.5822
943.5	35.6467
945.168	34.3973
946.834	33.0222
948.5	33.0449
950.168	32.14
951.834	31.9877
953.499	31.8759
955.163	31.7953
956.83	32.2773
958.494	31.1303
960.158	30.7981
961.821	30.0971
963.487	29.7343
965.15	29.9793
966.812	30.5867
968.474	30.5985
970.138	31.0734
971.8	33.319
973.461	33.3864
975.123	34.6148
976.783	35.6827
978.446	37.4072
980.106	38.1123
981.766	39.1491
983.425	40.6922
985.084	40.1973
986.743	39.156
988.402	39.5622
990.06	39.7202
991.72	40.0743
993.378	40.1069
995.035	38.8976
996.692	37.8175
998.349	36.218
1000.01	33.8895
1001.66	32.8316
1003.32	32.3774
1004.97	32.4008
1006.63	33.6036
1008.28	35.8796
1009.94	40.3875
1011.59	44.0941
1013.25	48.1128
1014.9	53.8679
1016.55	60.3234
1018.21	66.3202
1019.86	70.8438
1021.51	75.0147
1023.16	79.5482
1024.81	84.1387
1026.47	89.7488
1028.12	94.2652
1029.77	98.8439
1031.42	101.873
1033.07	103.877
1034.72	106.392
1036.37	108.431
1038.02	109.54
1039.67	110.061
1041.31	110.729
1042.96	110.68
1044.61	110.053
1046.26	110.048
1047.91	110.304
1049.55	110.367
1051.2	109.77
1052.84	108.519
1054.49	106.403
1056.14	102.815
1057.78	99.1603
1059.43	95.2058
1061.07	90.7768
1062.72	86.5237
1064.36	81.0957
1066	76.1825
1067.65	69.4213
1069.29	63.507
1070.93	58.2332
1072.58	52.4169
1074.22	47.7088
1075.86	41.4254
1077.5	35.371
1079.14	30.6947
1080.78	26.6538
1082.42	24.0008
1084.06	23.4362
1085.7	23.2459
1087.34	24.8768
1088.98	26.3833
1090.62	29.5875
1092.26	30.936
1093.9	31.7079
1095.54	32.9629
1097.17	35.4986
1098.81	37.1323
1100.45	38.6253
1102.09	38.4825
1103.72	39.3263
1105.36	40.0761
1106.99	39.9455
1108.63	40.4092
1110.27	39.8521
1111.9	39.5403
1113.53	38.9874
1115.17	37.7005
1116.8	37.5597
1118.43	37.9047
1120.07	36.9087
1121.7	36.6334
1123.33	36.1923
1124.97	35.1074
1126.6	34.8419
1128.23	33.7732
1129.86	32.5212
1131.49	31.1031
1133.12	29.0562
1134.75	27.2972
1136.38	26.6098
1138.01	24.942
1139.64	24.1365
1141.27	22.6493
1142.9	20.8516
1144.53	20.1832
1146.16	18.3701
1147.78	16.5272
1149.41	13.8604
1151.04	12.7623
1152.67	12.1061
1154.29	10.4233
1155.92	8.124
1157.54	5.59448
1159.17	5.40258
1160.8	5.02928
1162.42	4.19801
1164.05	3.52835
1165.67	3.28454
1167.29	2.8772
1168.92	3.3901
1170.54	2.98674
1172.16	3.06139
1173.79	2.40892
1175.41	3.25426
1177.03	4.27212
1178.65	6.1828
1180.28	6.85268
1181.9	6.91686
1183.52	4.89452
1185.14	4.26712
1186.76	4.66262
1188.38	5.62344
1190	7.34517
1191.62	8.64731
1193.24	8.74607
1194.86	9.83997
1196.47	11.9026
1198.09	14.3301
1199.71	16.1021
1201.33	16.353
1202.95	17.7026
1204.56	18.3912
1206.18	20.4682
1207.8	21.5472
1209.41	22.608
1211.03	24.7393
1212.64	26.2233
1214.26	28.1246
1215.87	30.7029
1217.49	32.3825
1219.1	33.7664
1220.71	35.5205
1222.33	36.4229
1223.94	36.9911
1225.55	38.3662
1227.16	39.4859
1228.78	40.8057
1230.39	42.8135
1232	45.1379
1233.61	47.4165
1235.22	48.4269
1236.83	50.3783
1238.44	52.6932
1240.05	56.0878
1241.66	56.6629
1243.27	57.2282
1244.88	58.9089
1246.49	61.0813
1248.1	62.6151
1249.71	63.7383
1251.32	64.6604
1252.92	64.7591
1254.53	65.3107
1256.14	65.7669
1257.74	67.2475
1259.35	69.3423
1260.96	69.1727
1262.56	70.4011
1264.17	71.1436
1265.77	74.2654
1267.38	76.904
1268.98	78.3506
1270.59	79.3737
1272.19	80.6253
1273.79	80.892
1275.4	83.1496
1277	85.0809
1278.6	84.9006
1280.21	85.6225
1281.81	86.6016
1283.41	86.9146
1285.01	87.677
1286.61	88.8665
1288.21	89.2869
1289.81	89.4441
1291.41	91.046
1293.01	92.0037
1294.61	93.5054
1296.21	93.3811
1297.81	94.0494
1299.41	94.4122
1301.01	94.2399
1302.6	95.0171
1304.2	95.022
1305.8	96.1495
1307.4	98.1164
1308.99	98.3519
1310.59	98.4554
1312.19	98.4275
1313.78	98.2528
1315.38	97.0301
1316.97	97.1542
1318.57	96.4842
1320.16	96.7656
1321.76	96.4784
1323.35	96.3997
1324.94	96.5839
1326.54	95.7456
1328.13	94.7639
1329.72	93.3317
1331.32	93.5121
1332.91	92.2674
1334.5	92.3051
1336.09	92.2218
1337.68	91.6623
1339.27	91.116
1340.87	88.8681
1342.45	89.18
1344.04	87.0124
1345.64	85.9854
1347.22	84.6469
1348.81	82.9988
1350.4	82.0312
1351.99	81.3379
1353.58	79.4638
1355.17	78.1714
1356.75	75.9125
1358.34	73.9777
1359.93	73.1439
1361.51	71.8189
1363.1	70.9241
1364.69	69.3838
1366.27	68.6992
1367.86	67.9849
1369.44	68.1613
1371.03	68.2632
1372.61	67.4488
1374.2	66.6142
1375.78	65.5072
1377.37	64.9943
1378.95	64.1439
1380.53	63.8311
1382.11	63.5236
1383.7	62.1542
1385.28	62.7153
1386.86	62.0456
1388.44	61.0258
1390.02	60.6417
1391.6	60.2934
1393.19	60.3909
1394.77	60.6933
1396.35	61.2384
1397.93	61.4293
1399.51	61.7499
1401.08	61.8305
1402.66	61.4574
1404.24	62.04
1405.82	62.2902
1407.4	63.9383
1408.97	64.119
1410.55	65.9334
1412.13	66.8303
1413.71	68.4104
1415.28	70.1796
1416.86	72.3997
1418.43	75.0467
1420.01	76.1963
1421.59	78.6062
1423.16	80.5033
1424.73	83.9495
1426.31	86.9644
1427.88	89.463
1429.46	92.271
1431.03	95.7436
1432.6	97.2693
1434.18	100.449
1435.75	103.044
1437.32	105.853
1438.89	108.11
1440.46	110.384
1442.04	112.019
1443.61	112.52
1445.18	114.87
1446.75	115.848
1448.32	117.43
1449.89	116.919
1451.46	117.766
1453.03	117.647
1454.6	117.464
1456.16	117.058
1457.73	117.255
1459.3	116.433
1460.87	115.715
1462.44	114.561
1464	113.692
1465.57	111.731
1467.14	111.319
1468.7	109.674
1470.27	107.458
1471.83	105.182
1473.4	102.358
1474.96	99.0148
1476.53	95.9684
1478.09	92.9068
1479.66	91.0402
1481.22	89.2567
1482.78	86.1911
1484.35	83.2313
1485.91	81.8469
1487.47	78.1711
1489.04	76.5608
1490.6	73.3534
1492.16	70.4619
1493.72	67.25
1495.28	65.1343
1496.84	62.7125
1498.4	60.3189
1499.96	58.6203
1501.52	57.7811
1503.08	55.992
1504.64	54.2248
1506.2	51.8387
1507.76	50.3142
1509.32	49.11
1510.88	46.7579
1512.44	46.4213
1513.99	44.267
1515.55	42.6316
1517.11	41.7363
1518.66	40.8781
1520.22	39.2439
1521.78	38.152
1523.33	38.5199
1524.89	38.0485
1526.44	38.0783
1528	37.9263
1529.55	39.1617
1531.11	39.5607
1532.66	40.1697
1534.21	40.5233
1535.77	41.3863
1537.32	42.4151
1538.87	42.3715
1540.43	43.618
1541.98	44.9704
1543.53	45.0936
1545.08	46.5398
1546.63	46.7159
1548.18	46.4768
1549.74	47.0237
1551.29	46.5938
1552.84	47.3053
1554.39	48.2864
1555.94	49.9114
1557.48	50.8637
1559.03	50.783
1560.58	50.4041
1562.13	52.0568
1563.68	53.0289
1565.23	52.5001
1566.78	53.3853
1568.32	54.354
1569.87	54.9695
1571.42	55.9995
1572.96	57.4893
1574.51	58.7208
1576.05	59.5773
1577.6	60.4167
1579.14	61.3746
1580.69	62.3337
1582.24	63.4176
1583.78	64.7866
1585.32	65.7467
1586.87	67.6716
1588.41	69.0918
1589.95	71.5586
1591.5	71.5486
1593.04	72.7486
1594.58	73.7571
1596.12	74.2633
1597.67	74.2936
1599.21	75.293
1600.75	77.4522
1602.29	77.7354
1603.83	78.1367
1605.37	78.5483
1606.91	79.0003
1608.45	79.1889
1609.99	79.4327
1611.53	79.4806
1613.07	79.9285
1614.6	80.8026
1616.14	80.6297
1617.68	82.0175
1619.22	82.3275
1620.75	82.168
1622.29	82.9862
1623.83	82.9381
1625.37	82.5763
1626.9	82.7778
1628.44	82.6174
1629.97	85.1571
1631.51	86.3366
1633.04	87.3312
1634.58	87.8065
1636.11	88.789
1637.65	90.3197
1639.18	91.2929
1640.72	91.2023
1642.25	91.9151
1643.78	92.7099
1645.31	93.457
1646.85	93.2527
1648.38	93.7248
1649.91	93.3555
1651.44	93.4413
1652.97	93.2384
1654.5	92.5586
1656.03	92.0738
1657.56	92.0116
1659.1	91.2238
1660.62	89.6137
1662.15	88.4973
1663.68	87.7995
1665.21	86.1
1666.74	84.6746
1668.27	81.7153
1669.8	79.8987
1671.32	77.8157
1672.85	75.2395
1674.38	72.5457
1675.91	70.9808
1677.43	68.2085
1678.96	63.4069
1680.49	61.0428
1682.01	57.7135
1683.54	54.4562
1685.06	50.9775
1686.59	47.4431
1688.11	44.7885
1689.64	41.9353
1691.16	39.5728
1692.68	36.2759
1694.21	34.2011
1695.73	31.6609
1697.25	29.1785
1698.78	26.2955
1700.3	24.5434
1701.82	23.2642
1703.34	22.4768
1704.86	21.0716
1706.39	20.2367
1707.91	18.3353
1709.43	16.7881
1710.95	16.3419
1712.47	16.0396
1713.99	15.5565
1715.51	14.6217
1717.02	14.1978
1718.54	13.9802
1720.06	13.347
1721.58	13.2871
1723.1	12.5415
1724.62	12.3766
1726.13	11.9818
1727.65	12.0192
1729.17	12.1621
1730.68	12.3609
1732.2	12.1548
1733.72	11.9508
1735.23	11.2215
1736.75	10.6952
1738.26	11.1955
1739.78	11.3527
1741.29	11.9606
1742.81	11.4198
1744.32	10.8811
1745.84	10.6847
1747.35	10.48
1748.86	9.17631
1750.37	8.88966
1751.89	7.90792
1753.4	6.22864
1754.91	5.70984
1756.42	5.84229
1757.93	4.53419
1759.45	4.05066
1760.96	3.97578
1762.47	4.35373
1763.98	4.49532
1765.49	4.38992
1767	4.69147
1768.51	4.04052
1770.02	4.02088
1771.53	2.83747
1773.03	2.17266
1774.54	1.98182
1776.05	2.2702
1777.56	2.67688
1779.07	2.31266
1780.57	1.93019
1782.08	2.47366
1783.59	3.54119
1785.09	4.07584
1786.6	4.54708
1788.11	4.31283
1789.61	3.92457
1791.12	3.69157
1792.62	3.40072
1794.13	3.95109
1795.63	3.7256
1797.13	4.20259
1798.64	4.33077
1800.14	4.55823
1801.65	4.06572
1803.15	3.93985
1804.65	3.46814
1806.15	3.27074
1807.66	2.30664
1809.16	2.24387
1810.66	2.16143
1812.16	2.74902
1813.66	3.49703
1815.16	2.90038
1816.66	2.32261
1818.16	1.85128
1819.66	1.96804
1821.16	1.98785
1822.66	1.2619
1824.16	1.12482
1825.66	1.72668
1827.16	1.26467
1828.66	0.946919
1830.16	1.59923
1831.65	1.34914
1833.15	1.29538
1834.65	1.75816
1836.14	1.81724
1837.64	2.27772
1839.14	2.72101
1840.63	3.01182
1842.13	2.68255
1843.62	2.67268
1845.12	2.6444
1846.61	2.61929
1848.11	2.96833
1849.6	4.13615
1851.1	4.15289
1852.59	4.67449
1854.08	5.26511
1855.58	4.80778
1857.07	5.74632
1858.56	6.45569
1860.05	6.16521
1861.55	6.00167
1863.04	6.04954
1864.53	6.37676
1866.02	6.62741
1867.51	7.42847
1869	7.83093
1870.49	8.84431
1871.98	8.96522
1873.47	9.07273
1874.96	8.60189
1876.45	9.32503
1877.94	9.4744
1879.43	9.91513
1880.92	10.6684
1882.41	11.4577
1882.51	11.6748
1884	12.2226
1885.5	11.7423
1886.99	11.2798
1888.48	10.656
1889.98	11.7365
1891.47	11.6336
1892.96	11.6171
1894.46	12.1821
1895.95	11.478
1897.44	11.9845
1898.93	11.6843
1900.42	10.7178
1901.91	10.5547
1903.41	11.7087
1904.9	10.5263
1906.39	10.7739
1907.88	10.6503
1909.37	10.0979
1910.86	9.21675
1912.35	9.16581
1913.83	8.67787
1915.32	7.48988
1916.81	6.96274
1918.3	6.24088
1919.79	5.45833
1921.27	5.22625
1922.76	4.81376
1924.25	3.40736
1925.74	2.62692
1927.22	2.34319
1928.71	2.0489
1930.19	2.98703
1931.68	2.36426
1933.17	1.75742
1934.65	2.03395
1936.14	1.76435
1937.62	2.44926
1939.11	2.15604
1940.59	2.52488
1942.07	2.47651
1943.56	3.01595
1945.04	2.38872
1946.52	2.92888
1948.01	3.07749
1949.49	4.60385
1950.97	4.80741
1952.45	5.39163
1953.93	6.65277
1955.42	6.9812
1956.9	7.38769
1958.38	7.83952
1959.86	7.52647
1961.34	8.71815
1962.82	9.82638
1964.3	10.4039
1965.78	10.1814
1967.26	10.7574
1968.74	10.9619
1970.21	10.59
1971.69	11.0802
1973.17	11.0328
1974.65	10.8067
1976.13	10.6767
1977.6	10.4953
1979.08	8.87032
1980.56	8.80601
1982.03	8.43849
1983.51	8.75513
1984.99	8.84113
1986.46	8.77556
1987.94	8.11519
1989.41	7.84196
1990.89	7.92111
1992.36	7.91837
1993.84	8.41193
1995.31	8.46156
1996.78	7.91363
1998.26	8.30413
1999.73	8.35283
2001.2	8.99149
2002.68	9.27587
2004.15	8.66765
2005.62	8.53736
2007.09	8.69615
2008.56	8.4946
2010.04	8.2322
2011.51	9.23792
2012.98	9.09202
2014.45	9.8828
2015.92	9.87432
2017.39	9.71348
2018.86	10.0085
2020.33	10.2801
2021.8	11.1963
2023.26	12.2436
2024.73	12.5242
2026.2	12.446
2027.67	12.7664
2029.14	12.0413
2030.61	12.0126
2032.07	11.4242
2033.54	11.0498
2035.01	11.9371
2036.47	11.9378
2037.94	11.4196
2039.4	11.9405
2040.87	11.8066
2042.33	11.8725
2043.8	12.397
2045.27	12.6175
2046.73	12.9332
2048.19	12.7464
2049.66	13.3186
2051.12	14.3542
2052.59	14.5993
2054.05	15.3303
2055.51	17.0119
2056.97	17.3602
2058.44	17.2438
2059.9	16.7969
2061.36	17.8214
2062.82	18.5291
2064.28	18.1806
2065.74	18.5534
2067.21	19.2445
2068.67	19.1356
2070.13	19.762
2071.59	20.3476
2073.05	20.3149
2074.51	21.0022
2075.96	21.0222
2077.42	21.0573
2078.88	22.0967
2080.34	22.2006
2081.8	22.25
2083.26	23.8756
2084.72	24.5147
2086.17	24.6157
2087.63	24.6713
2089.09	24.5896
2090.54	24.9495
2092	25.747
2093.45	26.545
2094.91	27.3841
2096.37	28.6031
2097.82	28.8275
2099.28	28.4907
2100.73	29.1915
2102.19	29.6303
2103.64	30.1421
2105.09	30.7883
2106.55	31.8395
2108	32.9467
2109.45	32.5689
2110.91	32.7216
2112.36	33.8318
2113.81	33.6966
2115.26	35.1363
2116.72	36.0282
2118.17	36.8071
2119.62	38.0203
2121.07	38.4395
2122.52	39.4776
2123.97	39.6391
2125.42	39.671
2126.87	40.7816
2128.32	42.1225
2129.77	42.3111
2131.22	43.2837
2132.67	44.4423
2134.11	46.1941
2135.56	47.8598
2137.01	49.8048
