#Acq. time (s)=	45
#Accumulations=	2
#Range (cm-¹)=	200...3150
#Windows=	2
#Auto scanning=	Off
#Autofocus=	Off
#Macrospot=	Off
#AutoExposure=	Off
#Spike filter=	Multiple accum.
#Delay time (s)=	0
#Binning=	1
#Readout mode=	Signal
#DeNoise=	Off
#ICS correction=	On
#Dark correction=	Off
#Inst. Process=	Off
#Detector Gain=	Best Dynamic Range
#Detector ADC=	20 kHz       
#Detector temperature (°C)=	-69.85
#Instrument=	LabRAM HR Evol
#Detector=	Synapse
#Objective=	x100
#Grating=	600 gr/mm
#ND Filter=	100%
#Laser (nm)=	532 
#Hole=	100.021
#Range=	Auto
#Laser Pol.=	No
#Raman. Pol.=	No
#Laser Pol. (°)=	-0.0007625
#Raman Pol. (°)=	89.9995
#Collection=	Microscope
#StageXY=	Marzhauser
#StageZ=	Marzhauser
#X (µm)=	28066.3
#Y (µm)=	-545.2
#Z (µm)=	1083.85
#Full time(mm:ss)=	3:08
#Project=	
#Sample=	
#Site=	
#Title=	Mb_30_27_06_2x_45s_532 nm_x100_100%_600 gr_mm
#Remark=	
#Date=	12.07.2022 15:52
#Acquired=	12.07.2022 15:52:47
#Base:Fit=	10.08.2022 10:39:47
#Base:Sub=	10.08.2022 10:39:55
#Base:Fit=	10.08.2022 10:40:03
#Base:Sub=	10.08.2022 10:40:17
#Filter:Polynom=	16.08.2022 10:16:15
#AxisType[0]=Intens
#AxisUnit[0]=Cnt
#AxisType[1]=Spectr
#AxisUnit[1]=1/cm
200.388	28.7365
202.204	29.7375
204.019	29.1512
205.832	27.6414
207.646	25.397
209.459	23.7379
211.274	22.6616
213.087	21.4296
214.899	20.3473
216.711	18.9886
218.524	16.7314
220.335	16.4564
222.146	16.5667
223.956	15.6997
225.766	14.7773
227.576	13.9515
229.388	13.1723
231.197	12.5674
233.005	12.7823
234.813	12.346
236.621	10.8979
238.429	10.1387
240.236	9.18444
242.045	7.9579
243.852	7.50005
245.658	6.47217
247.464	6.17846
249.269	5.97949
251.074	6.00938
252.879	5.16889
254.683	4.68423
256.487	3.76185
258.291	4.25923
260.094	4.14582
261.897	4.482
263.702	4.89927
265.504	4.61282
267.306	4.7217
269.108	4.97242
270.909	4.76028
272.71	4.69031
274.511	5.3725
276.311	6.90454
278.111	5.85812
279.91	6.8443
281.709	7.87763
283.508	8.01262
285.306	7.49601
287.105	7.16588
288.9	6.92729
290.698	7.05017
292.495	7.60566
294.291	7.94117
296.088	8.60261
297.884	10.1922
299.679	9.69783
301.475	10.2216
303.27	9.87303
305.064	9.40745
306.858	9.24231
308.652	10.7483
310.444	11.4277
312.237	12.4172
314.03	12.3946
315.822	12.1669
317.615	13.0739
319.406	13.3869
321.198	13.1937
322.987	12.6179
324.778	11.5458
326.568	10.8173
328.358	11.9645
330.148	12.1942
331.935	12.3683
333.724	13.4756
335.513	13.4109
337.301	14.3471
339.089	13.4423
340.875	12.9933
342.662	12.2895
344.449	12.605
346.236	11.7956
348.02	12.0179
349.806	12.4219
351.592	11.8327
353.375	11.983
355.16	10.6441
356.944	10.7173
358.728	10.755
360.51	10.1449
362.294	9.76692
364.077	10.4215
365.858	10.5107
367.64	10.0288
369.422	10.2608
371.202	10.2507
372.983	10.4344
374.764	10.7937
376.543	11.3163
378.324	12.0529
380.102	12.4296
381.881	11.4978
383.661	11.7048
385.438	12.1554
387.216	12.6451
388.993	12.5797
390.771	12.9037
392.548	11.9752
394.324	12.4868
396.101	13.2963
397.875	14.4904
399.651	13.4295
401.425	14.3996
403.201	14.4361
404.974	13.8817
406.749	14.3414
408.524	14.2959
410.296	14.4779
412.07	15.2599
413.841	16.5434
415.614	17.6818
417.385	18.7622
419.156	18.936
420.928	19.3231
422.698	20.5271
424.469	19.9502
426.238	19.8602
428.009	19.1352
429.777	18.1602
431.548	17.2378
433.315	16.6766
435.083	16.0716
436.852	16.3205
438.618	17.423
440.387	17.3082
442.153	17.1785
443.919	16.0398
445.686	15.9683
447.451	16.4858
449.218	16.0392
450.982	17.9346
452.746	19.5203
454.512	20.827
456.275	21.2707
458.038	20.463
459.803	21.6166
461.565	22.1459
463.327	22.9617
465.091	23.425
466.852	22.6609
468.613	23.2907
470.374	23.7943
472.136	24.0185
473.896	24.06
475.655	25.0529
477.415	25.14
479.176	24.5205
480.934	25.3687
482.692	27.1199
484.45	26.9902
486.21	28.9296
487.967	30.0072
489.724	32.0864
491.481	33.1953
493.237	33.446
494.995	35.4179
496.75	37.8266
498.506	38.4681
500.26	39.0074
502.015	40.5478
503.771	41.0383
505.525	41.3094
507.279	42.0541
509.032	42.8142
510.785	42.6922
512.537	42.0267
514.289	41.6022
516.041	40.7938
517.793	39.4663
519.546	41.01
521.297	40.8723
523.047	41.2331
524.797	41.8943
526.547	42.2381
528.297	40.0478
530.046	39.0025
531.795	38.5288
533.543	38.7533
535.291	38.725
537.039	38.7547
538.787	38.7341
540.534	35.7138
542.281	34.8725
544.027	32.216
545.773	29.1067
547.519	29.2758
549.264	28.0029
551.01	27.0926
552.754	25.7213
554.499	23.7848
556.243	22.3687
557.987	21.3092
559.73	19.2789
561.474	18.7318
563.216	17.3398
564.959	16.5881
566.701	16.0243
568.441	16.1495
570.182	15.4877
571.923	14.4698
573.664	15.5265
575.405	13.6202
577.145	12.6655
578.885	11.1861
580.624	10.5089
582.361	11.205
584.1	10.1143
585.839	9.43041
587.577	9.09152
589.315	9.20725
591.052	7.51389
592.787	7.02697
594.524	6.63885
596.26	5.64257
597.997	4.70499
599.732	4.53109
601.466	3.77473
603.201	3.79598
604.936	4.40059
606.67	5.94857
608.403	6.2597
610.136	7.29698
611.87	8.40896
613.603	7.58783
615.334	6.94505
617.067	8.41336
618.799	9.17984
620.529	10.5917
622.26	10.7241
623.991	11.268
625.72	10.8489
627.451	11.7804
629.181	13.4633
630.909	14.0401
632.638	15.7476
634.368	17.5871
636.095	18.8047
637.823	18.5552
639.551	18.3836
641.277	18.2632
643.005	17.6897
644.73	17.4889
646.457	17.8263
648.184	19.3024
649.908	18.6423
651.634	19.2549
653.357	18.0807
655.083	17.0582
656.806	16.4455
658.53	16.2418
660.253	16.0393
661.977	14.8866
663.7	14.5481
665.422	14.0685
667.145	13.9563
668.865	14.3904
670.588	13.8675
672.308	14.671
674.027	13.2661
675.749	12.9979
677.468	13.1247
679.188	13.3129
680.907	13.0288
682.627	13.7117
684.345	14.7285
686.064	16.2951
687.781	16.8451
689.498	19.638
691.216	21.6834
692.932	23.3636
694.65	24.0298
696.366	24.0791
698.081	25.3914
699.797	25.8605
701.512	28.0398
703.228	30.1645
704.942	32.5383
706.655	34.9334
708.371	35.8338
710.083	38.2603
711.796	40.6691
713.51	43.7797
715.222	44.9549
716.934	47.2005
718.645	47.0714
720.358	47.8308
722.068	49.0058
723.779	49.2821
725.49	50.1753
727.2	50.591
728.909	49.9858
730.618	50.5117
732.329	51.4161
734.037	51.4328
735.745	49.9987
737.453	49.8196
739.16	50.3502
740.869	50.6589
742.576	51.3532
744.282	52.8984
745.988	52.9413
747.694	53.6945
749.401	54.0696
751.107	55.9055
752.811	57.0219
754.516	57.9196
756.22	59.2823
757.924	59.9944
759.627	59.9158
761.332	61.396
763.035	62.7898
764.738	62.7052
766.44	64.3549
768.142	65.4073
769.843	65.2363
771.544	65.8215
773.245	65.1907
774.946	66.0848
776.646	65.8696
778.346	66.2731
780.046	66.63
781.745	67.7872
783.444	69.1162
785.143	70.4941
786.841	72.178
788.539	73.4415
790.237	74.9579
791.934	75.1074
793.631	75.9623
795.328	76.2058
797.024	76.6336
798.72	77.9359
800.416	77.6162
802.112	77.7593
803.807	77.9577
805.502	78.5545
807.196	78.3414
808.89	78.0213
810.584	78.3717
812.278	78.5456
813.971	79.3689
815.664	80.3253
817.354	81.3501
819.047	81.4011
820.739	80.7929
822.43	82.379
824.122	83.1064
825.813	83.1046
827.503	83.7333
829.192	83.5213
830.882	82.0064
832.571	81.7645
834.261	81.4538
835.95	81.0254
837.637	80.7828
839.325	80.7383
841.013	80.9083
842.701	79.1923
844.389	77.2768
846.074	75.9824
847.761	74.1786
849.447	72.4308
851.131	71.5972
852.817	69.1853
854.503	67.4848
856.188	67.0898
857.871	66.2359
859.556	64.9072
861.24	63.0557
862.922	61.8993
864.606	60.5165
866.289	59.1861
867.97	57.3972
869.653	57.2209
871.336	56.7087
873.016	55.0272
874.698	53.8531
876.379	51.7031
878.058	51.0818
879.739	50.5642
881.418	50.2867
883.098	50.309
884.778	49.0277
886.456	47.8572
888.135	46.9569
889.812	46.2492
891.49	46.5344
893.167	47.1381
894.845	47.2866
896.523	47.5107
898.198	46.7544
899.875	45.6843
901.55	45.54
903.226	44.5342
904.901	44.5518
906.576	45.139
908.25	44.1977
909.925	43.9719
911.598	43.9372
913.271	42.6598
914.945	43.1442
916.617	43.6868
918.291	44.0304
919.962	44.0414
921.635	44.9574
923.306	44.5666
924.978	43.7399
926.648	42.5568
928.318	42.4093
929.989	41.9446
931.659	41.5756
933.328	42.1667
934.998	41.9664
936.666	41.1469
938.336	40.2702
940.004	39.1776
941.671	37.9329
943.34	36.3156
945.007	36.5018
946.673	37.7725
948.339	37.218
950.007	37.8186
951.672	37.5044
953.337	37.9551
955.004	36.9816
956.669	35.5016
958.333	35.6178
959.997	33.72
961.662	34.0336
963.326	33.7155
964.989	32.886
966.651	32.7168
968.315	33.3593
969.977	33.7599
971.639	34.2244
973.301	35.6535
974.962	35.0132
976.624	34.242
978.285	34.5569
979.945	35.5547
981.605	35.714
983.264	38.1925
984.924	39.3421
986.583	39.5313
988.243	40.1486
989.901	39.6848
991.56	39.6947
993.217	38.8915
994.875	38.2339
996.532	37.3252
998.188	37.6019
999.845	36.2254
1001.5	35.4529
1003.16	34.8979
1004.81	35.9725
1006.47	37.5984
1008.12	40.849
1009.78	45.7317
1011.43	50.5607
1013.09	56.5765
1014.74	63.0283
1016.39	68.9926
1018.05	74.1394
1019.7	79.1176
1021.35	83.2832
1023	87.3805
1024.65	92.2546
1026.31	96.2725
1027.96	99.4673
1029.61	102.033
1031.26	104.214
1032.91	106.206
1034.56	106.535
1036.21	107.175
1037.86	107.289
1039.51	107.845
1041.16	108.457
1042.8	107.975
1044.45	108.802
1046.1	108.023
1047.75	107.525
1049.39	106.275
1051.04	105.03
1052.69	102.459
1054.33	99.1885
1055.98	95.7218
1057.62	90.9801
1059.27	87.9542
1060.91	84.4416
1062.56	80.0284
1064.2	75.2393
1065.85	69.7573
1067.49	62.748
1069.13	56.4663
1070.77	51.585
1072.42	46.1152
1074.06	41.5467
1075.7	36.5609
1077.34	31.9475
1078.98	28.4276
1080.62	26.0672
1082.27	24.0294
1083.91	23.6899
1085.55	24.4784
1087.18	26.2638
1088.82	28.2781
1090.46	30.2723
1092.1	31.738
1093.74	33.8476
1095.38	36.3298
1097.02	36.669
1098.65	37.4059
1100.29	37.8498
1101.93	38.8912
1103.56	39.3263
1105.2	39.7194
1106.84	40.7008
1108.47	40.0358
1110.11	39.6281
1111.74	39.8604
1113.38	39.974
1115.01	39.5786
1116.64	39.9751
1118.28	40.109
1119.91	39.6724
1121.54	39.887
1123.18	39.0648
1124.81	38.4347
1126.44	37.3953
1128.07	36.558
1129.7	35.5538
1131.33	34.6574
1132.97	33.6823
1134.6	32.1937
1136.23	29.8442
1137.86	28.0497
1139.49	26.4536
1141.11	24.9728
1142.74	22.5683
1144.37	21.6566
1146	19.7187
1147.63	18.9179
1149.26	17.9811
1150.88	17.0406
1152.51	15.0544
1154.14	12.5497
1155.76	11.419
1157.39	9.61794
1159.01	7.6238
1160.64	7.33007
1162.27	6.19921
1163.89	4.33571
1165.51	3.17622
1167.14	2.6001
1168.76	1.62268
1170.39	1.73936
1172.01	1.87971
1173.63	3.39317
1175.25	4.76992
1176.88	4.86528
1178.5	5.38393
1180.12	5.69389
1181.74	5.82308
1183.36	7.13655
1184.98	7.56587
1186.6	7.88885
1188.22	8.57232
1189.84	9.61771
1191.46	10.7944
1193.08	12.3888
1194.7	14.4102
1196.32	15.4324
1197.94	17.0777
1199.55	18.6168
1201.17	18.8922
1202.79	20.9877
1204.41	22.1876
1206.02	25.0935
1207.64	27.5147
1209.25	30.0289
1210.87	32.7943
1212.48	35.8895
1214.1	38.8313
1215.71	41.011
1217.33	43.8517
1218.94	46.7355
1220.56	49.3247
1222.17	51.6115
1223.79	53.6957
1225.4	55.7607
1227.01	57.6971
1228.62	60.2579
1230.23	62.3193
1231.85	64.7984
1233.46	67.5677
1235.07	71.2578
1236.68	74.7022
1238.29	77.0867
1239.9	79.0004
1241.51	81.643
1243.12	82.9018
1244.73	84.5469
1246.34	86.5299
1247.94	88.9074
1249.55	89.531
1251.16	90.4378
1252.77	91.406
1254.37	93.3315
1255.98	94.0629
1257.59	95.4242
1259.2	96.8482
1260.8	97.5391
1262.41	98.7515
1264.01	100.587
1265.62	101.86
1267.22	101.503
1268.83	102.182
1270.43	103.714
1272.03	104.233
1273.64	105.764
1275.24	107.147
1276.85	108.02
1278.45	108.576
1280.05	109.933
1281.65	109.943
1283.25	111.884
1284.85	112.54
1286.46	114.374
1288.06	115.144
1289.66	116.11
1291.26	117.406
1292.86	118.769
1294.46	120.296
1296.06	120.162
1297.66	120.628
1299.25	120.471
1300.85	122.042
1302.45	123.137
1304.05	123.698
1305.65	125.204
1307.24	127.328
1308.84	128.832
1310.43	130.764
1312.03	131.99
1313.63	133.62
1315.22	133.699
1316.82	134.271
1318.41	133.243
1320.01	132.65
1321.6	133.844
1323.2	132.801
1324.79	132.766
1326.38	132.203
1327.98	132.178
1329.57	130.116
1331.16	130.073
1332.76	129.668
1334.35	129.251
1335.94	128.157
1337.53	126.86
1339.12	125.194
1340.71	123.564
1342.3	122.22
1343.89	120.845
1345.48	118.571
1347.07	115.95
1348.66	115.185
1350.25	113.049
1351.84	111.21
1353.43	109.288
1355.01	106.771
1356.6	103.143
1358.19	100.349
1359.77	97.6063
1361.36	94.1203
1362.95	91.2814
1364.53	88.2206
1366.12	85.5937
1367.71	82.2896
1369.29	79.4904
1370.88	77.064
1372.46	74.5057
1374.04	71.7214
1375.63	68.7612
1377.21	68.1769
1378.8	67.1959
1380.38	66.9435
1381.96	64.9369
1383.54	64.0325
1385.13	63.9269
1386.71	62.8552
1388.29	62.0979
1389.87	61.3352
1391.45	60.6678
1393.03	59.3875
1394.61	58.2049
1396.19	57.7428
1397.77	57.1645
1399.35	57.9331
1400.93	58.5849
1402.51	57.1748
1404.09	57.9481
1405.67	57.3712
1407.24	58.1784
1408.82	58.2657
1410.4	59.4768
1411.98	60.5417
1413.55	61.7755
1415.13	63.7652
1416.71	66.7043
1418.28	69.6047
1419.86	72.1611
1421.43	75.1119
1423.01	78.4481
1424.58	82.1393
1426.16	86.895
1427.73	90.9285
1429.31	94.8325
1430.88	99.8801
1432.45	104.037
1434.02	106.986
1435.6	110.57
1437.17	114.625
1438.74	117.057
1440.31	119.467
1441.88	120.962
1443.45	122.398
1445.03	123.723
1446.6	125.791
1448.17	127.945
1449.74	129.18
1451.3	130.49
1452.87	131.374
1454.44	132.366
1456.01	132.604
1457.58	131.148
1459.15	130.292
1460.72	129.477
1462.28	128.386
1463.85	126.882
1465.42	125.133
1466.98	123.469
1468.55	121.068
1470.12	119.273
1471.68	116.148
1473.25	114.341
1474.81	111.522
1476.38	109.835
1477.94	107.631
1479.51	104.679
1481.07	100.981
1482.63	98.3467
1484.2	94.6523
1485.76	92.7507
1487.32	89.7378
1488.88	87.3267
1490.45	84.8201
1492.01	81.8518
1493.57	80.5601
1495.13	77.9579
1496.69	74.6166
1498.25	71.8959
1499.81	69.9126
1501.37	68.2965
1502.93	66.3949
1504.49	64.2152
1506.05	61.3545
1507.61	59.8937
1509.17	57.9054
1510.73	54.5715
1512.28	51.1926
1513.84	49.4416
1515.4	45.4732
1516.96	42.4084
1518.51	40.8137
1520.07	38.5661
1521.63	36.4386
1523.18	34.8154
1524.74	34.2194
1526.29	33.3211
1527.85	31.7188
1529.4	31.2189
1530.96	30.3665
1532.51	29.4318
1534.06	28.6002
1535.62	29.3887
1537.17	29.6012
1538.72	29.8736
1540.28	30.6116
1541.83	31.4061
1543.38	31.7369
1544.93	32.079
1546.48	33.7403
1548.03	35.7496
1549.59	37.1648
1551.14	38.7602
1552.69	40.5267
1554.24	43.3525
1555.79	44.5161
1557.34	45.9695
1558.88	47.603
1560.43	49.721
1561.98	51.4483
1563.53	53.5233
1565.08	54.6764
1566.62	56.5751
1568.17	58.8092
1569.72	60.8613
1571.27	62.8763
1572.81	64.1
1574.36	65.9204
1575.9	67.5434
1577.45	69.0338
1579	71.0833
1580.54	72.7062
1582.09	74.9862
1583.63	77.4913
1585.17	79.4468
1586.72	80.096
1588.26	80.9164
1589.8	82.3875
1591.35	83.6936
1592.89	84.6363
1594.43	86.6205
1595.97	88.2165
1597.52	88.0194
1599.06	89.2568
1600.6	90.6345
1602.14	91.4941
1603.68	91.7702
1605.22	90.943
1606.76	91.3513
1608.3	90.7337
1609.84	90.9834
1611.38	91.3355
1612.92	90.7879
1614.46	90.9724
1615.99	91.2676
1617.53	92.3011
1619.07	92.0172
1620.61	92.6084
1622.14	94.6674
1623.68	96.7366
1625.22	98.239
1626.75	100.004
1628.29	101.608
1629.82	105.225
1631.36	107.961
1632.9	109.69
1634.43	113.065
1635.96	115.564
1637.5	118.416
1639.03	121.299
1640.57	123.977
1642.1	127.259
1643.63	130.2
1645.16	132.629
1646.7	133.792
1648.23	134.896
1649.76	136.349
1651.29	137.85
1652.82	138.767
1654.36	139.949
1655.89	141.049
1657.42	141.316
1658.95	140.999
1660.48	140.103
1662.01	138.906
1663.53	136.44
1665.06	134.852
1666.59	133.247
1668.12	130.436
1669.65	127.316
1671.18	123.914
1672.7	120.014
1674.23	116.073
1675.76	112.106
1677.29	107.602
1678.81	102.601
1680.34	98.0756
1681.86	93.3329
1683.39	89.2436
1684.91	83.84
1686.44	79.4893
1687.96	74.877
1689.49	71.2583
1691.01	67.2607
1692.54	61.7788
1694.06	57.3916
1695.58	53.7305
1697.11	50.3944
1698.63	48.0378
1700.15	44.9282
1701.67	42.1115
1703.2	39.5969
1704.72	37.2657
1706.24	35.9094
1707.76	33.3891
1709.28	31.5251
1710.8	30.5069
1712.32	28.4067
1713.84	26.9384
1715.36	24.9162
1716.88	23.0899
1718.4	21.9002
1719.91	20.2022
1721.43	18.4815
1722.95	17.4732
1724.47	16.7044
1725.99	15.9129
1727.5	15.4087
1729.02	14.5399
1730.54	14.0682
1732.05	13.1124
1733.57	11.8083
1735.09	10.8925
1736.6	10.9361
1738.12	10.297
1739.63	8.97623
1741.15	8.71624
1742.66	8.64038
1744.18	7.38339
1745.69	7.18853
1747.2	6.81985
1748.72	6.05153
1750.23	6.26106
1751.74	5.27024
1753.25	4.79212
1754.77	4.43094
1756.28	4.41042
1757.79	4.18926
1759.3	3.67711
1760.81	2.58418
1762.32	2.32083
1763.83	2.20993
1765.34	1.52101
1766.85	0.44764
1768.36	0.463908
1769.87	0.916132
1771.38	1.09925
1772.89	0.477377
1774.4	0.778998
1775.91	0.400347
1777.41	1.05432
1778.92	1.30754
1780.43	1.86311
1781.94	1.70811
1783.44	2.23799
1784.95	1.96525
1786.45	2.02906
1787.96	1.98467
1789.47	2.41727
1790.97	2.90287
1792.48	2.95892
1793.98	2.83338
1795.48	2.4128
1796.99	2.07608
1798.49	2.05571
1800	1.53928
1801.5	1.64849
1803	1.58807
1804.51	1.09811
1806.01	0.973365
1807.51	0.675728
1809.01	0.921236
1810.51	0.975812
1812.02	1.24283
1813.52	0.731349
1815.02	0.31609
1816.52	0.0280721
1818.02	-0.0203086
1819.52	-0.412674
1821.02	-0.424816
1822.52	-1.10181
1824.02	-1.18008
1825.51	-1.21505
1827.01	-0.519994
1828.51	-0.163869
1830.01	0.246953
1831.51	-0.0152912
1833	0.0210325
1834.5	-0.0653831
1836	-0.502729
1837.5	-0.249372
1838.99	0.0568415
1840.49	-0.0813604
1841.98	0.611574
1843.48	0.674367
1844.97	1.40658
1846.47	1.74318
1847.96	1.48848
1849.46	1.68329
1850.95	2.10527
1852.45	2.63932
1853.94	2.52968
1855.43	2.62101
1856.92	2.49712
1858.42	2.91076
1859.91	2.48826
1861.4	3.05524
1862.89	2.95925
1864.39	3.01286
1865.88	3.23064
1867.37	2.04635
1868.86	1.93812
1870.35	2.3811
1871.84	2.41086
1873.33	2.37147
1874.82	3.30318
1876.31	4.12457
1877.8	4.06818
1879.29	4.36545
1880.77	4.68573
1882.26	4.82081
1882.51	4.90837
1884	4.90862
1885.5	5.16756
1886.99	5.07704
1888.48	5.16777
1889.98	5.17244
1891.47	5.43982
1892.97	5.78505
1894.46	6.23294
1895.95	6.20564
1897.44	6.85305
1898.93	7.14631
1900.42	7.41584
1901.92	6.72267
1903.41	7.16862
1904.9	7.50899
1906.39	7.08415
1907.88	6.86726
1909.37	6.38312
1910.86	6.38902
1912.35	6.18701
1913.84	5.71089
1915.32	5.82798
1916.81	5.38369
1918.3	4.89736
1919.79	4.30518
1921.28	3.47521
1922.76	4.15069
1924.25	4.24031
1925.74	3.65729
1927.22	3.28487
1928.71	2.90854
1930.2	3.37473
1931.68	3.10581
1933.17	3.2572
1934.65	2.59989
1936.14	2.94948
1937.62	3.04635
1939.11	3.35557
1940.59	2.97973
1942.08	3.87454
1943.56	4.47369
1945.04	4.80584
1946.53	4.98703
1948.01	5.56614
1949.49	5.22508
1950.97	4.96986
1952.45	5.08399
1953.94	5.2206
1955.42	5.3066
1956.9	5.06304
1958.38	5.33625
1959.86	5.00739
1961.34	5.25869
1962.82	5.40967
1964.3	5.58488
1965.78	5.80294
1967.26	5.72182
1968.74	5.92674
1970.22	5.60754
1971.69	5.67848
1973.17	5.72687
1974.65	5.55101
1976.13	5.74048
1977.61	6.0795
1979.08	6.70603
1980.56	6.48325
1982.03	6.52687
1983.51	6.34797
1984.99	6.83663
1986.46	7.02742
1987.94	7.55681
1989.41	7.96108
1990.89	8.0131
1992.36	7.90249
1993.84	7.95552
1995.31	8.72209
1996.78	8.59361
1998.26	8.35591
1999.73	7.29216
2001.2	7.62907
2002.68	8.04508
2004.15	8.49858
2005.62	8.10865
2007.09	8.6046
2008.56	8.88436
2010.04	10.0385
2011.51	10.2144
2012.98	11.336
2014.45	11.139
2015.92	11.3768
2017.39	11.9431
2018.86	12.1253
2020.33	11.1658
2021.8	11.9475
2023.27	12.9003
2024.74	13.1142
2026.2	12.8369
2027.67	13.2925
2029.14	12.488
2030.61	12.3272
2032.07	12.7975
2033.54	13.1599
2035.01	14.0994
2036.47	13.3887
2037.94	13.4042
2039.41	13.3602
2040.87	12.4759
2042.34	12.4489
2043.8	12.3417
2045.27	13.4006
2046.73	14.2352
2048.2	14.2119
2049.66	15.3826
2051.12	15.3888
2052.59	15.6369
2054.05	15.7861
2055.51	15.5729
2056.98	16.1911
2058.44	16.441
2059.9	16.699
2061.36	17.3664
2062.82	17.1446
2064.29	17.2493
2065.75	18.063
2067.21	18.8634
2068.67	19.928
2070.13	19.8234
2071.59	20.5496
2073.05	20.9132
2074.51	22.8714
2075.97	24.3161
2077.43	25.1896
2078.88	26.6884
2080.34	27.9142
2081.8	29.0491
2083.26	30.8941
2084.72	31.9577
2086.17	33.7529
2087.63	34.9524
2089.09	36.63
2090.54	37.7865
2092	38.3162
2093.46	39.7938
2094.91	41.8672
2096.37	43.2001
2097.82	43.7286
2099.28	44.9879
2100.73	46.8426
2102.19	48.2178
2103.64	49.8949
2105.09	51.9805
2106.55	52.848
2108	54.11
2109.46	54.6226
2110.91	56.4099
2112.36	57.7702
2113.81	59.0859
2115.27	60.8089
2116.72	62.9303
2118.17	65.7879
2119.62	67.9101
2121.07	69.5948
2122.52	72.1187
2123.97	74.3346
2125.42	76.653
