#Acq. time (s)=	45
#Accumulations=	2
#Range (cm-¹)=	200...3150
#Windows=	2
#Auto scanning=	Off
#Autofocus=	Off
#Macrospot=	Off
#AutoExposure=	Off
#Spike filter=	Multiple accum.
#Delay time (s)=	0
#Binning=	1
#Readout mode=	Signal
#DeNoise=	Off
#ICS correction=	On
#Dark correction=	Off
#Inst. Process=	Off
#Detector Gain=	Best Dynamic Range
#Detector ADC=	20 kHz       
#Detector temperature (°C)=	-69.85
#Instrument=	LabRAM HR Evol
#Detector=	Synapse
#Objective=	x100
#Grating=	600 gr/mm
#ND Filter=	100%
#Laser (nm)=	532 
#Hole=	100.021
#Range=	Auto
#Laser Pol.=	No
#Raman. Pol.=	No
#Laser Pol. (°)=	-0.0007625
#Raman Pol. (°)=	89.9995
#Collection=	Microscope
#StageXY=	Marzhauser
#StageZ=	Marzhauser
#X (µm)=	28058.5
#Y (µm)=	-563.4
#Z (µm)=	1083.7
#Full time(mm:ss)=	3:19
#Project=	
#Sample=	
#Site=	
#Title=	Mb_30_27_02_2x_45s_532 nm_x100_100%_600 gr_mm
#Remark=	
#Date=	12.07.2022 15:34
#Acquired=	12.07.2022 15:34:39
#Base:Fit=	10.08.2022 10:39:47
#Base:Sub=	10.08.2022 10:39:55
#Base:Fit=	10.08.2022 10:40:03
#Base:Sub=	10.08.2022 10:40:17
#Filter:Polynom=	16.08.2022 10:16:15
#AxisType[0]=Intens
#AxisUnit[0]=Cnt
#AxisType[1]=Spectr
#AxisUnit[1]=1/cm
200.388	10.2627
202.204	12.4722
204.019	12.4239
205.832	12.3612
207.646	11.8685
209.459	11.7792
211.274	11.805
213.087	11.915
214.899	11.7002
216.711	10.705
218.524	10.261
220.335	10.8126
222.146	12.0129
223.956	13.7206
225.766	13.4714
227.576	13.5885
229.388	14.4188
231.197	14.4062
233.005	13.2176
234.813	11.3474
236.621	10.9237
238.429	10.7804
240.236	10.8963
242.045	11.1427
243.852	11.1491
245.658	11.491
247.464	10.7691
249.269	10.8732
251.074	11.0267
252.879	11.7253
254.683	12.7681
256.487	13.7218
258.291	13.5777
260.094	14.019
261.897	14.401
263.702	13.5844
265.504	15.4267
267.306	15.8074
269.108	16.5691
270.909	17.6702
272.71	18.348
274.511	17.3899
276.311	18.0208
278.111	18.176
279.91	18.1034
281.709	19.3113
283.508	19.9751
285.306	19.7069
287.105	19.6862
288.9	19.3148
290.698	19.8434
292.495	21.0219
294.291	22.5589
296.088	23.5294
297.884	25.4205
299.679	25.7105
301.475	25.9223
303.27	25.9441
305.064	25.9588
306.858	26.513
308.652	27.644
310.444	29.1206
312.237	29.8227
314.03	28.5729
315.822	27.1186
317.615	27.1412
319.406	26.6585
321.198	25.714
322.987	24.0704
324.778	23.2892
326.568	23.8993
328.358	23.8361
330.148	23.7668
331.935	23.0579
333.724	22.6433
335.513	23.3059
337.301	23.3019
339.089	23.4561
340.875	22.6987
342.662	22.0632
344.449	22.7947
346.236	22.1816
348.02	21.647
349.806	21.4527
351.592	21.8455
353.375	22.8004
355.16	23.7816
356.944	23.9852
358.728	24.9163
360.51	24.6831
362.294	24.1615
364.077	25.0935
365.858	25.6007
367.64	25.141
369.422	25.2245
371.202	25.1172
372.983	25.4306
374.764	24.904
376.543	25.715
378.324	26.4824
380.102	27.1541
381.881	27.3202
383.661	26.5938
385.438	26.4125
387.216	26.4898
388.993	26.2044
390.771	26.1466
392.548	26.0185
394.324	25.1863
396.101	24.6712
397.875	24.4544
399.651	23.9645
401.425	22.6389
403.201	21.1612
404.974	20.404
406.749	19.3903
408.524	18.6198
410.296	18.6485
412.07	17.885
413.841	17.8685
415.614	17.862
417.385	17.8883
419.156	17.6763
420.928	16.8895
422.698	16.6177
424.469	17.0705
426.238	15.8468
428.009	15.2428
429.777	14.7541
431.548	15.1201
433.315	15.3413
435.083	15.7301
436.852	17.2314
438.618	18.6236
440.387	19.9555
442.153	20.2941
443.919	20.3126
445.686	21.2841
447.451	21.6162
449.218	21.2205
450.982	21.8606
452.746	22.8444
454.512	22.8118
456.275	22.3675
458.038	22.1421
459.803	22.6763
461.565	23.708
463.327	22.9681
465.091	23.969
466.852	23.8953
468.613	24.546
470.374	25.1623
472.136	26.0071
473.896	28.2702
475.655	29.7382
477.415	30.773
479.176	31.5149
480.934	31.0754
482.692	31.6188
484.45	32.5983
486.21	33.9405
487.967	34.7341
489.724	34.7176
491.481	35.1092
493.237	35.3011
494.995	35.9066
496.75	37.3273
498.506	37.8364
500.26	37.9522
502.015	38.0809
503.771	38.4077
505.525	38.9061
507.279	39.0659
509.032	38.5348
510.785	38.5445
512.537	38.8985
514.289	37.5806
516.041	38.0451
517.793	37.4016
519.546	37.7792
521.297	37.6349
523.047	37.7169
524.797	36.4875
526.547	35.9586
528.297	34.1642
530.046	32.7752
531.795	31.6887
533.543	30.6741
535.291	29.1979
537.039	28.2209
538.787	27.1874
540.534	26.4079
542.281	25.7868
544.027	23.742
545.773	22.8218
547.519	22.1004
549.264	21.1213
551.01	20.5576
552.754	21.4364
554.499	20.7108
556.243	20.3508
557.987	19.8503
559.73	20.8543
561.474	21.6003
563.216	20.9593
564.959	20.5532
566.701	20.7398
568.441	20.4742
570.182	20.4371
571.923	19.8233
573.664	18.8442
575.405	17.8139
577.145	16.7979
578.885	16.4021
580.624	16.4
582.361	16.197
584.1	17.0696
585.839	16.3248
587.577	16.4404
589.315	16.0536
591.052	15.4012
592.787	15.2928
594.524	14.7355
596.26	14.8635
597.997	14.982
599.732	15.0014
601.466	14.7197
603.201	15.1696
604.936	13.7915
606.67	13.6433
608.403	12.4431
610.136	11.8463
611.87	11.8132
613.603	12.3125
615.334	12.2167
617.067	11.7169
618.799	11.7246
620.529	12.9661
622.26	13.6924
623.991	13.8202
625.72	14.3118
627.451	14.7521
629.181	14.6642
630.909	14.8631
632.638	15.9747
634.368	17.1696
636.095	17.8136
637.823	18.1025
639.551	18.6942
641.277	19.1921
643.005	21.1245
644.73	22.3017
646.457	23.8447
648.184	23.694
649.908	24.0118
651.634	23.9986
653.357	24.0693
655.083	23.8895
656.806	23.3614
658.53	22.8567
660.253	22.6005
661.977	23.8196
663.7	24.6542
665.422	24.8584
667.145	25.1638
668.865	24.722
670.588	25.1743
672.308	24.6042
674.027	25.4291
675.749	25.6844
677.468	26.1017
679.188	27.4851
680.907	28.0479
682.627	28.7572
684.345	28.1723
686.064	28.425
687.781	28.429
689.498	28.8602
691.216	29.3086
692.932	31.1827
694.65	31.6823
696.366	33.9202
698.081	34.5859
699.797	35.4403
701.512	36.2717
703.228	36.8044
704.942	38.1508
706.655	38.7395
708.371	38.5228
710.083	38.8895
711.796	40.2612
713.51	40.7357
715.222	41.4083
716.934	42.4897
718.645	44.0902
720.358	45.3528
722.068	45.801
723.779	46.941
725.49	48.8716
727.2	50.1979
728.909	51.3562
730.618	50.7049
732.329	51.4205
734.037	52.1023
735.745	52.0072
737.453	52.3822
739.16	53.6836
740.869	54.3147
742.576	54.7955
744.282	56.1492
745.988	57.6471
747.694	59.1712
749.401	59.9741
751.107	60.6799
752.811	62.2014
754.516	62.9476
756.22	63.6642
757.924	63.3747
759.627	64.0574
761.332	65.0829
763.035	67.0615
764.738	68.236
766.44	68.4464
768.142	69.788
769.843	71.092
771.544	72.5002
773.245	73.1329
774.946	74.1314
776.646	75.0025
778.346	76.1416
780.046	76.3807
781.745	77.0124
783.444	76.8128
785.143	77.5336
786.841	78.2856
788.539	78.287
790.237	78.5607
791.934	79.93
793.631	81.1081
795.328	81.5314
797.024	81.6479
798.72	82.4429
800.416	82.6312
802.112	83.3225
803.807	84.3188
805.502	84.7461
807.196	85.241
808.89	85.031
810.584	86.2677
812.278	86.5296
813.971	86.781
815.664	86.5073
817.354	86.7521
819.047	86.8285
820.739	86.1124
822.43	86.7877
824.122	87.4564
825.813	86.5734
827.503	86.0061
829.192	86.2747
830.882	84.9376
832.571	84.9259
834.261	84.0747
835.95	82.9969
837.637	81.2539
839.325	78.9651
841.013	77.1573
842.701	77.0119
844.389	77.0555
846.074	75.8444
847.761	74.9788
849.447	73.1365
851.131	71.9862
852.817	70.248
854.503	68.0503
856.188	66.747
857.871	65.507
859.556	64.568
861.24	63.066
862.922	62.0402
864.606	60.8025
866.289	59.837
867.97	59.3568
869.653	58.8837
871.336	57.8743
873.016	56.3872
874.698	55.5428
876.379	54.6549
878.058	52.3087
879.739	51.4285
881.418	50.2584
883.098	49.5171
884.778	48.4238
886.456	48.7192
888.135	48.9656
889.812	48.708
891.49	48.639
893.167	47.7852
894.845	48.121
896.523	47.6906
898.198	46.7292
899.875	45.8012
901.55	45.3644
903.226	45.9874
904.901	45.3781
906.576	45.7865
908.25	45.9719
909.925	44.4598
911.598	43.6574
913.271	43.9046
914.945	43.2359
916.617	42.312
918.291	40.9509
919.962	40.2296
921.635	39.9475
923.306	40.3877
924.978	40.3939
926.648	41.6356
928.318	41.1562
929.989	41.0326
931.659	41.0537
933.328	40.1233
934.998	40.2692
936.666	39.1369
938.336	39.774
940.004	40.6161
941.671	40.1781
943.34	39.689
945.007	39.7498
946.673	40.2752
948.339	39.9084
950.007	40.9046
951.672	40.7366
953.337	40.4584
955.004	39.1368
956.669	39.2339
958.333	38.9533
959.997	39.82
961.662	39.0721
963.326	39.5008
964.989	38.5636
966.651	38.6084
968.315	39.9275
969.977	39.9784
971.639	38.9392
973.301	38.8831
974.962	39.3638
976.624	39.107
978.285	38.9736
979.945	39.1444
981.605	38.4127
983.264	39.6726
984.924	39.7186
986.583	39.4898
988.243	39.3978
989.901	39.3567
991.56	38.3569
993.217	37.383
994.875	36.4489
996.532	35.9581
998.188	34.6538
999.845	32.6932
1001.5	32.4251
1003.16	32.1963
1004.81	32.8959
1006.47	33.292
1008.12	34.0185
1009.78	35.1164
1011.43	35.6123
1013.09	36.4926
1014.74	37.5367
1016.39	38.2988
1018.05	39.5949
1019.7	40.0584
1021.35	41.8327
1023	41.9442
1024.65	41.7014
1026.31	42.8667
1027.96	43.2889
1029.61	43.6263
1031.26	44.5641
1032.91	45.9841
1034.56	45.7432
1036.21	45.9871
1037.86	45.3832
1039.51	45.3849
1041.16	45.1769
1042.8	44.822
1044.45	43.1351
1046.1	42.5359
1047.75	41.3999
1049.39	41.0955
1051.04	40.5463
1052.69	38.3742
1054.33	36.9041
1055.98	36.3187
1057.62	35.0982
1059.27	33.1453
1060.91	30.9024
1062.56	29.3702
1064.2	28.177
1065.85	26.5461
1067.49	23.5212
1069.13	21.3797
1070.77	20.1047
1072.42	17.3247
1074.06	15.281
1075.7	13.3433
1077.34	10.9632
1078.98	9.12802
1080.62	7.43807
1082.27	6.57994
1083.91	7.22777
1085.55	7.48375
1087.18	7.62198
1088.82	7.45656
1090.46	8.39825
1092.1	8.76536
1093.74	9.3432
1095.38	9.10824
1097.02	9.05784
1098.65	8.11711
1100.29	8.76718
1101.93	8.93618
1103.56	9.28718
1105.2	9.02827
1106.84	10.0618
1108.47	10.766
1110.11	10.5514
1111.74	11.0611
1113.38	11.8381
1115.01	11.68
1116.64	12.1375
1118.28	12.4429
1119.91	12.1134
1121.54	11.2406
1123.18	11.0328
1124.81	10.1812
1126.44	10.111
1128.07	10.101
1129.7	9.52993
1131.33	8.57687
1132.97	8.17839
1134.6	7.50653
1136.23	7.77136
1137.86	7.90773
1139.49	7.18275
1141.11	6.02002
1142.74	5.60543
1144.37	5.48098
1146	5.16122
1147.63	3.92536
1149.26	3.46597
1150.88	4.00789
1152.51	3.98639
1154.14	3.79671
1155.76	4.66798
1157.39	4.8029
1159.01	4.24122
1160.64	3.71334
1162.27	4.06851
1163.89	3.88994
1165.51	3.43838
1167.14	3.59631
1168.76	3.86219
1170.39	4.20737
1172.01	4.84335
1173.63	5.08194
1175.25	5.4232
1176.88	5.53123
1178.5	6.18695
1180.12	6.21869
1181.74	6.40347
1183.36	6.65863
1184.98	6.89748
1186.6	6.65347
1188.22	5.89767
1189.84	6.04416
1191.46	6.34633
1193.08	6.96689
1194.7	7.48217
1196.32	7.11878
1197.94	7.11586
1199.55	6.27764
1201.17	6.06763
1202.79	6.36674
1204.41	8.29158
1206.02	9.16178
1207.64	9.63892
1209.25	9.25776
1210.87	10.1881
1212.48	10.6389
1214.1	12.4275
1215.71	12.9683
1217.33	13.9738
1218.94	15.0064
1220.56	16.2676
1222.17	17.7485
1223.79	19.8696
1225.4	21.0393
1227.01	22.7913
1228.62	24.9401
1230.23	27.1024
1231.85	29.7384
1233.46	30.7737
1235.07	32.4934
1236.68	34.1699
1238.29	34.6041
1239.9	34.8011
1241.51	35.4733
1243.12	36.6722
1244.73	37.6695
1246.34	38.7101
1247.94	40.301
1249.55	40.3367
1251.16	40.4601
1252.77	41.8929
1254.37	42.3672
1255.98	42.379
1257.59	41.9064
1259.2	41.683
1260.8	41.6696
1262.41	40.9394
1264.01	40.5453
1265.62	40.4944
1267.22	40.1637
1268.83	40.4138
1270.43	40.7917
1272.03	41.0675
1273.64	41.7202
1275.24	41.0988
1276.85	41.2897
1278.45	40.9112
1280.05	41.8121
1281.65	42.8036
1283.25	42.6828
1284.85	42.3129
1286.46	41.7412
1288.06	41.103
1289.66	40.8764
1291.26	41.7481
1292.86	41.5329
1294.46	42.7849
1296.06	43.7362
1297.66	44.8532
1299.25	45.376
1300.85	47.297
1302.45	47.9482
1304.05	49.3369
1305.65	49.7974
1307.24	50.9051
1308.84	51.9839
1310.43	51.6396
1312.03	52.7049
1313.63	52.332
1315.22	53.1288
1316.82	52.699
1318.41	51.7282
1320.01	51.5907
1321.6	51.445
1323.2	51.8099
1324.79	52.0558
1326.38	51.6282
1327.98	51.4025
1329.57	50.7637
1331.16	51.0155
1332.76	51.0949
1334.35	49.8155
1335.94	49.3991
1337.53	49.699
1339.12	49.6168
1340.71	49.5476
1342.3	49.1975
1343.89	49.3916
1345.48	49.7132
1347.07	49.3175
1348.66	49.7778
1350.25	49.7097
1351.84	50.2553
1353.43	49.679
1355.01	48.4153
1356.6	48.3095
1358.19	47.2195
1359.77	47.8486
1361.36	46.6905
1362.95	45.7942
1364.53	45.3911
1366.12	44.7397
1367.71	43.9718
1369.29	43.7349
1370.88	43.1836
1372.46	42.8655
1374.04	42.4377
1375.63	41.8041
1377.21	40.9555
1378.8	40.4167
1380.38	40.0892
1381.96	38.8731
1383.54	37.966
1385.13	36.6226
1386.71	36.4045
1388.29	36.339
1389.87	35.1267
1391.45	35.1328
1393.03	33.5724
1394.61	32.5828
1396.19	30.4484
1397.77	30.4299
1399.35	29.8613
1400.93	29.1922
1402.51	28.6457
1404.09	27.699
1405.67	27.6417
1407.24	26.9018
1408.82	26.9301
1410.4	27.2793
1411.98	26.8732
1413.55	27.2712
1415.13	28.4636
1416.71	28.9331
1418.28	29.1857
1419.86	30.2062
1421.43	31.5701
1423.01	32.6328
1424.58	34.0503
1426.16	35.4867
1427.73	37.1898
1429.31	39.0233
1430.88	40.2858
1432.45	41.3183
1434.02	42.4721
1435.6	43.8344
1437.17	44.7426
1438.74	46.3878
1440.31	47.227
1441.88	47.9322
1443.45	49.003
1445.03	49.4193
1446.6	50.0001
1448.17	50.2441
1449.74	50.8321
1451.3	51.8789
1452.87	51.9768
1454.44	52.2374
1456.01	52.9751
1457.58	53.1563
1459.15	53.6076
1460.72	54.4387
1462.28	55.1374
1463.85	55.3366
1465.42	54.9854
1466.98	53.7972
1468.55	52.4904
1470.12	52.5296
1471.68	51.9874
1473.25	51.522
1474.81	50.4737
1476.38	50.1715
1477.94	48.5088
1479.51	47.7142
1481.07	46.5504
1482.63	45.5189
1484.2	44.2718
1485.76	42.0974
1487.32	40.7555
1488.88	39.4009
1490.45	38.4386
1492.01	37.57
1493.57	36.2358
1495.13	35.5745
1496.69	34.9131
1498.25	33.4543
1499.81	33.5245
1501.37	31.9227
1502.93	30.9912
1504.49	30.085
1506.05	29.946
1507.61	28.6685
1509.17	27.0732
1510.73	25.5587
1512.28	24.1643
1513.84	23.0005
1515.4	21.8664
1516.96	21.0292
1518.51	19.7991
1520.07	18.2541
1521.63	18.278
1523.18	17.5509
1524.74	16.1117
1526.29	15.7026
1527.85	15.3677
1529.4	14.6916
1530.96	14.0628
1532.51	14.5206
1534.06	15.3207
1535.62	15.6356
1537.17	15.8892
1538.72	15.2934
1540.28	15.9112
1541.83	15.9019
1543.38	16.425
1544.93	18.3365
1546.48	18.8042
1548.03	20.263
1549.59	21.1508
1551.14	21.6506
1552.69	22.2652
1554.24	23.4865
1555.79	23.5242
1557.34	24.2711
1558.88	24.3944
1560.43	24.9996
1561.98	24.8097
1563.53	25.3972
1565.08	26.3326
1566.62	28.2183
1568.17	29.0003
1569.72	29.9132
1571.27	30.9034
1572.81	31.7774
1574.36	31.9277
1575.9	33.3047
1577.45	34.963
1579	34.8706
1580.54	35.6103
1582.09	36.9201
1583.63	36.9749
1585.17	36.6683
1586.72	37.1402
1588.26	37.8123
1589.8	38.3449
1591.35	38.1305
1592.89	38.0304
1594.43	37.5689
1595.97	37.7174
1597.52	37.6086
1599.06	38.5235
1600.6	37.6089
1602.14	37.0528
1603.68	37.0989
1605.22	36.9928
1606.76	37.3728
1608.3	37.5567
1609.84	37.8101
1611.38	37.5346
1612.92	38.2509
1614.46	37.9619
1615.99	38.3704
1617.53	39.84
1619.07	40.3042
1620.61	40.7986
1622.14	41.8738
1623.68	41.9612
1625.22	43.4888
1626.75	43.9424
1628.29	44.4175
1629.82	44.9507
1631.36	45.5063
1632.9	45.8606
1634.43	46.9797
1635.96	47.0665
1637.5	47.8329
1639.03	47.9852
1640.57	49.7586
1642.1	50.7818
1643.63	52.5182
1645.16	52.884
1646.7	53.7812
1648.23	53.9345
1649.76	53.9973
1651.29	55.2553
1652.82	56.0435
1654.36	56.3123
1655.89	56.6881
1657.42	57.3911
1658.95	57.9115
1660.48	57.2653
1662.01	57.8411
1663.53	57.502
1665.06	56.9266
1666.59	55.3715
1668.12	54.598
1669.65	53.8142
1671.18	52.1313
1672.7	51.6308
1674.23	49.9741
1675.76	48.0928
1677.29	45.3292
1678.81	43.5599
1680.34	41.042
1681.86	39.2285
1683.39	36.8435
1684.91	34.1992
1686.44	32.2385
1687.96	30.7085
1689.49	29.4961
1691.01	27.5906
1692.54	26.3122
1694.06	25.1853
1695.58	22.4445
1697.11	20.9142
1698.63	19.9713
1700.15	18.1032
1701.67	16.2926
1703.2	14.9921
1704.72	14.3737
1706.24	13.0038
1707.76	12.2445
1709.28	10.9553
1710.8	9.96853
1712.32	9.25509
1713.84	9.13507
1715.36	8.52759
1716.88	7.90511
1718.4	6.73631
1719.91	6.7382
1721.43	5.85626
1722.95	5.31474
1724.47	5.49431
1725.99	6.16139
1727.5	7.02998
1729.02	6.53545
1730.54	6.75106
1732.05	6.77726
1733.57	6.74361
1735.09	6.5743
1736.6	6.75627
1738.12	6.77642
1739.63	6.7407
1741.15	7.13423
1742.66	7.19169
1744.18	6.77127
1745.69	5.70935
1747.2	5.12922
1748.72	5.28117
1750.23	4.65632
1751.74	3.92896
1753.25	4.28899
1754.77	4.37304
1756.28	3.97657
1757.79	3.79149
1759.3	3.79478
1760.81	4.03419
1762.32	4.43893
1763.83	4.4433
1765.34	4.4335
1766.85	4.28785
1768.36	3.9308
1769.87	3.6787
1771.38	2.6062
1772.89	3.02793
1774.4	3.17564
1775.91	2.89738
1777.41	2.79409
1778.92	3.06688
1780.43	3.02823
1781.94	2.58744
1783.44	2.81401
1784.95	2.71967
1786.45	2.85218
1787.96	3.00035
1789.47	2.57712
1790.97	2.06478
1792.48	1.98469
1793.98	2.09888
1795.48	2.47413
1796.99	2.44116
1798.49	2.84906
1800	3.14378
1801.5	2.50103
1803	2.15148
1804.51	1.91999
1806.01	2.04914
1807.51	1.9382
1809.01	1.47742
1810.51	1.41531
1812.02	1.65368
1813.52	1.55586
1815.02	2.05917
1816.52	1.87863
1818.02	1.17635
1819.52	0.848168
1821.02	1.44035
1822.52	1.98704
1824.02	2.31925
1825.51	2.33719
1827.01	2.047
1828.51	2.83797
1830.01	2.60454
1831.51	2.50509
1833	2.56849
1834.5	2.2834
1836	2.02127
1837.5	2.19464
1838.99	1.70911
1840.49	1.70081
1841.98	1.44846
1843.48	1.102
1844.97	0.926026
1846.47	0.667832
1847.96	0.600208
1849.46	1.15277
1850.95	1.18479
1852.45	0.960541
1853.94	0.75312
1855.43	0.480184
1856.92	0.58291
1858.42	0.967655
1859.91	0.863389
1861.4	0.578638
1862.89	0.320007
1864.39	0.0825814
1865.88	-0.00965232
1867.37	0.313688
1868.86	0.424299
1870.35	0.284221
1871.84	0.724528
1873.33	0.648855
1874.82	0.362272
1876.31	0.21121
1877.8	0.38437
1879.29	0.32416
1880.77	0.0832799
1882.26	-0.203544
1882.51	-0.086467
1884	0.0488725
1885.5	-0.0488331
1886.99	0.446735
1888.48	0.909603
1889.98	0.207109
1891.47	0.280167
1892.97	0.80165
1894.46	1.34911
1895.95	1.32378
1897.44	0.488381
1898.93	0.695166
1900.42	0.729057
1901.92	1.14086
1903.41	0.502708
1904.9	0.269606
1906.39	0.212834
1907.88	0.0499166
1909.37	0.779124
1910.86	1.13024
1912.35	1.0954
1913.84	1.61995
1915.32	1.3352
1916.81	1.31724
1918.3	1.85679
1919.79	2.4726
1921.28	2.37191
1922.76	2.53191
1924.25	2.52519
1925.74	2.9937
1927.22	3.28199
1928.71	4.10616
1930.2	3.85009
1931.68	3.94217
1933.17	3.78238
1934.65	3.91406
1936.14	3.7785
1937.62	4.09971
1939.11	5.07833
1940.59	5.06158
1942.08	4.8204
1943.56	4.52864
1945.04	4.72368
1946.53	4.59584
1948.01	4.50721
1949.49	3.88857
1950.97	3.91944
1952.45	4.62218
1953.94	4.30605
1955.42	4.03272
1956.9	3.71965
1958.38	3.42254
1959.86	3.87557
1961.34	4.14608
1962.82	3.77845
1964.3	3.55695
1965.78	3.73963
1967.26	3.41502
1968.74	3.11092
1970.22	2.6102
1971.69	2.55642
1973.17	2.72475
1974.65	2.04638
1976.13	1.84006
1977.61	1.10677
1979.08	1.29526
1980.56	1.21328
1982.03	1.69941
1983.51	1.53597
1984.99	1.14892
1986.46	1.12914
1987.94	1.01921
1989.41	1.16912
1990.89	1.75727
1992.36	2.17034
1993.84	2.27851
1995.31	2.08428
1996.78	2.47771
1998.26	2.51969
1999.73	2.50912
2001.2	2.06731
2002.68	1.79382
2004.15	1.51059
2005.62	1.80164
2007.09	2.3912
2008.56	1.8073
2010.04	1.51712
2011.51	2.26319
2012.98	2.94051
2014.45	2.6462
2015.92	2.54288
2017.39	2.82464
2018.86	3.00965
2020.33	3.4189
2021.8	3.33707
2023.27	3.55306
2024.74	4.23228
2026.2	4.1727
2027.67	3.90304
2029.14	3.82874
2030.61	4.1081
2032.07	4.74722
2033.54	5.35891
2035.01	5.35808
2036.47	5.52571
2037.94	5.47622
2039.41	5.16884
2040.87	5.67331
2042.34	6.29691
2043.8	6.493
2045.27	6.43142
2046.73	6.339
2048.2	6.65588
2049.66	6.67179
2051.12	6.77326
2052.59	7.07771
2054.05	7.16471
2055.51	8.13733
2056.98	7.83313
2058.44	8.6342
2059.9	9.2161
2061.36	9.88114
2062.82	9.94297
2064.29	10.183
2065.75	10.377
2067.21	11.2614
2068.67	11.8536
2070.13	11.998
2071.59	12.3012
2073.05	12.5559
2074.51	12.4022
2075.97	12.9675
2077.43	13.3944
2078.88	13.7822
2080.34	14.4531
2081.8	14.1184
2083.26	14.2452
2084.72	14.7599
2086.17	14.9993
2087.63	15.056
2089.09	14.2617
2090.54	14.0718
2092	14.2207
2093.46	14.3889
2094.91	14.2735
2096.37	14.1868
2097.82	14.2465
2099.28	14.6148
2100.73	14.8791
2102.19	15.6537
2103.64	16.3694
2105.09	17.7424
2106.55	18.5568
2108	18.7234
2109.46	19.2489
2110.91	20.1295
2112.36	21.2159
2113.81	22.2943
2115.27	22.4797
2116.72	22.7009
2118.17	23.5536
2119.62	24.9172
2121.07	26.0438
2122.52	27.0692
2123.97	28.1407
2125.42	29.285
2126.87	30.1435
2128.32	32.0425
