#Acq. time (s)=	45
#Accumulations=	2
#Range (cm-¹)=	200...3150
#Windows=	2
#Auto scanning=	Off
#Autofocus=	Off
#Macrospot=	Off
#AutoExposure=	Off
#Spike filter=	Multiple accum.
#Delay time (s)=	0
#Binning=	1
#Readout mode=	Signal
#DeNoise=	Off
#ICS correction=	On
#Dark correction=	Off
#Inst. Process=	Off
#Detector Gain=	Best Dynamic Range
#Detector ADC=	20 kHz       
#Detector temperature (°C)=	-69.85
#Instrument=	LabRAM HR Evol
#Detector=	Synapse
#Objective=	x100
#Grating=	600 gr/mm
#ND Filter=	100%
#Laser (nm)=	532 
#Hole=	100.021
#Range=	Auto
#Laser Pol.=	No
#Raman. Pol.=	No
#Laser Pol. (°)=	-0.0007625
#Raman Pol. (°)=	89.9995
#Collection=	Microscope
#StageXY=	Marzhauser
#StageZ=	Marzhauser
#X (µm)=	-6372
#Y (µm)=	716.8
#Z (µm)=	-64.85
#Full time(mm:ss)=	3:18
#Project=	
#Sample=	
#Site=	
#Title=	Mb_30_27_49_2x_45s_532 nm_x100_100%_600 gr_mm
#Remark=	
#Date=	13.07.2022 12:27
#Acquired=	13.07.2022 12:27:49
#Base:Fit=	10.08.2022 10:40:03
#Base:Sub=	10.08.2022 10:40:17
#Filter:Polynom=	16.08.2022 10:16:15
#AxisType[0]=Intens
#AxisUnit[0]=Cnt
#AxisType[1]=Spectr
#AxisUnit[1]=1/cm
200.563	34.1363
202.377	35.2011
204.194	36.1428
206.008	36.5128
207.821	36.5751
209.634	36.3038
211.449	36.403
213.262	36.6944
215.074	36.4508
216.885	35.2423
218.699	33.5715
220.51	32.923
222.321	30.5015
224.131	29.1774
225.941	28.5549
227.751	25.3526
229.562	23.5975
231.371	21.2928
233.18	20.0776
234.988	19.5214
236.796	18.3014
238.603	17.5471
240.411	16.1927
242.219	15.7043
244.026	14.8576
245.832	14.695
247.638	14.1661
249.443	13.6477
251.248	12.5411
253.053	11.6775
254.857	10.0159
256.661	9.20627
258.465	7.93593
260.268	7.32549
262.071	8.84863
263.874	8.36472
265.678	7.83426
267.48	7.75508
269.282	6.25393
271.083	5.79135
272.884	5.63662
274.684	5.56026
276.484	4.5495
278.284	4.63805
280.084	4.26802
281.883	5.78865
283.682	7.25318
285.48	7.88981
287.276	7.3043
289.074	7.69413
290.871	8.29061
292.668	8.70654
294.465	9.60021
296.261	10.6563
298.057	11.6966
299.853	13.0022
301.648	14.3163
303.443	14.4665
305.237	14.3821
307.032	13.3161
308.823	12.8993
310.617	13.2108
312.41	12.7421
314.203	12.9185
315.995	12.8896
317.788	11.9045
319.579	12.5893
321.369	12.7154
323.16	12.6966
324.951	13.0206
326.741	11.9613
328.531	11.5952
330.321	10.8595
332.108	11.4629
333.897	11.7603
335.686	10.9833
337.474	10.1285
339.26	8.91467
341.048	8.70693
342.835	8.94621
344.622	7.97805
346.406	7.33078
348.192	7.79632
349.978	7.00025
351.764	6.82326
353.547	4.78149
355.332	5.10016
357.116	5.09503
358.901	4.6971
360.682	4.98281
362.466	5.38482
364.249	5.18217
366.03	5.95744
367.812	6.61604
369.594	6.45357
371.374	7.64309
373.155	7.79447
374.936	7.72892
376.715	8.27851
378.495	9.19338
380.273	10.6662
382.053	12.1827
383.832	13.2126
385.609	13.8001
387.388	14.7594
389.164	14.8561
390.942	15.0995
392.72	15.2091
394.495	15.0424
396.272	14.3768
398.047	15.1799
399.823	15.2489
401.597	15.0049
403.372	14.6582
405.145	15.2882
406.92	15.1363
408.693	14.9444
410.467	14.3263
412.239	13.5126
414.012	13.9161
415.783	12.2285
417.556	12.8092
419.327	12.6278
421.099	11.9001
422.869	11.0964
424.64	9.09303
426.409	9.13505
428.18	9.22901
429.948	10.4163
431.718	9.46912
433.486	8.76965
435.253	8.66605
437.022	9.62352
438.789	8.61801
440.558	8.23986
442.324	8.45421
444.089	9.98759
445.857	10.608
447.622	10.8835
449.386	10.4295
451.153	10.6015
452.917	10.9629
454.682	11.4909
456.446	11.0432
458.208	11.0876
459.973	11.3774
461.735	11.3658
463.497	12.7084
465.259	13.5763
467.022	14.4912
468.783	14.3247
470.544	15.654
472.306	15.9257
474.066	16.4793
475.825	17.1645
477.585	17.873
479.346	18.1754
481.104	18.9577
482.862	19.4155
484.62	20.2931
486.38	21.2589
488.137	21.0222
489.894	22.3164
491.65	23.2729
493.407	24.257
495.164	24.6025
496.92	24.7494
498.675	24.6115
500.43	24.867
502.184	25.0919
503.939	24.462
505.694	25.4525
507.448	24.8952
509.201	24.1779
510.954	24.6059
512.706	23.8789
514.459	24.3727
516.21	24.0073
517.962	23.9214
519.715	22.1742
521.466	22.1412
523.216	21.3927
524.966	21.9677
526.716	20.4713
528.466	20.6979
530.215	21.4634
531.964	21.7569
533.712	21.1527
535.46	19.0597
537.208	17.8341
538.955	17.7232
540.703	16.514
542.449	14.8649
544.196	14.53
545.942	14.4264
547.688	13.8236
549.433	12.7932
551.178	13.1158
552.923	11.082
554.667	10.4598
556.412	9.88567
558.155	10.448
559.899	7.56294
561.642	7.74281
563.385	6.32698
565.127	5.72251
566.867	4.77149
568.609	5.64828
570.35	5.68066
572.092	5.964
573.832	6.48192
575.573	6.1578
577.313	5.86449
579.053	5.47494
580.79	5.66286
582.529	6.08523
584.268	5.86616
586.006	4.94397
587.745	4.27171
589.482	3.94894
591.218	3.07171
592.955	3.28929
594.692	2.37225
596.428	0.969588
598.164	1.30511
599.898	1.38322
601.634	1.81066
603.369	2.96836
605.104	4.99959
606.836	5.82269
608.57	7.37701
610.304	8.97179
612.037	10.0353
613.769	10.5776
615.501	12.8245
617.234	12.8877
618.966	13.1759
620.696	13.4719
622.427	13.6314
624.159	14.6992
625.887	16.5408
627.618	17.5388
629.348	18.675
631.076	19.8658
632.806	20.987
634.535	21.1584
636.262	21.2453
637.99	21.5247
639.716	21.8764
641.444	22.4395
643.172	22.3331
644.897	21.6867
646.624	21.8459
648.348	23.6775
650.075	23.0509
651.801	24.4369
653.524	25.4636
655.249	25.4363
656.972	25.5649
658.697	26.5103
660.419	26.0633
662.143	25.5229
663.865	24.9964
665.588	26.1611
667.309	25.9663
669.032	26.2588
670.752	25.5571
672.474	25.0187
674.194	24.662
675.915	25.552
677.634	25.6841
679.355	26.7097
681.073	26.2379
682.793	27.6327
684.511	28.3177
686.23	29.0139
687.947	29.8382
689.664	31.0744
691.382	31.1657
693.098	31.9278
694.816	32.3116
696.531	32.5001
698.247	31.9051
699.963	32.0964
701.678	32.7024
703.392	32.4143
705.108	33.3836
706.821	33.9786
708.534	35.4489
710.249	34.8517
711.962	35.6126
713.674	35.8175
715.388	35.7957
717.099	35.1381
718.81	35.0712
720.523	35.4267
722.234	35.2663
723.944	35.4478
725.654	37.6685
727.365	37.8747
729.075	37.9914
730.784	38.6641
732.492	38.1777
734.202	37.4861
735.91	37.6913
737.618	38.8162
739.325	39.2767
741.034	39.6194
742.741	41.0562
744.447	42.7953
746.153	42.9421
747.859	43.7553
749.564	44.9652
751.271	46.8418
752.976	47.5386
754.681	49.7374
756.385	51.2999
758.088	52.7465
759.792	53.6597
761.495	55.3416
763.2	56.2773
764.902	57.5677
766.604	58.3685
768.306	60.3829
770.008	60.8205
771.709	63.0259
773.41	63.8723
775.11	64.5754
776.811	65.683
778.51	67.2235
780.21	67.4662
781.909	68.6331
783.608	70.0998
785.307	71.736
787.005	73.8096
788.703	74.4655
790.401	75.7381
792.098	76.7325
793.795	77.4524
795.492	76.5112
797.188	77.7758
798.884	78.6674
800.58	79.7754
802.276	80.5046
803.971	82.5848
805.665	83.3828
807.36	83.8066
809.054	84.3411
810.748	84.5216
812.441	83.5903
814.135	83.2166
815.826	82.3115
817.518	81.6395
819.21	82.6964
820.902	83.2754
822.594	83.5135
824.285	82.8484
825.976	82.8799
827.665	82.1478
829.355	81.7188
831.045	81.2558
832.735	80.7613
834.424	80.9734
836.111	80.9177
837.8	79.8271
839.488	79.5979
841.177	77.95
842.864	76.1894
844.55	74.0462
846.237	73.7024
847.924	72.0849
849.61	71.1959
851.295	69.6834
852.98	68.7108
854.666	67.0121
856.349	65.8854
858.034	64.9169
859.719	63.967
861.403	63.8675
863.085	64.0792
864.769	63.0792
866.452	62.5611
868.133	61.0384
869.816	59.9878
871.498	58.835
873.179	56.9062
874.86	56.3374
876.54	54.5643
878.221	54.3462
879.902	54.879
881.58	55.4476
883.26	57.1589
884.938	56.9181
886.618	56.6653
888.297	56.1975
889.974	55.3049
891.653	54.306
893.329	54.1923
895.007	54.2727
896.683	54.8166
898.36	54.7075
900.035	54.2158
901.712	55.2807
903.387	54.7507
905.063	54.0732
906.737	53.7162
908.412	54.4957
910.085	54.1582
911.76	53.732
913.433	54.7621
915.107	55.1129
916.779	54.8375
918.452	54.3502
920.124	53.856
921.797	53.5136
923.467	53.7218
925.138	53.1534
926.81	53.7387
928.48	53.1815
930.151	53.4489
931.82	52.1265
933.489	52.5204
935.16	51.5436
936.828	51.2786
938.496	50.7549
940.165	50.6224
941.833	49.4036
943.5	48.2249
945.168	48.0513
946.834	46.8405
948.5	45.0289
950.168	44.3952
951.834	43.2299
953.499	43.3327
955.163	42.6305
956.83	41.7034
958.494	41.1985
960.158	40.2188
961.821	39.776
963.487	39.8656
965.15	38.1736
966.812	36.927
968.474	34.9039
970.138	35.5552
971.8	34.9307
973.461	35.1617
975.123	34.427
976.783	36.1381
978.446	35.94
980.106	35.6331
981.766	34.7048
983.425	34.9657
985.084	34.6886
986.743	33.6018
988.402	33.5222
990.06	33.4775
991.72	33.6706
993.378	34.1332
995.035	34.5418
996.692	34.6569
998.349	34.9647
1000.01	34.9414
1001.66	34.6969
1003.32	34.4153
1004.97	35.5983
1006.63	36.58
1008.28	37.417
1009.94	39.3697
1011.59	40.8309
1013.25	44.7965
1014.9	48.8915
1016.55	52.5555
1018.21	56.2754
1019.86	60.217
1021.51	64.1023
1023.16	66.7481
1024.81	68.5478
1026.47	72.2249
1028.12	75.4225
1029.77	77.3022
1031.42	79.2102
1033.07	81.2825
1034.72	82.6064
1036.37	82.8014
1038.02	82.3688
1039.67	81.9369
1041.31	81.0714
1042.96	80.5746
1044.61	79.8233
1046.26	78.8417
1047.91	77.8382
1049.55	76.4116
1051.2	75.1426
1052.84	74.0551
1054.49	71.0737
1056.14	68.1805
1057.78	64.3507
1059.43	61.7373
1061.07	56.9323
1062.72	53.6879
1064.36	50.1509
1066	46.9916
1067.65	42.1384
1069.29	38.5491
1070.93	35.1305
1072.58	31.2621
1074.22	28.3993
1075.86	25.081
1077.5	21.1597
1079.14	17.7701
1080.78	15.3357
1082.42	12.485
1084.06	10.8535
1085.7	10.3009
1087.34	10.8395
1088.98	11.9675
1090.62	12.9088
1092.26	14.5663
1093.9	16.3057
1095.54	19.0899
1097.17	20.7493
1098.81	20.6402
1100.45	21.2346
1102.09	21.7015
1103.72	22.8732
1105.36	22.8291
1106.99	22.5267
1108.63	24.2072
1110.27	23.3743
1111.9	22.4179
1113.53	22.0523
1115.17	22.1456
1116.8	21.2708
1118.43	20.0403
1120.07	18.7934
1121.7	17.5528
1123.33	17.5384
1124.97	17.6481
1126.6	16.496
1128.23	16.1975
1129.86	16.3523
1131.49	14.0712
1133.12	13.6867
1134.75	13.5634
1136.38	12.7935
1138.01	11.9032
1139.64	11.2059
1141.27	10.9673
1142.9	10.811
1144.53	11.3502
1146.16	10.0289
1147.78	8.80106
1149.41	8.02038
1151.04	8.14114
1152.67	7.60833
1154.29	6.59158
1155.92	6.61846
1157.54	5.6618
1159.17	5.63717
1160.8	4.80557
1162.42	4.21922
1164.05	3.90927
1165.67	4.12376
1167.29	3.67035
1168.92	2.74394
1170.54	2.42932
1172.16	1.8768
1173.79	1.36867
1175.41	1.82895
1177.03	1.93606
1178.65	2.13236
1180.28	1.8779
1181.9	2.61216
1183.52	3.01788
1185.14	3.57769
1186.76	2.87019
1188.38	2.51382
1190	3.83156
1191.62	2.83528
1193.24	3.11542
1194.86	3.95219
1196.47	4.72978
1198.09	4.99641
1199.71	5.98489
1201.33	7.26087
1202.95	9.2507
1204.56	10.769
1206.18	11.2844
1207.8	12.5518
1209.41	13.6041
1211.03	14.7781
1212.64	15.889
1214.26	17.7033
1215.87	19.3571
1217.49	20.5659
1219.1	21.7264
1220.71	23.7258
1222.33	25.1921
1223.94	26.7342
1225.55	27.8199
1227.16	28.243
1228.78	30.5934
1230.39	32.2899
1232	33.3912
1233.61	34.967
1235.22	36.1331
1236.83	37.0656
1238.44	38.5017
1240.05	40.765
1241.66	41.9503
1243.27	42.7354
1244.88	43.7054
1246.49	45.1546
1248.1	45.1295
1249.71	45.8689
1251.32	46.9954
1252.92	47.8955
1254.53	49.2078
1256.14	52.0331
1257.74	53.9035
1259.35	55.1174
1260.96	56.3344
1262.56	57.2987
1264.17	57.6077
1265.77	58.1423
1267.38	58.9105
1268.98	59.6841
1270.59	60.969
1272.19	60.6606
1273.79	61.6617
1275.4	63.161
1277	64.8622
1278.6	65.2478
1280.21	67.54
1281.81	68.4893
1283.41	69.0341
1285.01	69.9819
1286.61	70.4971
1288.21	70.9081
1289.81	70.7844
1291.41	71.2582
1293.01	71.3495
1294.61	72.0346
1296.21	72.0421
1297.81	72.9275
1299.41	73.2369
1301.01	73.4372
1302.6	73.8594
1304.2	74.9957
1305.8	75.7679
1307.4	75.833
1308.99	77.0571
1310.59	76.8987
1312.19	77.3381
1313.78	77.6969
1315.38	77.4737
1316.97	77.3091
1318.57	77.58
1320.16	76.803
1321.76	75.6437
1323.35	74.9504
1324.94	73.6388
1326.54	73.8087
1328.13	72.8127
1329.72	73.1113
1331.32	72.8031
1332.91	72.6035
1334.5	72.7042
1336.09	72.0005
1337.68	70.3204
1339.27	68.2149
1340.87	66.6709
1342.45	64.985
1344.04	63.5145
1345.64	62.1425
1347.22	62.2699
1348.81	61.2644
1350.4	59.6991
1351.99	59.0375
1353.58	58.475
1355.17	58.0069
1356.75	57.0778
1358.34	55.1051
1359.93	55.3306
1361.51	53.2508
1363.1	51.6758
1364.69	50.56
1366.27	48.5558
1367.86	47.6373
1369.44	46.5485
1371.03	44.8877
1372.61	44.7438
1374.2	44.1276
1375.78	43.5211
1377.37	43.6315
1378.95	42.0492
1380.53	40.9249
1382.11	41.8323
1383.7	41.4399
1385.28	41.1872
1386.86	41.1045
1388.44	41.2244
1390.02	40.9113
1391.6	40.6373
1393.19	41.1068
1394.77	41.1497
1396.35	41.196
1397.93	41.7426
1399.51	42.2833
1401.08	42.6209
1402.66	42.4565
1404.24	42.2947
1405.82	43.4805
1407.4	43.5938
1408.97	44.1822
1410.55	43.8115
1412.13	45.5455
1413.71	46.5925
1415.28	47.8018
1416.86	49.1181
1418.43	50.3492
1420.01	52.4105
1421.59	55.4534
1423.16	58.0804
1424.73	59.4061
1426.31	62.0946
1427.88	64.5487
1429.46	67.0533
1431.03	69.5448
1432.6	69.8112
1434.18	72.1139
1435.75	74.189
1437.32	75.7309
1438.89	77.7286
1440.46	78.5109
1442.04	78.946
1443.61	79.7234
1445.18	79.5776
1446.75	79.4671
1448.32	79.1099
1449.89	79.1686
1451.46	79.2479
1453.03	77.5817
1454.6	77.0403
1456.16	75.1827
1457.73	74.2934
1459.3	74.1588
1460.87	74.2778
1462.44	72.7342
1464	71.9277
1465.57	70.3942
1467.14	68.5765
1468.7	68.0446
1470.27	65.9197
1471.83	63.3772
1473.4	60.8068
1474.96	59.0982
1476.53	57.5367
1478.09	54.9553
1479.66	52.2597
1481.22	50.0211
1482.78	48.2159
1484.35	46.5449
1485.91	45.8365
1487.47	44.682
1489.04	44.2394
1490.6	44.1627
1492.16	43.0742
1493.72	42.1064
1495.28	40.8806
1496.84	40.0092
1498.4	39.007
1499.96	38.6382
1501.52	36.8839
1503.08	35.7576
1504.64	35.6563
1506.2	34.549
1507.76	32.919
1509.32	32.0717
1510.88	30.9
1512.44	29.6909
1513.99	28.5678
1515.55	26.4183
1517.11	26.0172
1518.66	24.6777
1520.22	23.2647
1521.78	21.6988
1523.33	20.3718
1524.89	19.1355
1526.44	18.8056
1528	18.9888
1529.55	18.1888
1531.11	18.4208
1532.66	19.2665
1534.21	19.4283
1535.77	21.4872
1537.32	22.6215
1538.87	23.0076
1540.43	23.7727
1541.98	24.49
1543.53	25.4259
1545.08	26.3922
1546.63	27.4755
1548.18	27.4235
1549.74	28.6069
1551.29	29.9624
1552.84	31.5863
1554.39	32.2076
1555.94	32.8191
1557.48	33.3812
1559.03	34.9836
1560.58	36.3402
1562.13	37.2305
1563.68	38.0998
1565.23	39.6548
1566.78	41.6563
1568.32	42.1598
1569.87	43.2484
1571.42	43.7169
1572.96	44.2552
1574.51	46.271
1576.05	47.2696
1577.6	48.7762
1579.14	49.4455
1580.69	50.1201
1582.24	51.2661
1583.78	51.9262
1585.32	52.9133
1586.87	53.6398
1588.41	53.2667
1589.95	53.5562
1591.5	55.9909
1593.04	57.2667
1594.58	58.9769
1596.12	59.0817
1597.67	59.7951
1599.21	60.4866
1600.75	61.6563
1602.29	62.4603
1603.83	63.9875
1605.37	64.6533
1606.91	64.4034
1608.45	65.0412
1609.99	64.7496
1611.53	66.0811
1613.07	67.2454
1614.6	66.5237
1616.14	66.6545
1617.68	67.7166
1619.22	67.7857
1620.75	68.7928
1622.29	68.9643
1623.83	70.2977
1625.37	71.4042
1626.9	72.5504
1628.44	73.6176
1629.97	74.6272
1631.51	75.7551
1633.04	77.0994
1634.58	78.6997
1636.11	80.2866
1637.65	81.4214
1639.18	83.1693
1640.72	85.4192
1642.25	87.5975
1643.78	88.0585
1645.31	89.0008
1646.85	90.187
1648.38	91.4257
1649.91	92.2393
1651.44	93.4742
1652.97	93.739
1654.5	94.9716
1656.03	94.9542
1657.56	94.8105
1659.1	95.5147
1660.62	94.2956
1662.15	94.0955
1663.68	93.44
1665.21	92.7078
1666.74	92.0039
1668.27	91.4135
1669.8	89.1339
1671.32	86.6069
1672.85	84.5809
1674.38	82.0633
1675.91	79.4303
1677.43	76.4366
1678.96	73.394
1680.49	69.5742
1682.01	66.4177
1683.54	63.4611
1685.06	60.3099
1686.59	57.1068
1688.11	55.1148
1689.64	52.1781
1691.16	48.8008
1692.68	46.3843
1694.21	44.1157
1695.73	41.5944
1697.25	40.0007
1698.78	37.9079
1700.3	35.9551
1701.82	33.4643
1703.34	31.9493
1704.86	30.2083
1706.39	28.5136
1707.91	27.2075
1709.43	24.946
1710.95	23.7817
1712.47	21.9795
1713.99	20.8522
1715.51	19.2817
1717.02	17.8555
1718.54	15.9793
1720.06	15.6286
1721.58	14.5948
1723.1	13.4568
1724.62	12.8997
1726.13	11.0757
1727.65	10.745
1729.17	9.6924
1730.68	8.80105
1732.2	7.11993
1733.72	6.74948
1735.23	6.26544
1736.75	6.08515
1738.26	6.73368
1739.78	5.66819
1741.29	5.53278
1742.81	5.7605
1744.32	5.30043
1745.84	4.84222
1747.35	4.88654
1748.86	4.48864
1750.37	4.13105
1751.89	4.06348
1753.4	3.80066
1754.91	3.33373
1756.42	3.18381
1757.93	3.99039
1759.45	3.51033
1760.96	3.27124
1762.47	3.45512
1763.98	3.51486
1765.49	3.8396
1767	3.57551
1768.51	3.85596
1770.02	4.31332
1771.53	4.65839
1773.03	4.49637
1774.54	4.38494
1776.05	4.37854
1777.56	4.8058
1779.07	4.89477
1780.57	4.31338
1782.08	3.85
1783.59	3.26898
1785.09	3.15676
1786.6	3.96072
1788.11	3.4663
1789.61	2.98352
1791.12	2.14845
1792.62	2.24006
1794.13	2.0173
1795.63	2.28598
1797.13	1.76522
1798.64	1.13261
1800.14	1.13917
1801.65	0.698153
1803.15	1.26507
1804.65	1.476
1806.15	2.53626
1807.66	3.35556
1809.16	4.01272
1810.66	4.8901
1812.16	5.05209
1813.66	5.24571
1815.16	5.25624
1816.66	5.75997
1818.16	6.83883
1819.66	6.6791
1821.16	6.82771
1822.66	7.08268
1824.16	6.50153
1825.66	6.91213
1827.16	7.22392
1828.66	7.9502
1830.16	7.75172
1831.65	7.7482
1833.15	7.67088
1834.65	7.23865
1836.14	7.13954
1837.64	7.98497
1839.14	7.32124
1840.63	8.25254
1842.13	8.47711
1843.62	8.53568
1845.12	8.51425
1846.61	8.52492
1848.11	8.14352
1849.6	8.70808
1851.1	8.43031
1852.59	8.16946
1854.08	7.42353
1855.58	6.94783
1857.07	6.7246
1858.56	6.87972
1860.05	6.10241
1861.55	5.6812
1863.04	4.1706
1864.53	3.8319
1866.02	3.59816
1867.51	3.76517
1869	4.04849
1870.49	3.55851
1871.98	2.94238
1873.47	2.45176
1874.96	2.64785
1876.45	2.70939
1877.94	3.8836
1879.43	4.13337
1880.92	5.29588
1882.41	5.60161
1882.51	4.38407
1884	4.8055
1885.5	4.4492
1886.99	4.75135
1888.48	4.53705
1889.98	4.72266
1891.47	5.89074
1892.96	6.2245
1894.46	7.14542
1895.95	7.39245
1897.44	7.41223
1898.93	7.07393
1900.42	8.18838
1901.91	8.31331
1903.41	7.63458
1904.9	7.58709
1906.39	7.76997
1907.88	8.70593
1909.37	9.76334
1910.86	10.0842
1912.35	9.67272
1913.83	10.5392
1915.32	9.42955
1916.81	9.30115
1918.3	9.6224
1919.79	9.61455
1921.27	9.44419
1922.76	9.41673
1924.25	8.51941
1925.74	8.80012
1927.22	8.17029
1928.71	7.89439
1930.19	7.93938
1931.68	7.11979
1933.17	6.60822
1934.65	7.00533
1936.14	6.64014
1937.62	6.64863
1939.11	6.02895
1940.59	5.52444
1942.07	5.3001
1943.56	3.93276
1945.04	3.48395
1946.52	3.58079
1948.01	3.69269
1949.49	4.25672
1950.97	3.67424
1952.45	3.06244
1953.93	3.54235
1955.42	2.35665
1956.9	1.36502
1958.38	1.91663
1959.86	1.09041
1961.34	0.283352
1962.82	0.601964
1964.3	0.854626
1965.78	0.81302
1967.26	0.762906
1968.74	0.110594
1970.21	-0.42502
1971.69	-0.257915
1973.17	-0.62546
1974.65	0.650965
1976.13	-0.366328
1977.6	0.444371
1979.08	1.02239
1980.56	1.00853
1982.03	1.46517
1983.51	0.934997
1984.99	1.02283
1986.46	1.75283
1987.94	1.63879
1989.41	2.99731
1990.89	4.60962
1992.36	4.79318
1993.84	5.48115
1995.31	6.33905
1996.78	7.04609
1998.26	7.85415
1999.73	8.46197
2001.2	8.60746
2002.68	9.44636
2004.15	10.1907
2005.62	10.6465
2007.09	12.5877
2008.56	12.7227
2010.04	13.5754
2011.51	13.4651
2012.98	13.9856
2014.45	13.9554
2015.92	14.3355
2017.39	14.0981
2018.86	14.244
2020.33	14.6722
2021.8	14.8885
2023.26	15.1994
2024.73	14.4712
2026.2	15.2293
2027.67	14.3096
2029.14	13.3967
2030.61	13.0305
2032.07	12.949
2033.54	12.5384
2035.01	11.7804
2036.47	12.3852
2037.94	11.8234
2039.4	11.5962
2040.87	11.8091
2042.33	11.1013
2043.8	11.5347
2045.27	11.6908
2046.73	11.3368
2048.19	11.5968
2049.66	11.7533
2051.12	12.5821
2052.59	12.0025
2054.05	12.3045
2055.51	12.5188
2056.97	12.5938
2058.44	13.241
2059.9	13.5802
2061.36	14.5753
2062.82	15.7946
2064.28	15.4302
2065.74	15.433
2067.21	16.4788
2068.67	16.4344
2070.13	16.7953
2071.59	17.6123
2073.05	18.335
2074.51	19.3851
2075.96	21.6236
2077.42	22.4961
2078.88	24.0668
2080.34	25.4768
2081.8	25.3629
2083.26	26.4751
2084.72	25.846
2086.17	26.2179
2087.63	25.9822
2089.09	26.7366
2090.54	26.5301
2092	26.8996
2093.45	27.9211
2094.91	28.5616
2096.37	27.9802
2097.82	27.8595
2099.28	29.1857
2100.73	28.7815
2102.19	29.2424
2103.64	29.4136
2105.09	29.5783
2106.55	29.0479
2108	28.3119
2109.45	30.24
2110.91	30.3143
2112.36	31.1682
2113.81	32.3712
2115.26	33.1785
2116.72	34.7486
2118.17	36.5369
2119.62	37.4345
2121.07	39.5034
2122.52	40.9446
2123.97	42.6339
2125.42	44.5409
2126.87	45.3518
2128.32	46.3761
2129.77	48.9542
2131.22	51.2394
2132.67	53.301
2134.11	54.9447
2135.56	56.0816
