#Acq. time (s)=	45
#Accumulations=	2
#Range (cm-¹)=	200...3150
#Windows=	2
#Auto scanning=	Off
#Autofocus=	Off
#Macrospot=	Off
#AutoExposure=	Off
#Spike filter=	Multiple accum.
#Delay time (s)=	0
#Binning=	1
#Readout mode=	Signal
#DeNoise=	Off
#ICS correction=	On
#Dark correction=	Off
#Inst. Process=	Off
#Detector Gain=	Best Dynamic Range
#Detector ADC=	20 kHz       
#Detector temperature (°C)=	-69.85
#Instrument=	LabRAM HR Evol
#Detector=	Synapse
#Objective=	x100
#Grating=	600 gr/mm
#ND Filter=	100%
#Laser (nm)=	532 
#Hole=	100.021
#Range=	Auto
#Laser Pol.=	No
#Raman. Pol.=	No
#Laser Pol. (°)=	-0.0007625
#Raman Pol. (°)=	89.9995
#Collection=	Microscope
#StageXY=	Marzhauser
#StageZ=	Marzhauser
#X (µm)=	-6369.1
#Y (µm)=	794.8
#Z (µm)=	-65.1
#Full time(mm:ss)=	3:18
#Project=	
#Sample=	
#Site=	
#Title=	Mb_30_27_43_2x_45s_532 nm_x100_100%_600 gr_mm
#Remark=	
#Date=	13.07.2022 12:01
#Acquired=	13.07.2022 12:01:39
#Base:Fit=	10.08.2022 10:40:03
#Base:Sub=	10.08.2022 10:40:17
#Filter:Polynom=	16.08.2022 10:16:15
#AxisType[0]=Intens
#AxisUnit[0]=Cnt
#AxisType[1]=Spectr
#AxisUnit[1]=1/cm
200.563	61.606
202.377	59.243
204.194	54.0546
206.008	48.8889
207.821	44.7005
209.634	40.7498
211.449	37.2253
213.262	34.3077
215.074	31.598
216.885	29.7833
218.699	26.8755
220.51	23.3959
222.321	19.8018
224.131	16.5114
225.941	15.398
227.751	14.9644
229.562	14.0298
231.371	13.3633
233.18	11.4521
234.988	9.85396
236.796	8.95005
238.603	6.9463
240.411	5.75683
242.219	6.48932
244.026	6.34263
245.832	6.48417
247.638	6.15626
249.443	6.17127
251.248	5.92583
253.053	7.1587
254.857	6.27366
256.661	5.31499
258.465	4.12739
260.268	4.14613
262.071	5.65726
263.874	5.94011
265.678	6.18176
267.48	5.19987
269.282	5.24329
271.083	5.85659
272.884	6.94664
274.684	8.65159
276.484	8.92996
278.284	9.84781
280.084	10.0111
281.883	9.97322
283.682	8.9213
285.48	9.22704
287.276	10.2114
289.074	10.5261
290.871	10.3146
292.668	11.1786
294.465	13.2088
296.261	12.766
298.057	12.3429
299.853	14.0088
301.648	14.1613
303.443	14.7627
305.237	14.6589
307.032	14.5589
308.823	13.9124
310.617	13.9247
312.41	15.4833
314.203	16.7523
315.995	18.414
317.788	19.5938
319.579	19.0604
321.369	18.9893
323.16	18.0758
324.951	18.3211
326.741	17.0716
328.531	16.3247
330.321	18.0102
332.108	18.4477
333.897	17.0521
335.686	16.6761
337.474	16.1377
339.26	16.5623
341.048	15.7869
342.835	15.298
344.622	13.4585
346.406	12.3396
348.192	12.5862
349.978	11.8233
351.764	12.8597
353.547	11.7497
355.332	10.9729
357.116	9.93243
358.901	10.6115
360.682	10.812
362.466	11.1741
364.249	11.1798
366.03	11.2422
367.812	11.243
369.594	11.7955
371.374	10.8341
373.155	10.9657
374.936	11.5487
376.715	11.9288
378.495	11.5714
380.273	14.0082
382.053	15.2684
383.832	15.8389
385.609	15.4459
387.388	17.907
389.164	19.9646
390.942	20.7067
392.72	22.6959
394.495	24.8976
396.272	26.0049
398.047	27.6718
399.823	29.0646
401.597	30.107
403.372	30.6003
405.145	31.6036
406.92	32.6862
408.693	32.5919
410.467	32.8147
412.239	33.2016
414.012	33.5929
415.783	32.993
417.556	35.1498
419.327	35.5644
421.099	34.5312
422.869	33.9623
424.64	34.6013
426.409	34.7333
428.18	34.1294
429.948	32.7741
431.718	31.0754
433.486	30.9931
435.253	29.4742
437.022	29.6284
438.789	28.2088
440.558	28.3873
442.324	26.7083
444.089	26.5129
445.857	25.9272
447.622	26.0271
449.386	25.2549
451.153	24.54
452.917	24.3554
454.682	25.2211
456.446	24.9967
458.208	24.8606
459.973	23.7577
461.735	25.4299
463.497	26.5149
465.259	27.0629
467.022	28.318
468.783	29.3077
470.544	29.2369
472.306	30.5808
474.066	32.6072
475.825	34.4805
477.585	35.7518
479.346	37.289
481.104	39.0896
482.862	40.3072
484.62	40.5872
486.38	42.0617
488.137	42.7447
489.894	43.1262
491.65	45.4106
493.407	46.399
495.164	46.8855
496.92	47.5518
498.675	49.4735
500.43	50.0704
502.184	50.8096
503.939	51.4459
505.694	52.6704
507.448	51.6527
509.201	52.0228
510.954	53.1126
512.706	54.6271
514.459	54.7968
516.21	54.4695
517.962	53.8078
519.715	51.8467
521.466	51.294
523.216	49.3295
524.966	47.6442
526.716	47.6764
528.466	47.2258
530.215	47.1217
531.964	46.7335
533.712	45.3818
535.46	44.4798
537.208	43.7297
538.955	42.8237
540.703	41.1984
542.449	40.1245
544.196	37.6152
545.942	36.5485
547.688	34.9652
549.433	33.8658
551.178	30.7809
552.923	28.4838
554.667	27.6347
556.412	27.3106
558.155	25.8221
559.899	23.7463
561.642	22.1997
563.385	20.1589
565.127	18.4301
566.867	17.6227
568.609	15.9559
570.35	13.791
572.092	12.1698
573.832	10.6701
575.573	9.30904
577.313	8.35713
579.053	8.21915
580.79	6.47359
582.529	5.33746
584.268	5.88688
586.006	5.69605
587.745	3.70827
589.482	3.83051
591.218	3.10612
592.955	1.91972
594.692	1.21952
596.428	1.62932
598.164	1.64277
599.898	0.50779
601.634	-0.87502
603.369	-1.21537
605.104	-1.0236
606.836	-0.545476
608.57	0.386859
610.304	1.97583
612.037	3.39593
613.769	6.34872
615.501	6.81417
617.234	8.15239
618.966	8.61328
620.696	9.28299
622.427	10.1007
624.159	10.9842
625.887	11.6675
627.618	12.5459
629.348	14.4756
631.076	14.9627
632.806	16.1302
634.535	17.6188
636.262	18.2441
637.99	19.0565
639.716	20.426
641.444	20.3601
643.172	21.4303
644.897	20.3167
646.624	19.7327
648.348	21.2972
650.075	22.4039
651.801	22.7977
653.524	23.0508
655.249	22.4691
656.972	22.2827
658.697	23.292
660.419	22.9642
662.143	22.4296
663.865	21.5782
665.588	21.5688
667.309	20.4436
669.032	19.6135
670.752	20.2078
672.474	19.6886
674.194	20.0458
675.915	20.1948
677.634	21.0059
679.355	21.2961
681.073	22.4515
682.793	24.3217
684.511	24.714
686.23	25.4179
687.947	26.8204
689.664	29.1846
691.382	30.675
693.098	30.8287
694.816	31.4758
696.531	33.0318
698.247	33.0946
699.963	34.1843
701.678	34.8826
703.392	36.4262
705.108	37.4875
706.821	37.3632
708.534	37.2596
710.249	38.6833
711.962	39.5824
713.674	40.2691
715.388	39.9501
717.099	40.015
718.81	40.2002
720.523	41.292
722.234	40.58
723.944	40.3026
725.654	39.4706
727.365	39.2209
729.075	39.4711
730.784	38.1756
732.492	39.6484
734.202	39.9633
735.91	40.0505
737.618	39.2532
739.325	38.5136
741.034	38.4276
742.741	38.3596
744.447	38.2263
746.153	37.602
747.859	38.0065
749.564	39.7319
751.271	41.1109
752.976	42.4644
754.681	44.9973
756.385	47.7911
758.088	49.5968
759.792	52.4564
761.495	53.1979
763.2	56.0914
764.902	56.3399
766.604	57.933
768.306	59.6992
770.008	60.0878
771.709	60.6905
773.41	62.07
775.11	63.5845
776.811	64.2792
778.51	64.1693
780.21	65.9287
781.909	65.7737
783.608	65.9849
785.307	68.2465
787.005	68.5446
788.703	70.606
790.401	71.4604
792.098	73.2725
793.795	74.4913
795.492	75.7744
797.188	75.7412
798.884	76.0061
800.58	76.6024
802.276	77.4236
803.971	77.2531
805.665	77.7587
807.36	77.5055
809.054	78.2124
810.748	76.5906
812.441	76.584
814.135	76.3075
815.826	76.3502
817.518	77.534
819.21	76.6513
820.902	77.2149
822.594	77.8239
824.285	78.6317
825.976	78.8832
827.665	79.2454
829.355	79.8456
831.045	80.9375
832.735	82.2963
834.424	82.1784
836.111	81.2748
837.8	81.163
839.488	81.027
841.177	80.9995
842.864	78.7336
844.55	77.9011
846.237	75.5554
847.924	75.17
849.61	73.5917
851.295	72.7596
852.98	71.6846
854.666	70.6049
856.349	68.5088
858.034	67.9878
859.719	67.0969
861.403	65.3369
863.085	62.7487
864.769	61.7929
866.452	60.767
868.133	61.306
869.816	62.3629
871.498	61.9079
873.179	62.8627
874.86	61.7068
876.54	61.6069
878.221	61.3085
879.902	60.4479
881.58	60.401
883.26	59.3011
884.938	58.6121
886.618	58.4908
888.297	57.9822
889.974	58.1767
891.653	57.6879
893.329	57.1554
895.007	55.4672
896.683	57.5733
898.36	57.7198
900.035	59.0169
901.712	60.2375
903.387	60.8393
905.063	60.8141
906.737	60.8418
908.412	60.9314
910.085	60.2324
911.76	59.9317
913.433	59.2617
915.107	58.8506
916.779	57.217
918.452	56.2661
920.124	55.8102
921.797	56.4804
923.467	57.0309
925.138	56.7344
926.81	53.5483
928.48	54.8839
930.151	53.3403
931.82	52.2003
933.489	52.5604
935.16	50.6357
936.828	50.6029
938.496	49.869
940.165	48.5023
941.833	47.2895
943.5	45.5613
945.168	43.4842
946.834	42.3005
948.5	44.0004
950.168	45.4545
951.834	45.4194
953.499	46.5159
955.163	47.3557
956.83	46.6438
958.494	45.4273
960.158	44.9533
961.821	45.1443
963.487	44.2314
965.15	46.1734
966.812	48.4106
968.474	50.1243
970.138	52.2743
971.8	52.1942
973.461	52.7045
975.123	54.1187
976.783	55.158
978.446	56.778
980.106	57.9751
981.766	58.3718
983.425	59.3474
985.084	59.2123
986.743	58.626
988.402	58.3221
990.06	59.3994
991.72	58.925
993.378	58.5521
995.035	58.2357
996.692	56.6933
998.349	55.5407
1000.01	54.0441
1001.66	53.0616
1003.32	52.8086
1004.97	54.2798
1006.63	54.9487
1008.28	57.6127
1009.94	61.1432
1011.59	67.0084
1013.25	70.2597
1014.9	75.5572
1016.55	80.8451
1018.21	84.4796
1019.86	89.929
1021.51	94.2214
1023.16	97.9581
1024.81	101.416
1026.47	104.29
1028.12	108.391
1029.77	112.206
1031.42	115.728
1033.07	117.962
1034.72	118.687
1036.37	120.621
1038.02	121.226
1039.67	120.42
1041.31	120.641
1042.96	122.297
1044.61	123.686
1046.26	124.405
1047.91	124.48
1049.55	122.348
1051.2	118.245
1052.84	116.349
1054.49	112.037
1056.14	109.612
1057.78	106.71
1059.43	101.697
1061.07	97.3232
1062.72	92.3725
1064.36	88.8396
1066	83.7507
1067.65	79.7307
1069.29	74.4128
1070.93	70.556
1072.58	64.4523
1074.22	57.6712
1075.86	53.3205
1077.5	48.2155
1079.14	43.8259
1080.78	41.9379
1082.42	40.9253
1084.06	41.4014
1085.7	42.3117
1087.34	44.1547
1088.98	46.3339
1090.62	49.2576
1092.26	50.3976
1093.9	51.8595
1095.54	53.2437
1097.17	55.4605
1098.81	56.3308
1100.45	58.8129
1102.09	60.2553
1103.72	61.5368
1105.36	61.3192
1106.99	62.2145
1108.63	62.7509
1110.27	64.6079
1111.9	64.5953
1113.53	64.9853
1115.17	64.6047
1116.8	64.0688
1118.43	64.334
1120.07	63.8966
1121.7	63.2579
1123.33	62.7477
1124.97	62.5503
1126.6	60.6353
1128.23	60.0398
1129.86	58.8207
1131.49	56.5079
1133.12	54.3136
1134.75	53.0125
1136.38	50.7551
1138.01	49.8502
1139.64	46.7684
1141.27	44.008
1142.9	42.3298
1144.53	40.5371
1146.16	38.8233
1147.78	35.9451
1149.41	33.0407
1151.04	29.1211
1152.67	26.3968
1154.29	23.123
1155.92	22.1932
1157.54	19.6027
1159.17	17.3625
1160.8	15.2142
1162.42	13.4077
1164.05	10.4851
1165.67	8.75555
1167.29	5.65445
1168.92	4.8709
1170.54	4.08263
1172.16	3.47807
1173.79	3.95561
1175.41	4.16899
1177.03	4.83587
1178.65	5.45306
1180.28	6.49153
1181.9	6.57137
1183.52	7.21032
1185.14	8.37099
1186.76	9.27336
1188.38	11.7256
1190	11.9172
1191.62	14.0188
1193.24	15.1607
1194.86	16.9917
1196.47	20.0215
1198.09	23.4423
1199.71	26.4075
1201.33	29.6439
1202.95	33.0622
1204.56	36.3946
1206.18	40.1008
1207.8	44.4452
1209.41	48.5701
1211.03	51.3815
1212.64	54.7558
1214.26	59.4406
1215.87	64.2844
1217.49	68.2711
1219.1	72.2068
1220.71	76.1531
1222.33	80.0823
1223.94	83.4552
1225.55	86.7783
1227.16	90.3769
1228.78	92.9999
1230.39	94.7967
1232	96.5406
1233.61	99.2708
1235.22	101.737
1236.83	104.434
1238.44	106.102
1240.05	109.002
1241.66	111.268
1243.27	113.536
1244.88	115.899
1246.49	119.317
1248.1	121.547
1249.71	123.819
1251.32	126.329
1252.92	129.157
1254.53	130.149
1256.14	131.61
1257.74	132.702
1259.35	132.834
1260.96	133.447
1262.56	134.302
1264.17	137.609
1265.77	139.093
1267.38	140.191
1268.98	141.67
1270.59	143.141
1272.19	145.816
1273.79	147.198
1275.4	149.563
1277	151.21
1278.6	151.858
1280.21	154.392
1281.81	156.151
1283.41	157.835
1285.01	159.659
1286.61	161.125
1288.21	162.706
1289.81	163.497
1291.41	165.178
1293.01	166.629
1294.61	168.056
1296.21	168.187
1297.81	169.203
1299.41	170.497
1301.01	169.964
1302.6	169.447
1304.2	168.319
1305.8	168.913
1307.4	169.601
1308.99	168.185
1310.59	168.028
1312.19	167.777
1313.78	169.281
1315.38	170.225
1316.97	170.228
1318.57	169.208
1320.16	168.599
1321.76	167.58
1323.35	166.368
1324.94	165.488
1326.54	163.009
1328.13	161.047
1329.72	158.709
1331.32	156.563
1332.91	154.004
1334.5	150.632
1336.09	147.98
1337.68	144.94
1339.27	143.709
1340.87	142.857
1342.45	140.582
1344.04	138.095
1345.64	135.564
1347.22	133.137
1348.81	131.044
1350.4	129.054
1351.99	126.64
1353.58	124.468
1355.17	122.197
1356.75	118.67
1358.34	116.83
1359.93	115.159
1361.51	112.538
1363.1	108.777
1364.69	106.216
1366.27	103.555
1367.86	102.121
1369.44	99.4196
1371.03	97.9516
1372.61	96.1978
1374.2	95.5495
1375.78	93.4354
1377.37	93.8152
1378.95	92.2265
1380.53	90.1118
1382.11	89.4836
1383.7	88.5389
1385.28	87.9262
1386.86	87.2371
1388.44	85.8305
1390.02	85.4845
1391.6	84.3924
1393.19	85.2887
1394.77	84.1758
1396.35	81.282
1397.93	81.0743
1399.51	80.0924
1401.08	78.821
1402.66	78.0141
1404.24	77.2478
1405.82	76.5174
1407.4	78.1457
1408.97	78.3208
1410.55	78.7022
1412.13	80.8083
1413.71	82.5489
1415.28	85.6993
1416.86	89.2352
1418.43	92.85
1420.01	97.035
1421.59	101.239
1423.16	107.303
1424.73	112.259
1426.31	118.846
1427.88	124.059
1429.46	130.431
1431.03	136.227
1432.6	141.402
1434.18	146.121
1435.75	150.089
1437.32	153.717
1438.89	157.726
1440.46	161.092
1442.04	163.635
1443.61	167.42
1445.18	170.023
1446.75	172.251
1448.32	173.122
1449.89	175.343
1451.46	175.579
1453.03	175.494
1454.6	174.948
1456.16	174.637
1457.73	171.994
1459.3	169.043
1460.87	165.292
1462.44	161.839
1464	157.353
1465.57	154.854
1467.14	149.555
1468.7	144.47
1470.27	141.009
1471.83	136.883
1473.4	130.528
1474.96	125.69
1476.53	121.971
1478.09	116.734
1479.66	111.676
1481.22	106.837
1482.78	101.93
1484.35	98.4828
1485.91	94.8429
1487.47	90.3697
1489.04	86.5385
1490.6	84.0162
1492.16	80.9789
1493.72	79.2034
1495.28	75.3535
1496.84	73.4372
1498.4	71.4491
1499.96	69.4665
1501.52	67.5473
1503.08	65.7159
1504.64	64.863
1506.2	61.6658
1507.76	59.9148
1509.32	57.5668
1510.88	55.1441
1512.44	53.1184
1513.99	51.6211
1515.55	49.2749
1517.11	48.5637
1518.66	47.8021
1520.22	46.2139
1521.78	44.3134
1523.33	43.373
1524.89	42.7516
1526.44	42.025
1528	41.9449
1529.55	40.3069
1531.11	39.3733
1532.66	38.9681
1534.21	39.011
1535.77	37.3657
1537.32	36.9397
1538.87	37.5662
1540.43	39.1847
1541.98	39.9199
1543.53	42.3965
1545.08	44.0141
1546.63	47.0457
1548.18	49.2469
1549.74	51.1884
1551.29	52.7278
1552.84	55.8134
1554.39	57.7118
1555.94	59.3596
1557.48	61.877
1559.03	64.1956
1560.58	66.5265
1562.13	67.8467
1563.68	69.0283
1565.23	70.7394
1566.78	72.7284
1568.32	74.3265
1569.87	75.273
1571.42	78.1277
1572.96	79.8594
1574.51	82.7455
1576.05	84.9145
1577.6	87.5191
1579.14	89.3641
1580.69	92.3933
1582.24	95.4455
1583.78	98.594
1585.32	100.978
1586.87	103.056
1588.41	105.743
1589.95	107.548
1591.5	108.917
1593.04	110.413
1594.58	112.218
1596.12	113.951
1597.67	114.28
1599.21	114.779
1600.75	116.865
1602.29	117.926
1603.83	117.591
1605.37	118.243
1606.91	118.763
1608.45	119.041
1609.99	119.783
1611.53	120.443
1613.07	121.716
1614.6	124.108
1616.14	125.881
1617.68	127.639
1619.22	130.253
1620.75	132.922
1622.29	135.57
1623.83	137.445
1625.37	139.581
1626.9	142.749
1628.44	145.032
1629.97	148.319
1631.51	151.388
1633.04	154.668
1634.58	158.218
1636.11	160.059
1637.65	162.726
1639.18	164.16
1640.72	167.859
1642.25	172.404
1643.78	175.668
1645.31	178.955
1646.85	182.358
1648.38	186.474
1649.91	188.142
1651.44	190.83
1652.97	193.548
1654.5	195.634
1656.03	196.29
1657.56	198.351
1659.1	198.956
1660.62	197.446
1662.15	194.776
1663.68	193.301
1665.21	191.427
1666.74	188.253
1668.27	185.075
1669.8	181.553
1671.32	177.389
1672.85	171.953
1674.38	166.346
1675.91	161.253
1677.43	155.945
1678.96	148.707
1680.49	141.621
1682.01	135.567
1683.54	128.954
1685.06	121.623
1686.59	116.494
1688.11	110.242
1689.64	104.51
1691.16	98.7
1692.68	93.1513
1694.21	87.4917
1695.73	81.1072
1697.25	75.6504
1698.78	71.1819
1700.3	66.1952
1701.82	60.983
1703.34	56.5772
1704.86	52.5354
1706.39	49.4302
1707.91	46.5599
1709.43	43.5652
1710.95	39.5479
1712.47	37.4366
1713.99	35.3473
1715.51	33.1626
1717.02	32.5804
1718.54	31.5541
1720.06	29.2776
1721.58	28.4651
1723.1	26.848
1724.62	25.3521
1726.13	24.5086
1727.65	23.4938
1729.17	22.4186
1730.68	21.2894
1732.2	20.955
1733.72	20.4796
1735.23	19.1016
1736.75	17.9318
1738.26	16.8025
1739.78	16.7348
1741.29	15.4785
1742.81	14.6082
1744.32	13.8532
1745.84	13.1404
1747.35	12.0015
1748.86	10.3373
1750.37	10.4669
1751.89	9.96111
1753.4	8.67067
1754.91	7.85131
1756.42	7.28979
1757.93	7.10943
1759.45	6.73122
1760.96	6.0341
1762.47	5.73172
1763.98	4.17885
1765.49	4.28881
1767	4.14629
1768.51	3.08778
1770.02	2.01763
1771.53	1.33649
1773.03	1.67311
1774.54	1.78331
1776.05	1.62759
1777.56	0.908503
1779.07	1.56419
1780.57	1.95108
1782.08	2.23655
1783.59	2.08816
1785.09	1.84857
1786.6	1.92524
1788.11	3.07317
1789.61	2.34521
1791.12	1.97677
1792.62	1.9642
1794.13	2.15366
1795.63	2.1937
1797.13	2.27586
1798.64	2.08477
1800.14	1.868
1801.65	2.29133
1803.15	2.60392
1804.65	3.25303
1806.15	3.84589
1807.66	3.5692
1809.16	3.12096
1810.66	3.13136
1812.16	2.94954
1813.66	2.21009
1815.16	2.59336
1816.66	2.03251
1818.16	2.43946
1819.66	3.40012
1821.16	3.12515
1822.66	2.87829
1824.16	3.25976
1825.66	3.42052
1827.16	3.43647
1828.66	3.27507
1830.16	3.31167
1831.65	2.81198
1833.15	2.50931
1834.65	2.3408
1836.14	2.99652
1837.64	3.08138
1839.14	3.01451
1840.63	3.90094
1842.13	3.26593
1843.62	3.32288
1845.12	3.00941
1846.61	3.14487
1848.11	3.0819
1849.6	3.22327
1851.1	3.12969
1852.59	2.21645
1854.08	1.95694
1855.58	1.72121
1857.07	1.38448
1858.56	1.08193
1860.05	1.5828
1861.55	1.59273
1863.04	0.714084
1864.53	0.802716
1866.02	0.0910116
1867.51	0.282078
1869	0.469487
1870.49	0.391318
1871.98	0.730723
1873.47	0.77965
1874.96	0.822239
1876.45	1.29644
1877.94	1.80483
1879.43	1.27392
1880.92	0.926261
1882.41	-0.0515638
1882.51	0.231701
1884	0.00516253
1885.5	0.0955539
1886.99	0.23169
1888.48	0.636453
1889.98	0.98053
1891.47	1.90859
1892.96	2.03357
1894.46	1.35353
1895.95	2.11902
1897.44	2.86758
1898.93	3.56114
1900.42	4.07146
1901.91	4.35488
1903.41	5.06855
1904.9	5.32516
1906.39	6.29166
1907.88	7.17211
1909.37	8.20701
1910.86	8.13088
1912.35	8.16758
1913.83	8.20466
1915.32	7.59582
1916.81	8.1155
1918.3	7.93958
1919.79	7.59366
1921.27	7.37107
1922.76	7.30391
1924.25	7.92141
1925.74	7.96505
1927.22	8.4847
1928.71	8.58083
1930.19	8.78818
1931.68	8.32168
1933.17	8.35024
1934.65	7.4057
1936.14	7.33497
1937.62	8.07318
1939.11	7.115
1940.59	7.90222
1942.07	8.20341
1943.56	8.60127
1945.04	8.87127
1946.52	8.9474
1948.01	9.19567
1949.49	8.77159
1950.97	8.9292
1952.45	8.02592
1953.93	7.34613
1955.42	7.47119
1956.9	7.43407
1958.38	7.12036
1959.86	6.42124
1961.34	6.10965
1962.82	5.85833
1964.3	5.31082
1965.78	5.30299
1967.26	4.65908
1968.74	4.40788
1970.21	4.24754
1971.69	3.64845
1973.17	3.69519
1974.65	3.66596
1976.13	3.48838
1977.6	3.87824
1979.08	3.52321
1980.56	3.48421
1982.03	3.64817
1983.51	3.69095
1984.99	3.83879
1986.46	3.81603
1987.94	3.60501
1989.41	3.95528
1990.89	4.50951
1992.36	4.98231
1993.84	4.9319
1995.31	5.4903
1996.78	5.75839
1998.26	6.56724
1999.73	6.47268
2001.2	6.13593
2002.68	6.48258
2004.15	6.95066
2005.62	6.79843
2007.09	7.63829
2008.56	8.1596
2010.04	8.55718
2011.51	9.43283
2012.98	9.42998
2014.45	10.2139
2015.92	10.5198
2017.39	10.5692
2018.86	11.041
2020.33	11.9192
2021.8	11.6679
2023.26	11.5794
2024.73	11.7806
2026.2	10.9847
2027.67	11.1247
2029.14	11.0471
2030.61	10.5839
2032.07	10.4176
2033.54	9.78091
2035.01	9.68016
2036.47	9.93001
2037.94	9.63493
2039.4	9.39594
2040.87	10.0741
2042.33	10.6193
2043.8	10.8528
2045.27	12.0561
2046.73	12.9365
2048.19	13.5437
2049.66	14.2302
2051.12	16.01
2052.59	16.3809
2054.05	17.2434
2055.51	17.5781
2056.97	18.252
2058.44	19.1854
2059.9	19.4552
2061.36	20.2653
2062.82	21.437
2064.28	22.6137
2065.74	23.7125
2067.21	24.7624
2068.67	26.1114
2070.13	27.1348
2071.59	27.6071
2073.05	28.574
2074.51	30.0754
2075.96	30.9446
2077.42	31.9754
2078.88	33.2797
2080.34	34.7085
2081.8	35.2857
2083.26	36.4273
2084.72	37.9306
2086.17	38.291
2087.63	39.1307
2089.09	40.5657
2090.54	42.2174
2092	43.5642
2093.45	45.253
2094.91	46.3723
2096.37	46.9317
2097.82	47.6075
2099.28	48.4754
2100.73	49.9024
2102.19	51.0001
2103.64	53.1859
2105.09	54.6315
2106.55	56.4542
2108	58.1613
2109.45	60.7167
2110.91	62.3136
2112.36	65.1426
2113.81	68.2215
2115.26	70.9794
2116.72	73.3241
2118.17	76.4291
2119.62	79.43
2121.07	82.457
2122.52	85.7022
2123.97	89.2134
2125.42	91.6703
2126.87	94.8365
2128.32	98.2024
2129.77	102.56
2131.22	105.972
2132.67	109.531
2134.11	114.34
2135.56	118.587
