#Acq. time (s)=	45
#Accumulations=	2
#Range (cm-¹)=	200...3150
#Windows=	2
#Auto scanning=	Off
#Autofocus=	Off
#Macrospot=	Off
#AutoExposure=	Off
#Spike filter=	Multiple accum.
#Delay time (s)=	0
#Binning=	1
#Readout mode=	Signal
#DeNoise=	Off
#ICS correction=	On
#Dark correction=	Off
#Inst. Process=	Off
#Detector Gain=	Best Dynamic Range
#Detector ADC=	20 kHz       
#Detector temperature (°C)=	-69.85
#Instrument=	LabRAM HR Evol
#Detector=	Synapse
#Objective=	x100
#Grating=	600 gr/mm
#ND Filter=	100%
#Laser (nm)=	532 
#Hole=	100.021
#Range=	Auto
#Laser Pol.=	No
#Raman. Pol.=	No
#Laser Pol. (°)=	-0.0007625
#Raman Pol. (°)=	89.9995
#Collection=	Microscope
#StageXY=	Marzhauser
#StageZ=	Marzhauser
#X (µm)=	-6379
#Y (µm)=	778.3
#Z (µm)=	-65.15
#Full time(mm:ss)=	3:18
#Project=	
#Sample=	
#Site=	
#Title=	Mb_30_27_46_2x_45s_532 nm_x100_100%_600 gr_mm
#Remark=	
#Date=	13.07.2022 12:13
#Acquired=	13.07.2022 12:13:57
#Base:Fit=	10.08.2022 10:40:03
#Base:Sub=	10.08.2022 10:40:17
#Filter:Polynom=	16.08.2022 10:16:15
#AxisType[0]=Intens
#AxisUnit[0]=Cnt
#AxisType[1]=Spectr
#AxisUnit[1]=1/cm
200.563	44.0522
202.377	38.2755
204.194	33.4757
206.008	29.4295
207.821	26.085
209.634	23.3847
211.449	21.1508
213.262	19.2532
215.074	17.5984
216.885	16.0916
218.699	15.7683
220.51	14.1322
222.321	13.0636
224.131	11.9514
225.941	11.4745
227.751	10.362
229.562	10.2946
231.371	10.1365
233.18	11.1879
234.988	11.1622
236.796	10.9894
238.603	11.0222
240.411	10.4075
242.219	9.69753
244.026	8.82451
245.832	8.5061
247.638	8.74059
249.443	9.54037
251.248	10.1581
253.053	10.5019
254.857	10.6062
256.661	10.7787
258.465	10.0283
260.268	10.205
262.071	10.3341
263.874	9.87092
265.678	9.24437
267.48	8.39044
269.282	9.32716
271.083	8.48074
272.884	8.01668
274.684	8.45969
276.484	7.69557
278.284	7.57149
280.084	7.53884
281.883	6.72859
283.682	4.85646
285.48	4.09973
287.276	3.64494
289.074	3.78739
290.871	4.00924
292.668	4.51253
294.465	4.6197
296.261	4.65404
298.057	5.1985
299.853	5.15071
301.648	4.92032
303.443	4.61323
305.237	5.15069
307.032	5.25527
308.823	6.37776
310.617	5.78
312.41	6.11475
314.203	6.94235
315.995	6.40432
317.788	6.67204
319.579	7.84566
321.369	8.38779
323.16	9.04399
324.951	8.6864
326.741	8.95978
328.531	8.84398
330.321	8.04918
332.108	7.78605
333.897	7.62804
335.686	8.79096
337.474	9.79092
339.26	10.022
341.048	9.87454
342.835	8.70022
344.622	8.24937
346.406	8.42222
348.192	8.4649
349.978	8.48092
351.764	8.41233
353.547	8.24264
355.332	7.58666
357.116	7.06727
358.901	7.01537
360.682	6.66586
362.466	6.51547
364.249	4.53597
366.03	4.09931
367.812	4.35189
369.594	4.20948
371.374	4.3296
373.155	3.8732
374.936	4.96716
376.715	5.32548
378.495	5.07113
380.273	4.57028
382.053	4.55711
383.832	5.27869
385.609	4.83567
387.388	5.00536
389.164	5.33267
390.942	5.81023
392.72	6.35751
394.495	7.38321
396.272	7.74198
398.047	8.00453
399.823	7.29522
401.597	6.84042
403.372	7.09546
405.145	6.63134
406.92	7.99604
408.693	7.90223
410.467	8.26581
412.239	8.7886
414.012	8.85879
415.783	9.07699
417.556	8.82087
419.327	8.12646
421.099	8.44816
422.869	8.16065
424.64	9.45095
426.409	9.5162
428.18	9.47488
429.948	9.4412
431.718	8.4509
433.486	8.91959
435.253	9.22261
437.022	8.67833
438.789	7.98297
440.558	7.63371
442.324	7.55232
444.089	5.97301
445.857	5.72715
447.622	5.49114
449.386	5.86827
451.153	5.83988
452.917	6.37568
454.682	7.71753
456.446	8.27927
458.208	8.87928
459.973	8.84663
461.735	8.90216
463.497	8.31842
465.259	8.50767
467.022	7.51137
468.783	7.98023
470.544	7.89301
472.306	8.5846
474.066	8.60218
475.825	9.18615
477.585	10.3134
479.346	9.9114
481.104	10.2379
482.862	10.4591
484.62	9.83588
486.38	9.27796
488.137	9.64908
489.894	10.0339
491.65	10.0215
493.407	9.7668
495.164	10.5644
496.92	10.6519
498.675	12.1047
500.43	12.6819
502.184	11.7764
503.939	11.8161
505.694	11.6926
507.448	11.3452
509.201	12.2152
510.954	12.5431
512.706	13.4024
514.459	13.9574
516.21	13.5168
517.962	13.4625
519.715	12.9832
521.466	13.4886
523.216	13.3766
524.966	13.2752
526.716	14.0123
528.466	14.5565
530.215	14.403
531.964	13.3898
533.712	13.8981
535.46	14.8624
537.208	15.2125
538.955	15.4826
540.703	15.9711
542.449	15.21
544.196	15.7084
545.942	14.2464
547.688	12.7489
549.433	12.1476
551.178	10.8016
552.923	11.5151
554.667	11.3762
556.412	11.8194
558.155	10.8498
559.899	11.0523
561.642	10.1782
563.385	9.62844
565.127	9.98645
566.867	8.66149
568.609	8.49178
570.35	7.43544
572.092	6.76554
573.832	6.0547
575.573	5.75451
577.313	5.43002
579.053	4.87594
580.79	5.12557
582.529	5.65098
584.268	4.71302
586.006	4.209
587.745	2.93147
589.482	1.33524
591.218	1.88673
592.955	1.22122
594.692	0.654866
596.428	0.7515
598.164	1.51687
599.898	0.9216
601.634	0.543324
603.369	0.0636767
605.104	1.2499
606.836	1.04303
608.57	2.0335
610.304	2.70812
612.037	3.10496
613.769	4.31667
615.501	4.55516
617.234	4.56857
618.966	5.18593
620.696	5.98601
622.427	7.00376
624.159	6.94159
625.887	7.69726
627.618	7.59796
629.348	7.87922
631.076	9.21377
632.806	9.23728
634.535	11.1654
636.262	12.0786
637.99	13.7096
639.716	15.8902
641.444	16.5654
643.172	17.3392
644.897	17.7616
646.624	19.6589
648.348	19.8485
650.075	19.4692
651.801	20.4672
653.524	20.3937
655.249	21.9225
656.972	22.8463
658.697	23.9493
660.419	24.3077
662.143	25.2586
663.865	26.3383
665.588	26.2699
667.309	26.589
669.032	26.1505
670.752	26.5636
672.474	26.7175
674.194	27.0845
675.915	27.4082
677.634	28.9263
679.355	29.0789
681.073	30.3683
682.793	30.8168
684.511	32.1342
686.23	32.3037
687.947	33.3451
689.664	35.7335
691.382	36.5913
693.098	36.16
694.816	36.9451
696.531	37.1242
698.247	37.8448
699.963	38.9716
701.678	38.8356
703.392	38.9137
705.108	39.707
706.821	40.0399
708.534	41.8555
710.249	42.9066
711.962	42.9337
713.674	43.33
715.388	43.9064
717.099	44.4129
718.81	44.9894
720.523	45.1838
722.234	45.7546
723.944	46.8629
725.654	46.4491
727.365	45.6717
729.075	45.2817
730.784	46.0479
732.492	47.0462
734.202	45.8305
735.91	46.0323
737.618	48.1115
739.325	48.704
741.034	49.3938
742.741	48.5132
744.447	49.3992
746.153	49.888
747.859	50.9273
749.564	52.8856
751.271	53.5924
752.976	54.7302
754.681	54.8643
756.385	57.2765
758.088	57.8041
759.792	59.5637
761.495	60.6066
763.2	61.8114
764.902	62.5334
766.604	64.1571
768.306	64.6304
770.008	66.013
771.709	66.5085
773.41	67.776
775.11	69.3158
776.811	69.5546
778.51	70.1609
780.21	72.8454
781.909	73.5727
783.608	75.6563
785.307	76.5539
787.005	77.587
788.703	78.6951
790.401	80.3817
792.098	81.0537
793.795	82.6211
795.492	82.5716
797.188	82.3924
798.884	83.6661
800.58	84.1584
802.276	84.7634
803.971	85.9266
805.665	86.5211
807.36	87.6146
809.054	87.2908
810.748	86.977
812.441	87.7511
814.135	87.8353
815.826	87.3777
817.518	86.3162
819.21	85.729
820.902	86.1137
822.594	86.5407
824.285	85.4678
825.976	84.6391
827.665	84.1468
829.355	85.1454
831.045	85.5805
832.735	85.7831
834.424	85.1607
836.111	83.3698
837.8	82.8534
839.488	82.0049
841.177	81.8934
842.864	81.1652
844.55	80.4865
846.237	78.8533
847.924	78.2196
849.61	77.8896
851.295	76.4918
852.98	74.8142
854.666	73.1236
856.349	72.8048
858.034	73.0194
859.719	71.6468
861.403	70.4977
863.085	69.7312
864.769	69.6023
866.452	68.3909
868.133	68.5233
869.816	67.6291
871.498	67.6147
873.179	67.1932
874.86	67.1831
876.54	65.6246
878.221	64.7039
879.902	64.0115
881.58	63.2477
883.26	63.0762
884.938	62.4182
886.618	61.4212
888.297	60.0362
889.974	57.9787
891.653	57.3527
893.329	56.5229
895.007	55.7057
896.683	54.9565
898.36	53.6802
900.035	52.9654
901.712	53.1265
903.387	53.1193
905.063	51.5414
906.737	51.3168
908.412	50.263
910.085	50.5393
911.76	50.1505
913.433	51.0815
915.107	50.9871
916.779	49.4621
918.452	49.151
920.124	50.2808
921.797	51.0673
923.467	50.1304
925.138	50.835
926.81	50.6203
928.48	49.5245
930.151	49.1998
931.82	48.2594
933.489	47.3333
935.16	45.9967
936.828	45.7116
938.496	45.3907
940.165	46.217
941.833	46.352
943.5	45.6601
945.168	45.4695
946.834	45.3411
948.5	44.5415
950.168	44.4898
951.834	44.5061
953.499	44.3663
955.163	43.2454
956.83	41.314
958.494	39.8678
960.158	38.3923
961.821	38.6025
963.487	38.716
965.15	37.8636
966.812	37.4257
968.474	37.3501
970.138	36.6912
971.8	36.3215
973.461	36.5302
975.123	37.6025
976.783	37.0125
978.446	36.5764
980.106	36.2827
981.766	35.9855
983.425	35.7043
985.084	35.9432
986.743	34.8069
988.402	33.9422
990.06	35.0423
991.72	34.5848
993.378	34.8484
995.035	34.1447
996.692	34.0637
998.349	32.8681
1000.01	32.8215
1001.66	33.0894
1003.32	32.3008
1004.97	30.9602
1006.63	31.1326
1008.28	31.8074
1009.94	31.7441
1011.59	32.4676
1013.25	33.4099
1014.9	33.4799
1016.55	34.9098
1018.21	35.9929
1019.86	36.6245
1021.51	37.4304
1023.16	37.6639
1024.81	38.6802
1026.47	38.8885
1028.12	38.7784
1029.77	39.8022
1031.42	39.7135
1033.07	39.9695
1034.72	40.6826
1036.37	40.7871
1038.02	40.539
1039.67	40.7147
1041.31	41.6621
1042.96	42.1002
1044.61	42.4954
1046.26	43.1004
1047.91	42.795
1049.55	42.9965
1051.2	43.5822
1052.84	42.6794
1054.49	41.8855
1056.14	41.9367
1057.78	41.8187
1059.43	40.9625
1061.07	40.6391
1062.72	40.4574
1064.36	39.4962
1066	38.8962
1067.65	38.2582
1069.29	36.5095
1070.93	36.2115
1072.58	36.0492
1074.22	34.6107
1075.86	33.8496
1077.5	32.4992
1079.14	31.8036
1080.78	30.4883
1082.42	30.6066
1084.06	30.3037
1085.7	30.2509
1087.34	30.9027
1088.98	31.2384
1090.62	31.4857
1092.26	32.2406
1093.9	32.6251
1095.54	32.8649
1097.17	32.5886
1098.81	33.0895
1100.45	32.5313
1102.09	31.9812
1103.72	32.1823
1105.36	32.256
1106.99	32.5716
1108.63	32.0487
1110.27	30.3166
1111.9	30.1613
1113.53	29.587
1115.17	29.7891
1116.8	30.1094
1118.43	30.2093
1120.07	29.1144
1121.7	28.8463
1123.33	28.7315
1124.97	27.8195
1126.6	27.2312
1128.23	26.9249
1129.86	25.2722
1131.49	24.1432
1133.12	23.1094
1134.75	21.9729
1136.38	21.4454
1138.01	20.9107
1139.64	19.5777
1141.27	18.095
1142.9	16.7528
1144.53	15.3286
1146.16	13.8419
1147.78	13.0458
1149.41	12.0464
1151.04	10.3806
1152.67	10.4543
1154.29	9.75778
1155.92	9.29916
1157.54	9.26937
1159.17	8.07504
1160.8	7.04439
1162.42	6.72326
1164.05	7.80397
1165.67	8.15125
1167.29	7.94014
1168.92	7.68146
1170.54	7.43998
1172.16	8.56549
1173.79	9.18953
1175.41	9.85012
1177.03	9.19712
1178.65	9.77987
1180.28	10.0884
1181.9	10.4029
1183.52	11.1993
1185.14	12.1839
1186.76	13.3798
1188.38	13.4616
1190	14.4727
1191.62	15.5285
1193.24	17.9486
1194.86	19.9001
1196.47	20.6343
1198.09	21.7137
1199.71	23.6438
1201.33	23.9524
1202.95	24.7582
1204.56	25.0031
1206.18	25.0217
1207.8	25.9393
1209.41	26.5304
1211.03	26.399
1212.64	26.7757
1214.26	28.1468
1215.87	29.3892
1217.49	29.8364
1219.1	30.4349
1220.71	30.9838
1222.33	31.2192
1223.94	32.3083
1225.55	33.0789
1227.16	34.973
1228.78	36.005
1230.39	36.8426
1232	37.3783
1233.61	39.2967
1235.22	39.145
1236.83	39.7646
1238.44	39.9572
1240.05	40.5533
1241.66	41.7575
1243.27	43.4725
1244.88	44.063
1246.49	44.7146
1248.1	44.7776
1249.71	45.5391
1251.32	46.5203
1252.92	47.5503
1254.53	48.2212
1256.14	49.2913
1257.74	49.3016
1259.35	49.7682
1260.96	49.7439
1262.56	50.6897
1264.17	51.2262
1265.77	51.3781
1267.38	51.6173
1268.98	52.4788
1270.59	53.9474
1272.19	54.2176
1273.79	54.8495
1275.4	55.2111
1277	55.2478
1278.6	56.2999
1280.21	55.6554
1281.81	54.9049
1283.41	54.3761
1285.01	54.576
1286.61	54.9
1288.21	56.1665
1289.81	56.8235
1291.41	57.612
1293.01	58.996
1294.61	59.6784
1296.21	59.5649
1297.81	60.502
1299.41	61.1932
1301.01	61.388
1302.6	61.9083
1304.2	61.9297
1305.8	62.2688
1307.4	63.2598
1308.99	62.4106
1310.59	62.478
1312.19	62.445
1313.78	62.6112
1315.38	61.1089
1316.97	61.8554
1318.57	62.964
1320.16	63.3763
1321.76	63.4539
1323.35	63.365
1324.94	63.417
1326.54	63.5528
1328.13	62.8812
1329.72	61.987
1331.32	60.8659
1332.91	60.8746
1334.5	61.1144
1336.09	60.358
1337.68	58.0148
1339.27	56.5043
1340.87	56.5257
1342.45	56.6575
1344.04	55.5266
1345.64	54.7805
1347.22	54.8523
1348.81	54.1685
1350.4	53.2402
1351.99	52.396
1353.58	51.6536
1355.17	50.0518
1356.75	48.9369
1358.34	48.3087
1359.93	46.7936
1361.51	47.2191
1363.1	47.7707
1364.69	47.6565
1366.27	47.3054
1367.86	47.2012
1369.44	46.5167
1371.03	45.7424
1372.61	44.3656
1374.2	43.1813
1375.78	43.3884
1377.37	44.1136
1378.95	43.4685
1380.53	42.8737
1382.11	42.1531
1383.7	41.1781
1385.28	41.2542
1386.86	40.5868
1388.44	39.6941
1390.02	39.8257
1391.6	40.0432
1393.19	40.3404
1394.77	39.3523
1396.35	40.0998
1397.93	39.9998
1399.51	39.2153
1401.08	38.9268
1402.66	38.8879
1404.24	38.617
1405.82	38.2896
1407.4	38.1794
1408.97	38.2287
1410.55	37.9966
1412.13	39.0747
1413.71	38.2299
1415.28	39.5171
1416.86	40.1007
1418.43	41.791
1420.01	43.4288
1421.59	45.4974
1423.16	45.4557
1424.73	47.4131
1426.31	48.8049
1427.88	50.8973
1429.46	52.6529
1431.03	54.6332
1432.6	55.6924
1434.18	57.099
1435.75	59.0257
1437.32	60.473
1438.89	61.4993
1440.46	62.2737
1442.04	62.3061
1443.61	62.0721
1445.18	62.7721
1446.75	63.1719
1448.32	63.6631
1449.89	63.9829
1451.46	64.0215
1453.03	64.9602
1454.6	65.4399
1456.16	65.2972
1457.73	64.3941
1459.3	63.2233
1460.87	61.7802
1462.44	60.6098
1464	59.1708
1465.57	57.6063
1467.14	56.4952
1468.7	55.7093
1470.27	54.1605
1471.83	52.2889
1473.4	50.2597
1474.96	49.2719
1476.53	46.9935
1478.09	46.0852
1479.66	44.2771
1481.22	42.5318
1482.78	40.1667
1484.35	38.778
1485.91	36.3857
1487.47	34.8218
1489.04	33.5117
1490.6	33.5025
1492.16	32.6113
1493.72	32.6756
1495.28	30.5109
1496.84	29.459
1498.4	29.2112
1499.96	29.012
1501.52	28.2697
1503.08	28.5153
1504.64	27.1401
1506.2	26.3796
1507.76	23.5723
1509.32	22.8977
1510.88	21.7273
1512.44	20.3079
1513.99	19.1278
1515.55	17.8136
1517.11	16.9453
1518.66	16.0486
1520.22	16.4428
1521.78	16.7251
1523.33	16.3068
1524.89	16.0695
1526.44	16.0153
1528	16.1572
1529.55	16.1719
1531.11	16.379
1532.66	15.759
1534.21	15.4702
1535.77	15.1928
1537.32	14.8099
1538.87	14.8681
1540.43	16.3064
1541.98	17.3013
1543.53	18.8754
1545.08	20.4778
1546.63	22.1341
1548.18	24.0508
1549.74	25.867
1551.29	27.3855
1552.84	28.3737
1554.39	29.1143
1555.94	30.8298
1557.48	31.6518
1559.03	32.8251
1560.58	33.6607
1562.13	35.3316
1563.68	36.6965
1565.23	38.5045
1566.78	40.4383
1568.32	41.8415
1569.87	42.871
1571.42	43.7954
1572.96	44.5441
1574.51	45.8311
1576.05	46.6703
1577.6	47.164
1579.14	47.188
1580.69	46.8973
1582.24	46.4259
1583.78	46.6466
1585.32	46.5526
1586.87	47.3788
1588.41	47.373
1589.95	46.6759
1591.5	47.6873
1593.04	47.9255
1594.58	48.0145
1596.12	48.5802
1597.67	48.9643
1599.21	48.4213
1600.75	47.4472
1602.29	47.1012
1603.83	46.9984
1605.37	47.3174
1606.91	46.9921
1608.45	47.5329
1609.99	47.4358
1611.53	47.0799
1613.07	47.0652
1614.6	47.1213
1616.14	48.2072
1617.68	49.1495
1619.22	49.6688
1620.75	50.8526
1622.29	51.8
1623.83	52.9236
1625.37	54.1282
1626.9	54.5219
1628.44	56.209
1629.97	56.4858
1631.51	57.37
1633.04	58.5606
1634.58	60.167
1636.11	61.5584
1637.65	63.0192
1639.18	64.6892
1640.72	66.3385
1642.25	67.5958
1643.78	69.1267
1645.31	69.5956
1646.85	70.0224
1648.38	69.9642
1649.91	69.8024
1651.44	69.9594
1652.97	70.0651
1654.5	70.7873
1656.03	69.9615
1657.56	69.3111
1659.1	68.3057
1660.62	68.0031
1662.15	67.1124
1663.68	66.033
1665.21	64.5997
1666.74	63.4731
1668.27	62.2091
1669.8	60.2514
1671.32	58.5413
1672.85	56.3639
1674.38	54.2771
1675.91	52.1041
1677.43	50.0537
1678.96	48.4
1680.49	46.5364
1682.01	44.6159
1683.54	43.1255
1685.06	40.999
1686.59	37.5372
1688.11	35.381
1689.64	34.0852
1691.16	32.5358
1692.68	30.5292
1694.21	29.1897
1695.73	27.395
1697.25	25.9202
1698.78	23.9308
1700.3	22.4692
1701.82	21.0638
1703.34	19.434
1704.86	18.3747
1706.39	17.7769
1707.91	17.3554
1709.43	16.4995
1710.95	15.8048
1712.47	15.3062
1713.99	14.369
1715.51	13.2719
1717.02	12.0957
1718.54	11.24
1720.06	10.618
1721.58	9.8101
1723.1	8.8588
1724.62	8.56971
1726.13	8.2178
1727.65	8.11775
1729.17	8.08529
1730.68	7.38048
1732.2	6.69224
1733.72	6.43465
1735.23	6.73364
1736.75	7.06229
1738.26	6.50622
1739.78	5.7137
1741.29	5.41912
1742.81	5.67972
1744.32	5.18655
1745.84	4.93762
1747.35	4.751
1748.86	4.60633
1750.37	5.1164
1751.89	4.92516
1753.4	4.69528
1754.91	4.35929
1756.42	4.18736
1757.93	4.61512
1759.45	4.81625
1760.96	3.86238
1762.47	3.51129
1763.98	3.74046
1765.49	3.43292
1767	2.70716
1768.51	2.15825
1770.02	2.45731
1771.53	1.76849
1773.03	1.82623
1774.54	1.31233
1776.05	1.10602
1777.56	1.19425
1779.07	1.5836
1780.57	1.73495
1782.08	1.95714
1783.59	0.693559
1785.09	0.388546
1786.6	0.461206
1788.11	0.690391
1789.61	0.538393
1791.12	0.256331
1792.62	0.424623
1794.13	1.29837
1795.63	1.20249
1797.13	0.731766
1798.64	0.781264
1800.14	1.38657
1801.65	1.23608
1803.15	1.62808
1804.65	1.76111
1806.15	2.03005
1807.66	2.71082
1809.16	2.9477
1810.66	3.48051
1812.16	3.45088
1813.66	2.9937
1815.16	3.31339
1816.66	3.70748
1818.16	3.6398
1819.66	3.36214
1821.16	3.4716
1822.66	3.74595
1824.16	3.56339
1825.66	3.43016
1827.16	2.6564
1828.66	2.76698
1830.16	2.90996
1831.65	2.83757
1833.15	2.88733
1834.65	2.59061
1836.14	2.74306
1837.64	2.44891
1839.14	1.95347
1840.63	1.84555
1842.13	1.6692
1843.62	2.10823
1845.12	2.30539
1846.61	2.30573
1848.11	2.43242
1849.6	2.05932
1851.1	2.0797
1852.59	1.91835
1854.08	1.84564
1855.58	1.5784
1857.07	1.80491
1858.56	2.25612
1860.05	2.62845
1861.55	2.25055
1863.04	2.34014
1864.53	2.7597
1866.02	2.25818
1867.51	2.40833
1869	2.24894
1870.49	1.79499
1871.98	1.69919
1873.47	2.18578
1874.96	2.02987
1876.45	2.12685
1877.94	2.22307
1879.43	2.63334
1880.92	2.8649
1882.41	3.0342
1882.51	3.18089
1884	3.62056
1885.5	3.22757
1886.99	3.45081
1888.48	3.6809
1889.98	3.94891
1891.47	3.22528
1892.96	2.7394
1894.46	2.94792
1895.95	2.93419
1897.44	2.63718
1898.93	2.88924
1900.42	3.08922
1901.91	4.07192
1903.41	4.15542
1904.9	3.75871
1906.39	3.31256
1907.88	3.13266
1909.37	3.73342
1910.86	2.70344
1912.35	2.4341
1913.83	2.73606
1915.32	2.59843
1916.81	2.74157
1918.3	3.14793
1919.79	2.60907
1921.27	2.88918
1922.76	2.35565
1924.25	2.57373
1925.74	2.50211
1927.22	3.08197
1928.71	3.65857
1930.19	3.68236
1931.68	3.6921
1933.17	3.54226
1934.65	3.47392
1936.14	4.13288
1937.62	4.24722
1939.11	3.58085
1940.59	4.18711
1942.07	3.40749
1943.56	2.67427
1945.04	2.8731
1946.52	2.84689
1948.01	2.50967
1949.49	2.67451
1950.97	2.27108
1952.45	2.98235
1953.93	2.92945
1955.42	2.93413
1956.9	3.15023
1958.38	3.08073
1959.86	2.74635
1961.34	2.82514
1962.82	2.56041
1964.3	2.47044
1965.78	2.17461
1967.26	2.91779
1968.74	3.09671
1970.21	3.40854
1971.69	3.82071
1973.17	3.9543
1974.65	3.44919
1976.13	3.41409
1977.6	3.64079
1979.08	3.8827
1980.56	4.02136
1982.03	4.2931
1983.51	4.45695
1984.99	3.84174
1986.46	4.08351
1987.94	4.34061
1989.41	4.49004
1990.89	4.97143
1992.36	4.96346
1993.84	4.59698
1995.31	5.51072
1996.78	4.89667
1998.26	5.20905
1999.73	5.25096
2001.2	5.23043
2002.68	6.18181
2004.15	6.22398
2005.62	6.22405
2007.09	6.46406
2008.56	5.91737
2010.04	6.42998
2011.51	5.74659
2012.98	5.299
2014.45	4.70816
2015.92	3.76892
2017.39	3.44507
2018.86	3.92397
2020.33	3.67454
2021.8	3.64937
2023.26	3.66119
2024.73	3.66518
2026.2	4.01505
2027.67	3.82593
2029.14	3.99853
2030.61	3.98012
2032.07	4.07333
2033.54	4.45989
2035.01	4.89934
2036.47	5.24933
2037.94	5.79458
2039.4	6.13699
2040.87	5.89701
2042.33	6.26055
2043.8	6.8539
2045.27	6.81718
2046.73	7.91209
2048.19	8.29407
2049.66	8.92518
2051.12	9.50255
2052.59	9.54634
2054.05	9.38436
2055.51	9.83034
2056.97	10.0845
2058.44	10.3865
2059.9	10.6038
2061.36	11.3357
2062.82	11.7105
2064.28	11.9984
2065.74	12.027
2067.21	12.5253
2068.67	12.3687
2070.13	12.6778
2071.59	13.1135
2073.05	13.435
2074.51	13.5869
2075.96	14.3094
2077.42	14.0187
2078.88	14.4301
2080.34	14.5492
2081.8	14.9752
2083.26	15.4049
2084.72	15.239
2086.17	15.5244
2087.63	15.7591
2089.09	16.5354
2090.54	17.1424
2092	17.65
2093.45	17.735
2094.91	18.2296
2096.37	18.3714
2097.82	19.2357
2099.28	19.9459
2100.73	20.7324
2102.19	21.7125
2103.64	22.4886
2105.09	23.7337
2106.55	24.7654
2108	25.3033
2109.45	25.3537
2110.91	25.6984
2112.36	26.016
2113.81	26.1494
2115.26	27.3113
2116.72	27.8737
2118.17	28.4026
2119.62	29.7138
2121.07	29.8354
2122.52	30.9341
2123.97	32.2744
2125.42	33.6718
2126.87	35.3086
2128.32	36.4302
2129.77	37.2826
2131.22	38.3979
2132.67	38.9725
2134.11	40.1936
2135.56	41.7148
2137.01	43.2712
2138.46	44.1455
