#Acq. time (s)=	45
#Accumulations=	2
#Range (cm-¹)=	200...3150
#Windows=	2
#Auto scanning=	Off
#Autofocus=	Off
#Macrospot=	Off
#AutoExposure=	Off
#Spike filter=	Multiple accum.
#Delay time (s)=	0
#Binning=	1
#Readout mode=	Signal
#DeNoise=	Off
#ICS correction=	On
#Dark correction=	Off
#Inst. Process=	Off
#Detector Gain=	Best Dynamic Range
#Detector ADC=	20 kHz       
#Detector temperature (°C)=	-69.85
#Instrument=	LabRAM HR Evol
#Detector=	Synapse
#Objective=	x100
#Grating=	600 gr/mm
#ND Filter=	100%
#Laser (nm)=	532 
#Hole=	100.021
#Range=	Auto
#Laser Pol.=	No
#Raman. Pol.=	No
#Laser Pol. (°)=	-0.0007625
#Raman Pol. (°)=	89.9995
#Collection=	Microscope
#StageXY=	Marzhauser
#StageZ=	Marzhauser
#X (µm)=	-6345.5
#Y (µm)=	802.2
#Z (µm)=	-65.15
#Full time(mm:ss)=	3:18
#Project=	
#Sample=	
#Site=	
#Title=	Mb_30_27_38_2x_45s_532 nm_x100_100%_600 gr_mm
#Remark=	
#Date=	13.07.2022 11:33
#Acquired=	13.07.2022 11:33:08
#Base:Fit=	10.08.2022 10:40:03
#Base:Sub=	10.08.2022 10:40:17
#Filter:Polynom=	16.08.2022 10:16:15
#AxisType[0]=Intens
#AxisUnit[0]=Cnt
#AxisType[1]=Spectr
#AxisUnit[1]=1/cm
200.563	23.2362
202.377	20.7935
204.194	19.0976
206.008	17.7959
207.821	17.7021
209.634	17.415
211.449	16.3388
213.262	15.8563
215.074	15.2662
216.885	14.7641
218.699	13.1108
220.51	13.2077
222.321	12.1525
224.131	12.7893
225.941	11.2744
227.751	10.2355
229.562	11.0265
231.371	10.7495
233.18	12.2276
234.988	12.5695
236.796	13.3051
238.603	12.7211
240.411	12.7548
242.219	12.1876
244.026	12.6984
245.832	11.7084
247.638	11.418
249.443	11.1431
251.248	11.5824
253.053	11.3603
254.857	10.6422
256.661	9.27248
258.465	9.13818
260.268	9.21921
262.071	9.95422
263.874	9.82147
265.678	10.7891
267.48	9.87393
269.282	8.91597
271.083	6.83533
272.884	6.58654
274.684	5.86251
276.484	6.01024
278.284	5.82087
280.084	6.34316
281.883	5.94805
283.682	5.69163
285.48	6.28269
287.276	6.79423
289.074	5.78241
290.871	7.10805
292.668	6.6908
294.465	7.23062
296.261	6.84911
298.057	5.97197
299.853	4.67603
301.648	5.14155
303.443	6.13653
305.237	5.16319
307.032	4.92005
308.823	4.08458
310.617	5.54744
312.41	5.53351
314.203	5.89578
315.995	5.63034
317.788	7.94149
319.579	8.92414
321.369	8.3444
323.16	8.79292
324.951	8.41435
326.741	7.63141
328.531	6.84741
330.321	7.56169
332.108	6.61179
333.897	7.12188
335.686	6.41147
337.474	6.19135
339.26	6.14243
341.048	5.55991
342.835	3.80153
344.622	4.07425
346.406	3.36411
348.192	3.48725
349.978	2.81561
351.764	3.32483
353.547	2.80655
355.332	3.4022
357.116	2.74831
358.901	2.19475
360.682	2.40161
362.466	2.83189
364.249	3.42995
366.03	4.30255
367.812	6.43333
369.594	6.36808
371.374	6.63805
373.155	6.64646
374.936	7.81898
376.715	7.73975
378.495	8.54457
380.273	10.0828
382.053	10.5382
383.832	11.5687
385.609	11.8187
387.388	12.1124
389.164	12.8643
390.942	13.3811
392.72	13.3605
394.495	13.4442
396.272	13.4218
398.047	13.9703
399.823	14.4185
401.597	15.5929
403.372	15.2052
405.145	15.604
406.92	15.7279
408.693	14.2194
410.467	13.2911
412.239	14.0046
414.012	14.1765
415.783	12.7578
417.556	12.2075
419.327	12.6167
421.099	10.9415
422.869	10.5221
424.64	10.2771
426.409	9.69645
428.18	9.44003
429.948	8.9775
431.718	8.07798
433.486	7.99637
435.253	6.47075
437.022	5.5373
438.789	4.54515
440.558	4.45657
442.324	3.77658
444.089	2.93189
445.857	2.51275
447.622	1.89571
449.386	2.1631
451.153	2.31606
452.917	3.15484
454.682	3.86991
456.446	3.66049
458.208	1.65967
459.973	1.61627
461.735	1.94178
463.497	3.16981
465.259	4.12558
467.022	6.03557
468.783	7.02317
470.544	8.60329
472.306	10.1646
474.066	11.3842
475.825	12.6864
477.585	15.3832
479.346	16.0185
481.104	18.4048
482.862	19.9094
484.62	21.435
486.38	22.5383
488.137	23.3487
489.894	26.0211
491.65	26.2569
493.407	28.106
495.164	30.1636
496.92	31.413
498.675	32.212
500.43	34.3504
502.184	35.5648
503.939	36.6539
505.694	38.1806
507.448	40.2737
509.201	40.5394
510.954	42.5674
512.706	43.9792
514.459	44.3153
516.21	44.374
517.962	44.7525
519.715	44.2449
521.466	43.5268
523.216	43.5743
524.966	42.9992
526.716	42.2769
528.466	41.0815
530.215	40.0973
531.964	37.6034
533.712	37.4956
535.46	37.3689
537.208	36.3211
538.955	35.041
540.703	34.1155
542.449	32.9368
544.196	30.5269
545.942	28.632
547.688	28.0891
549.433	27.6377
551.178	27.9607
552.923	27.7222
554.667	26.921
556.412	25.0305
558.155	23.4098
559.899	22.72
561.642	21.9086
563.385	21.2687
565.127	19.889
566.867	17.4755
568.609	16.1137
570.35	14.0508
572.092	11.9677
573.832	9.10384
575.573	9.33625
577.313	9.51846
579.053	8.16201
580.79	7.61913
582.529	7.35282
584.268	6.3312
586.006	5.95155
587.745	6.5249
589.482	7.86122
591.218	7.57576
592.955	6.73291
594.692	6.86558
596.428	7.07003
598.164	7.03697
599.898	6.29925
601.634	6.2811
603.369	5.78395
605.104	5.27558
606.836	4.88457
608.57	4.6725
610.304	4.93365
612.037	4.52282
613.769	5.00148
615.501	5.55561
617.234	6.45996
618.966	7.15382
620.696	9.24461
622.427	8.88784
624.159	8.54467
625.887	8.77757
627.618	8.98416
629.348	8.33262
631.076	7.74075
632.806	8.86878
634.535	9.30555
636.262	9.78001
637.99	10.506
639.716	10.3454
641.444	10.1313
643.172	9.31131
644.897	10.0443
646.624	11.025
648.348	10.6975
650.075	10.1614
651.801	8.89137
653.524	8.56985
655.249	8.44082
656.972	8.28609
658.697	8.09772
660.419	8.9496
662.143	10.2219
663.865	10.2821
665.588	9.88346
667.309	10.877
669.032	12.0095
670.752	13.2138
672.474	15.4508
674.194	16.3678
675.915	17.2224
677.634	17.5343
679.355	17.4656
681.073	18.0189
682.793	19.0454
684.511	20.2947
686.23	21.2098
687.947	21.8953
689.664	22.2793
691.382	23.7452
693.098	24.4381
694.816	25.3537
696.531	25.618
698.247	26.6965
699.963	27.8234
701.678	28.2928
703.392	28.8272
705.108	30.3832
706.821	31.6937
708.534	32.6418
710.249	33.6609
711.962	35.1838
713.674	35.0619
715.388	35.16
717.099	36.7891
718.81	38.0176
720.523	38.0781
722.234	38.5055
723.944	39.5316
725.654	41.2383
727.365	41.0802
729.075	41.7439
730.784	42.9295
732.492	43.4723
734.202	43.3177
735.91	43.7515
737.618	44.0671
739.325	44.7765
741.034	44.8266
742.741	45.9892
744.447	45.9132
746.153	47.7066
747.859	48.8174
749.564	50.0179
751.271	51.9556
752.976	54.0295
754.681	55.8379
756.385	57.492
758.088	59.1583
759.792	58.5377
761.495	59.6714
763.2	60.9826
764.902	60.3873
766.604	61.0423
768.306	62.2091
770.008	63.6541
771.709	63.5123
773.41	64.066
775.11	65.4352
776.811	66.5395
778.51	65.621
780.21	65.9355
781.909	66.9575
783.608	68.8236
785.307	70.3321
787.005	71.3329
788.703	73.8192
790.401	75.6756
792.098	75.4561
793.795	76.3272
795.492	77.0043
797.188	78.762
798.884	78.8058
800.58	80.0465
802.276	82.2125
803.971	81.6897
805.665	83.1592
807.36	83.5208
809.054	85.0094
810.748	85.6511
812.441	85.2691
814.135	86.5313
815.826	86.5176
817.518	87.7547
819.21	87.5076
820.902	87.8339
822.594	88.2057
824.285	88.6206
825.976	89.6353
827.665	90.5406
829.355	89.399
831.045	91.1855
832.735	90.3001
834.424	89.5503
836.111	88.6484
837.8	87.9275
839.488	88.2836
841.177	86.8884
842.864	85.8367
844.55	84.4068
846.237	83.2406
847.924	81.0585
849.61	79.5297
851.295	78.6951
852.98	77.6868
854.666	77.4659
856.349	75.4512
858.034	73.7373
859.719	73.1456
861.403	71.5799
863.085	70.6424
864.769	70.8185
866.452	71.308
868.133	70.1102
869.816	68.7348
871.498	68.7462
873.179	68.5943
874.86	68.1956
876.54	67.4878
878.221	67.9854
879.902	68.1015
881.58	68.1924
883.26	67.517
884.938	67.5304
886.618	67.6177
888.297	66.2737
889.974	66.4721
891.653	65.2109
893.329	64.7355
895.007	64.8565
896.683	65.2786
898.36	65.8378
900.035	65.9816
901.712	66.8897
903.387	66.7642
905.063	67.974
906.737	67.4326
908.412	67.5126
910.085	68.1927
911.76	67.9094
913.433	67.9972
915.107	68.3195
916.779	68.241
918.452	69.2363
920.124	70.4133
921.797	70.1779
923.467	69.4835
925.138	69.1424
926.81	69.5353
928.48	69.3723
930.151	67.9862
931.82	66.4314
933.489	66.2451
935.16	65.397
936.828	64.9736
938.496	64.2796
940.165	62.2149
941.833	61.3382
943.5	62.4724
945.168	61.7858
946.834	61.8347
948.5	62.6616
950.168	62.3407
951.834	62.0361
953.499	63.5564
955.163	64.0307
956.83	63.2862
958.494	61.1698
960.158	60.2779
961.821	59.673
963.487	60.4205
965.15	61.5845
966.812	62.3658
968.474	63.3333
970.138	63.8745
971.8	63.6805
973.461	65.0442
975.123	65.1764
976.783	65.6357
978.446	68.2444
980.106	69.3825
981.766	71.05
983.425	71.1924
985.084	72.3636
986.743	72.8419
988.402	72.8953
990.06	73.2201
991.72	75.3631
993.378	76.0344
995.035	76.0857
996.692	75.2757
998.349	75.3527
1000.01	75.5961
1001.66	74.7577
1003.32	73.2553
1004.97	71.456
1006.63	72.2801
1008.28	74.755
1009.94	76.9802
1011.59	79.3816
1013.25	81.3816
1014.9	83.8243
1016.55	86.988
1018.21	90.54
1019.86	93.55
1021.51	95.0408
1023.16	97.5823
1024.81	101.072
1026.47	103.142
1028.12	105.029
1029.77	106.889
1031.42	109.256
1033.07	109.288
1034.72	109.382
1036.37	108.742
1038.02	106.897
1039.67	106.269
1041.31	106.248
1042.96	107.64
1044.61	107.628
1046.26	107.974
1047.91	107.031
1049.55	104.395
1051.2	102.566
1052.84	100.038
1054.49	96.7523
1056.14	94.7885
1057.78	92.0461
1059.43	89.8745
1061.07	87.9704
1062.72	83.811
1064.36	79.9607
1066	74.5255
1067.65	72.2792
1069.29	69.4162
1070.93	65.8033
1072.58	62.1887
1074.22	58.9337
1075.86	54.2626
1077.5	50.7266
1079.14	48.1318
1080.78	45.9641
1082.42	43.7517
1084.06	42.9123
1085.7	42.65
1087.34	43.5758
1088.98	46.5138
1090.62	49.0812
1092.26	50.3805
1093.9	51.091
1095.54	51.7433
1097.17	52.191
1098.81	53.2349
1100.45	54.9677
1102.09	54.4501
1103.72	55.0201
1105.36	55.3922
1106.99	55.342
1108.63	55.4472
1110.27	56.9578
1111.9	57.3417
1113.53	57.8498
1115.17	56.7206
1116.8	55.5017
1118.43	54.9121
1120.07	54.063
1121.7	54.1945
1123.33	53.2763
1124.97	51.1637
1126.6	49.4422
1128.23	48.4409
1129.86	46.9414
1131.49	45.8974
1133.12	45.4153
1134.75	43.7246
1136.38	42.8546
1138.01	41.9336
1139.64	39.9379
1141.27	37.4562
1142.9	35.5027
1144.53	33.0112
1146.16	30.085
1147.78	29.1961
1149.41	28.1999
1151.04	25.569
1152.67	21.9109
1154.29	20.1153
1155.92	19.2365
1157.54	16.8254
1159.17	15.2993
1160.8	13.9798
1162.42	11.943
1164.05	11.2685
1165.67	10.38
1167.29	9.93701
1168.92	9.42385
1170.54	8.74542
1172.16	8.52138
1173.79	8.27811
1175.41	8.42542
1177.03	8.97883
1178.65	9.77023
1180.28	11.1588
1181.9	12.3287
1183.52	11.8846
1185.14	13.0653
1186.76	13.7372
1188.38	15.0298
1190	17.6939
1191.62	20.0327
1193.24	21.9645
1194.86	23.2536
1196.47	25.379
1198.09	27.4649
1199.71	29.6484
1201.33	31.9768
1202.95	35.6983
1204.56	38.1815
1206.18	40.9143
1207.8	44.9205
1209.41	48.3166
1211.03	52.2371
1212.64	55.3453
1214.26	58.3389
1215.87	61.7587
1217.49	65.244
1219.1	68.3352
1220.71	71.1859
1222.33	74.5574
1223.94	77.8852
1225.55	80.5592
1227.16	82.9554
1228.78	87.3136
1230.39	89.106
1232	92.2986
1233.61	95.0381
1235.22	99.4916
1236.83	102.028
1238.44	105.061
1240.05	108.864
1241.66	111.998
1243.27	115.052
1244.88	118.777
1246.49	121.407
1248.1	124.344
1249.71	126.459
1251.32	129.204
1252.92	131.842
1254.53	134.349
1256.14	135.649
1257.74	137.602
1259.35	139.444
1260.96	141.011
1262.56	141.605
1264.17	142.237
1265.77	143.905
1267.38	145.847
1268.98	146.707
1270.59	147.525
1272.19	148.514
1273.79	149.386
1275.4	150.598
1277	151.654
1278.6	152.42
1280.21	153.321
1281.81	155.593
1283.41	157.607
1285.01	157.428
1286.61	158.049
1288.21	158.7
1289.81	159.269
1291.41	158.915
1293.01	158.309
1294.61	158.285
1296.21	158.627
1297.81	159.337
1299.41	159.161
1301.01	158.882
1302.6	159.61
1304.2	159.662
1305.8	159.354
1307.4	159.826
1308.99	160.648
1310.59	161.077
1312.19	162.164
1313.78	161.299
1315.38	161.719
1316.97	160.87
1318.57	162.045
1320.16	161.158
1321.76	159.816
1323.35	160.157
1324.94	159.317
1326.54	157.833
1328.13	157.313
1329.72	155.464
1331.32	154.629
1332.91	152.753
1334.5	150.772
1336.09	147.403
1337.68	144.85
1339.27	142.292
1340.87	139.445
1342.45	136.795
1344.04	133.751
1345.64	130.169
1347.22	127.203
1348.81	123.612
1350.4	121.325
1351.99	119.235
1353.58	117.268
1355.17	114.245
1356.75	111.252
1358.34	108.217
1359.93	105.466
1361.51	102.748
1363.1	98.7156
1364.69	94.7259
1366.27	92.3649
1367.86	89.4026
1369.44	86.9876
1371.03	82.8253
1372.61	81.6593
1374.2	79.5359
1375.78	78.5986
1377.37	77.5242
1378.95	76.5115
1380.53	76.0466
1382.11	75.2137
1383.7	73.8219
1385.28	73.6106
1386.86	72.6357
1388.44	71.5053
1390.02	70.4464
1391.6	68.8831
1393.19	67.6662
1394.77	68.4515
1396.35	67.7678
1397.93	68.1872
1399.51	67.4377
1401.08	69.0144
1402.66	69.4186
1404.24	69.6853
1405.82	71.1451
1407.4	72.6975
1408.97	73.6842
1410.55	75.4926
1412.13	76.9547
1413.71	77.8594
1415.28	81.3024
1416.86	84.6568
1418.43	88.5313
1420.01	91.9491
1421.59	96.0932
1423.16	99.4172
1424.73	104.113
1426.31	110.245
1427.88	115.599
1429.46	120.957
1431.03	125.538
1432.6	130.275
1434.18	133.913
1435.75	137.689
1437.32	140.232
1438.89	143.405
1440.46	146.531
1442.04	148.994
1443.61	151.792
1445.18	154.307
1446.75	154.437
1448.32	156.227
1449.89	156.198
1451.46	157.363
1453.03	156.651
1454.6	156.105
1456.16	155.128
1457.73	153.083
1459.3	150.222
1460.87	146.812
1462.44	142.792
1464	138.092
1465.57	132.705
1467.14	127.805
1468.7	123.574
1470.27	118.4
1471.83	114.704
1473.4	109.433
1474.96	103.637
1476.53	98.0903
1478.09	93.2752
1479.66	87.6664
1481.22	80.9842
1482.78	75.6211
1484.35	70.936
1485.91	66.0437
1487.47	61.7087
1489.04	58.1232
1490.6	55.2
1492.16	51.559
1493.72	49.2804
1495.28	46.4577
1496.84	43.5078
1498.4	41.8609
1499.96	41.1668
1501.52	39.6691
1503.08	38.7758
1504.64	37.9665
1506.2	36.1256
1507.76	34.8948
1509.32	33.6317
1510.88	32.3986
1512.44	32.0435
1513.99	31.4805
1515.55	31.4914
1517.11	31.8393
1518.66	32.8716
1520.22	32.4398
1521.78	32.473
1523.33	32.4192
1524.89	32.1221
1526.44	33.3153
1528	32.2724
1529.55	33.3835
1531.11	34.0346
1532.66	35.2747
1534.21	35.5081
1535.77	35.4858
1537.32	36.6893
1538.87	37.3925
1540.43	38.4296
1541.98	39.4313
1543.53	40.8968
1545.08	42.6706
1546.63	43.9977
1548.18	45.0024
1549.74	46.7008
1551.29	46.3105
1552.84	47.2144
1554.39	48.2118
1555.94	49.6471
1557.48	50.5869
1559.03	51.8318
1560.58	53.4368
1562.13	55.4961
1563.68	57.0388
1565.23	58.8855
1566.78	60.6455
1568.32	62.2969
1569.87	64.022
1571.42	66.7095
1572.96	69.9116
1574.51	72.0015
1576.05	74.554
1577.6	76.76
1579.14	78.7632
1580.69	80.4354
1582.24	83.1218
1583.78	85.5975
1585.32	87.7283
1586.87	89.9376
1588.41	92.1217
1589.95	94.0471
1591.5	94.7012
1593.04	95.8858
1594.58	96.4715
1596.12	97.2658
1597.67	97.4093
1599.21	99.48
1600.75	100.773
1602.29	100.549
1603.83	102.11
1605.37	103.225
1606.91	105.102
1608.45	106.279
1609.99	106.401
1611.53	106.961
1613.07	107.872
1614.6	110.149
1616.14	111.135
1617.68	113.437
1619.22	115.795
1620.75	118.318
1622.29	121.519
1623.83	124.039
1625.37	127.779
1626.9	130.895
1628.44	134.427
1629.97	138.711
1631.51	143.389
1633.04	147.132
1634.58	151.958
1636.11	156.335
1637.65	161.173
1639.18	166.284
1640.72	171.367
1642.25	176.027
1643.78	181.16
1645.31	185.741
1646.85	189.717
1648.38	193.628
1649.91	195.778
1651.44	198.555
1652.97	201.52
1654.5	203.488
1656.03	205.108
1657.56	206.453
1659.1	207.604
1660.62	206.798
1662.15	205.268
1663.68	202.77
1665.21	199.811
1666.74	196.001
1668.27	193.14
1669.8	190.354
1671.32	187.221
1672.85	182.401
1674.38	177.42
1675.91	172.94
1677.43	166.237
1678.96	158.947
1680.49	154.056
1682.01	146.893
1683.54	139.551
1685.06	132.677
1686.59	125.107
1688.11	118.131
1689.64	112.067
1691.16	106.099
1692.68	100.261
1694.21	95.3386
1695.73	89.1226
1697.25	83.3628
1698.78	77.6743
1700.3	72.3629
1701.82	68.0949
1703.34	63.8465
1704.86	59.1668
1706.39	55.1381
1707.91	51.2046
1709.43	48.0492
1710.95	45.6388
1712.47	43.0414
1713.99	40.1366
1715.51	38.2329
1717.02	36.0718
1718.54	34.3326
1720.06	33.0311
1721.58	31.2272
1723.1	30.065
1724.62	29.3267
1726.13	28.2916
1727.65	28.4942
1729.17	27.8847
1730.68	27.3164
1732.2	26.9362
1733.72	25.9794
1735.23	24.9645
1736.75	23.742
1738.26	22.9881
1739.78	22.6122
1741.29	22.8
1742.81	23.0312
1744.32	23.5662
1745.84	22.9626
1747.35	22.4857
1748.86	20.2773
1750.37	19.6406
1751.89	19.454
1753.4	18.0611
1754.91	17.1008
1756.42	16.7579
1757.93	15.3195
1759.45	14.1813
1760.96	13.7521
1762.47	13.1432
1763.98	13.1438
1765.49	13.1853
1767	12.3014
1768.51	11.8203
1770.02	10.6976
1771.53	9.13008
1773.03	8.58997
1774.54	7.63318
1776.05	7.25738
1777.56	6.57037
1779.07	5.85963
1780.57	4.77304
1782.08	4.84075
1783.59	4.2539
1785.09	4.92276
1786.6	4.17745
1788.11	3.89047
1789.61	3.32877
1791.12	3.45161
1792.62	3.71279
1794.13	3.39941
1795.63	2.96169
1797.13	2.92753
1798.64	2.85156
1800.14	2.67779
1801.65	2.79017
1803.15	2.37055
1804.65	2.01676
1806.15	1.77079
1807.66	1.25692
1809.16	1.40987
1810.66	1.62225
1812.16	1.57244
1813.66	1.01236
1815.16	1.19751
1816.66	1.10274
1818.16	1.19158
1819.66	0.833507
1821.16	1.27509
1822.66	1.12174
1824.16	0.754023
1825.66	1.02552
1827.16	1.48792
1828.66	1.87507
1830.16	1.75818
1831.65	1.76145
1833.15	2.12393
1834.65	2.73159
1836.14	2.79476
1837.64	3.20583
1839.14	3.30187
1840.63	2.87497
1842.13	2.65927
1843.62	2.6586
1845.12	2.65601
1846.61	2.39299
1848.11	2.6258
1849.6	2.79524
1851.1	2.66289
1852.59	3.11881
1854.08	3.22209
1855.58	3.12664
1857.07	2.95736
1858.56	2.96342
1860.05	2.97495
1861.55	2.56993
1863.04	2.41828
1864.53	2.65503
1866.02	2.96356
1867.51	2.94697
1869	2.81874
1870.49	2.89278
1871.98	3.68984
1873.47	4.07119
1874.96	4.4079
1876.45	4.2815
1877.94	4.24018
1879.43	5.01579
1880.92	5.52962
1882.41	6.02072
1882.51	5.91621
1884	5.66884
1885.5	5.94734
1886.99	6.53973
1888.48	7.71917
1889.98	8.09302
1891.47	8.21288
1892.96	8.33018
1894.46	8.93629
1895.95	8.52341
1897.44	7.94535
1898.93	8.3417
1900.42	8.79581
1901.91	8.65925
1903.41	7.95198
1904.9	8.46177
1906.39	8.97474
1907.88	9.40048
1909.37	9.39539
1910.86	9.59082
1912.35	9.42451
1913.83	8.6131
1915.32	8.17834
1916.81	8.11355
1918.3	7.66177
1919.79	7.35299
1921.27	7.2246
1922.76	6.68305
1924.25	5.70918
1925.74	4.91813
1927.22	3.78246
1928.71	3.22319
1930.19	3.48557
1931.68	3.78808
1933.17	3.12518
1934.65	3.01438
1936.14	3.48905
1937.62	3.64747
1939.11	3.42694
1940.59	3.29855
1942.07	3.64963
1943.56	3.66438
1945.04	4.10755
1946.52	3.37618
1948.01	2.93825
1949.49	2.45968
1950.97	2.75768
1952.45	3.33557
1953.93	2.79648
1955.42	2.68815
1956.9	2.52233
1958.38	2.61533
1959.86	2.67737
1961.34	2.98313
1962.82	2.80206
1964.3	2.59979
1965.78	2.38436
1967.26	1.92422
1968.74	1.78878
1970.21	1.95412
1971.69	2.1221
1973.17	3.44286
1974.65	4.24763
1976.13	5.20387
1977.6	5.62781
1979.08	6.44313
1980.56	6.05313
1982.03	6.44301
1983.51	6.52105
1984.99	6.42211
1986.46	5.99015
1987.94	5.59244
1989.41	6.04482
1990.89	6.17076
1992.36	5.71184
1993.84	5.33304
1995.31	5.59354
1996.78	5.56474
1998.26	5.54545
1999.73	6.04869
2001.2	6.824
2002.68	7.57805
2004.15	8.40833
2005.62	8.13172
2007.09	7.66332
2008.56	8.54609
2010.04	9.01596
2011.51	8.63387
2012.98	8.79203
2014.45	9.23806
2015.92	9.65488
2017.39	9.60654
2018.86	9.50714
2020.33	9.69294
2021.8	10.2857
2023.26	10.7914
2024.73	11.1723
2026.2	11.0562
2027.67	10.4467
2029.14	10.7759
2030.61	10.7059
2032.07	10.5391
2033.54	10.8865
2035.01	12.2563
2036.47	12.9824
2037.94	13.3968
2039.4	14.3538
2040.87	15.0844
2042.33	16.5408
2043.8	17.6822
2045.27	18.3723
2046.73	18.9982
2048.19	19.2796
2049.66	19.6722
2051.12	19.2243
2052.59	19.8884
2054.05	19.9451
2055.51	20.6904
2056.97	20.5152
2058.44	20.8274
2059.9	21.27
2061.36	22.3887
2062.82	22.9245
2064.28	22.8634
2065.74	23.0716
2067.21	23.7344
2068.67	24.156
2070.13	24.1112
2071.59	24.1268
2073.05	24.3948
2074.51	24.3753
2075.96	24.6862
2077.42	24.6171
2078.88	25.4467
2080.34	26.1547
2081.8	26.8823
2083.26	27.7774
2084.72	27.8691
2086.17	29.5009
2087.63	29.6774
2089.09	30.2411
2090.54	30.5245
2092	32.2466
2093.45	33.6355
2094.91	34.9224
2096.37	35.7261
2097.82	36.6413
2099.28	38.1295
2100.73	39.9807
2102.19	41.7469
2103.64	44.4886
2105.09	45.9746
2106.55	48.5
2108	51.4869
2109.45	53.5598
2110.91	55.1233
2112.36	57.8581
2113.81	59.3263
2115.26	61.2774
2116.72	63.2203
2118.17	65.0982
2119.62	67.5817
2121.07	70.7696
2122.52	73.9314
2123.97	76.9591
2125.42	80.537
2126.87	83.2859
2128.32	86.5773
2129.77	91.0871
2131.22	95.4226
2132.67	99.4463
2134.11	103.182
2135.56	106.184
2137.01	110.335
