#Acq. time (s)=	45
#Accumulations=	2
#Range (cm-¹)=	200...3150
#Windows=	2
#Auto scanning=	Off
#Autofocus=	Off
#Macrospot=	Off
#AutoExposure=	Off
#Spike filter=	Multiple accum.
#Delay time (s)=	0
#Binning=	1
#Readout mode=	Signal
#DeNoise=	Off
#ICS correction=	On
#Dark correction=	Off
#Inst. Process=	Off
#Detector Gain=	Best Dynamic Range
#Detector ADC=	20 kHz       
#Detector temperature (°C)=	-69.85
#Instrument=	LabRAM HR Evol
#Detector=	Synapse
#Objective=	x100
#Grating=	600 gr/mm
#ND Filter=	100%
#Laser (nm)=	532 
#Hole=	100.021
#Range=	Auto
#Laser Pol.=	No
#Raman. Pol.=	No
#Laser Pol. (°)=	-0.0007625
#Raman Pol. (°)=	89.9995
#Collection=	Microscope
#StageXY=	Marzhauser
#StageZ=	Marzhauser
#X (µm)=	-6359.4
#Y (µm)=	815
#Z (µm)=	-64.7
#Full time(mm:ss)=	3:18
#Project=	
#Sample=	
#Site=	
#Title=	Mb_30_27_33_2x_45s_532 nm_x100_100%_600 gr_mm
#Remark=	
#Date=	13.07.2022 11:09
#Acquired=	13.07.2022 11:09:52
#Base:Fit=	10.08.2022 10:40:03
#Base:Sub=	10.08.2022 10:40:17
#Filter:Polynom=	16.08.2022 10:16:15
#AxisType[0]=Intens
#AxisUnit[0]=Cnt
#AxisType[1]=Spectr
#AxisUnit[1]=1/cm
200.563	2.71616
202.377	3.83405
204.194	3.79405
206.008	3.66634
207.821	3.46155
209.634	3.26334
211.449	3.15039
213.262	3.09423
215.074	3.03868
216.885	4.37394
218.699	4.66501
220.51	4.58562
222.321	5.92785
224.131	5.30732
225.941	4.07797
227.751	5.03563
229.562	5.3071
231.371	5.31616
233.18	5.1643
234.988	5.47923
236.796	5.23626
238.603	4.73753
240.411	5.06229
242.219	4.9324
244.026	4.60884
245.832	4.82756
247.638	4.13726
249.443	3.70265
251.248	4.03276
253.053	4.35699
254.857	4.42357
256.661	4.44115
258.465	5.09943
260.268	4.15034
262.071	5.1971
263.874	5.14478
265.678	5.19205
267.48	4.28372
269.282	4.92934
271.083	5.28645
272.884	4.75331
274.684	4.46567
276.484	5.17439
278.284	4.78704
280.084	4.63274
281.883	5.15283
283.682	6.98569
285.48	8.02707
287.276	8.2018
289.074	8.44577
290.871	7.9551
292.668	8.41739
294.465	9.58391
296.261	9.56303
298.057	10.2223
299.853	11.8456
301.648	11.9579
303.443	13.1663
305.237	14.3888
307.032	15.1459
308.823	15.2662
310.617	15.5344
312.41	16.1504
314.203	15.6977
315.995	15.7541
317.788	17.5128
319.579	17.9762
321.369	18.1127
323.16	18.388
324.951	18.6667
326.741	18.3098
328.531	18.3813
330.321	18.9698
332.108	18.8021
333.897	19.2141
335.686	19.5057
337.474	18.662
339.26	19.1633
341.048	18.9322
342.835	17.892
344.622	18.5903
346.406	19.0888
348.192	19.421
349.978	18.6781
351.764	19.2896
353.547	19.3834
355.332	19.0825
357.116	19.5629
358.901	19.8684
360.682	19.3733
362.466	17.8281
364.249	17.5716
366.03	17.3258
367.812	16.4106
369.594	16.3065
371.374	16.6041
373.155	16.302
374.936	15.9128
376.715	16.2297
378.495	15.9481
380.273	14.9325
382.053	14.7952
383.832	14.4727
385.609	13.0826
387.388	13.2222
389.164	13.068
390.942	12.6938
392.72	13.1711
394.495	12.4438
396.272	12.2491
398.047	12.4523
399.823	11.897
401.597	12.6165
403.372	12.4163
405.145	12.0797
406.92	12.7991
408.693	13.1986
410.467	12.6589
412.239	12.9377
414.012	12.2942
415.783	12.1281
417.556	12.1039
419.327	12.6931
421.099	11.4651
422.869	10.9833
424.64	10.0524
426.409	9.70602
428.18	9.85074
429.948	9.53701
431.718	9.51997
433.486	9.32147
435.253	8.29272
437.022	7.76218
438.789	9.19666
440.558	9.26227
442.324	9.74461
444.089	8.69804
445.857	8.84727
447.622	8.51028
449.386	7.82089
451.153	8.47795
452.917	9.56425
454.682	10.2566
456.446	11.2502
458.208	12.0351
459.973	12.5698
461.735	12.9034
463.497	14.3466
465.259	14.0965
467.022	14.4057
468.783	14.1038
470.544	14.8937
472.306	15.2832
474.066	15.2131
475.825	16.3087
477.585	17.2839
479.346	17.1187
481.104	17.5106
482.862	17.7815
484.62	18.4659
486.38	18.9348
488.137	18.8879
489.894	19.1634
491.65	18.4979
493.407	18.9438
495.164	19.3234
496.92	19.2083
498.675	18.2514
500.43	17.3152
502.184	16.7537
503.939	16.8222
505.694	16.7822
507.448	16.3341
509.201	15.1534
510.954	15.1835
512.706	14.9687
514.459	14.816
516.21	14.2313
517.962	13.8647
519.715	13.5657
521.466	14.0802
523.216	14.9483
524.966	15.8852
526.716	16.4387
528.466	15.5136
530.215	16.0321
531.964	15.6072
533.712	17.1691
535.46	17.9581
537.208	18.1299
538.955	18.7644
540.703	18.6149
542.449	18.9741
544.196	19.3227
545.942	18.6676
547.688	18.5116
549.433	18.0658
551.178	17.9106
552.923	17.5135
554.667	17.9364
556.412	17.3283
558.155	16.6519
559.899	16.6146
561.642	16.2551
563.385	15.8587
565.127	15.097
566.867	13.7465
568.609	14.1093
570.35	13.9018
572.092	13.2892
573.832	12.7019
575.573	11.932
577.313	11.5654
579.053	10.5998
580.79	9.94547
582.529	8.85639
584.268	7.49974
586.006	7.0126
587.745	6.5709
589.482	6.95203
591.218	6.53838
592.955	6.4234
594.692	5.89697
596.428	5.76859
598.164	5.70518
599.898	5.26688
601.634	5.08398
603.369	4.68284
605.104	4.51029
606.836	4.7027
608.57	5.38284
610.304	5.65282
612.037	6.77761
613.769	7.23579
615.501	7.97913
617.234	8.62283
618.966	8.8599
620.696	9.33916
622.427	8.82879
624.159	8.21723
625.887	8.30426
627.618	8.77253
629.348	8.2625
631.076	7.82284
632.806	7.55757
634.535	8.36431
636.262	8.97891
637.99	9.79336
639.716	10.3968
641.444	10.3903
643.172	10.3979
644.897	9.93191
646.624	10.7013
648.348	10.0117
650.075	9.81058
651.801	10.4564
653.524	10.8614
655.249	12.2394
656.972	12.5205
658.697	12.0841
660.419	11.8878
662.143	12.6469
663.865	12.2646
665.588	12.421
667.309	12.2184
669.032	12.3074
670.752	12.8818
672.474	14.2419
674.194	14.9945
675.915	15.7786
677.634	16.5196
679.355	16.748
681.073	17.4176
682.793	18.1559
684.511	18.7549
686.23	19.3568
687.947	19.8982
689.664	21.0868
691.382	22.0121
693.098	24.0637
694.816	25.5336
696.531	26.3453
698.247	27.474
699.963	28.1909
701.678	28.5464
703.392	28.6544
705.108	29.3894
706.821	29.32
708.534	29.624
710.249	30.7008
711.962	31.6566
713.674	32.7134
715.388	32.7226
717.099	33.6189
718.81	33.8318
720.523	34.566
722.234	34.7387
723.944	35.4284
725.654	35.6187
727.365	36.5427
729.075	35.9514
730.784	36.5962
732.492	37.5143
734.202	38.6899
735.91	39.3388
737.618	40.2509
739.325	40.7314
741.034	42.1698
742.741	42.1476
744.447	42.5837
746.153	43.8915
747.859	45.7582
749.564	47.2038
751.271	48.2216
752.976	49.2276
754.681	50.4711
756.385	52.3159
758.088	53.9091
759.792	54.7353
761.495	55.3218
763.2	55.9227
764.902	56.6608
766.604	58.1643
768.306	59.4018
770.008	60.1589
771.709	61.7901
773.41	62.9304
775.11	65.2587
776.811	66.0149
778.51	67.5629
780.21	68.2268
781.909	68.9858
783.608	69.7981
785.307	70.3809
787.005	71.2277
788.703	71.4494
790.401	72.1943
792.098	72.0509
793.795	72.9586
795.492	73.7103
797.188	72.8862
798.884	72.1581
800.58	71.1753
802.276	71.2233
803.971	70.921
805.665	71.4122
807.36	71.8426
809.054	71.6905
810.748	71.5115
812.441	71.1457
814.135	70.2542
815.826	70.4114
817.518	70.344
819.21	70.0223
820.902	69.6691
822.594	69.6487
824.285	69.804
825.976	69.6173
827.665	68.7341
829.355	68.9878
831.045	68.8314
832.735	68.5341
834.424	67.6732
836.111	66.0338
837.8	65.6285
839.488	64.7277
841.177	63.3218
842.864	62.0608
844.55	60.2128
846.237	58.6599
847.924	57.6517
849.61	56.6284
851.295	56.4517
852.98	55.7533
854.666	54.9946
856.349	54.4597
858.034	53.8303
859.719	53.4098
861.403	52.4146
863.085	51.4557
864.769	51.2816
866.452	50.0809
868.133	49.716
869.816	49.0539
871.498	48.6215
873.179	47.1566
874.86	47.3394
876.54	47.1138
878.221	47.0309
879.902	46.5001
881.58	46.2096
883.26	45.525
884.938	46.003
886.618	46.3827
888.297	46.6435
889.974	47.0005
891.653	46.8241
893.329	46.8746
895.007	47.1362
896.683	46.0919
898.36	46.3153
900.035	46.5506
901.712	47.0915
903.387	46.6307
905.063	47.1034
906.737	46.6793
908.412	46.9555
910.085	46.4555
911.76	45.6863
913.433	45.6133
915.107	44.4651
916.779	43.9371
918.452	42.9804
920.124	41.6646
921.797	40.2989
923.467	39.1848
925.138	37.4975
926.81	37.3784
928.48	36.1327
930.151	35.5912
931.82	35.8509
933.489	35.9679
935.16	36.9495
936.828	36.1191
938.496	36.2533
940.165	36.6866
941.833	36.718
943.5	36.7465
945.168	36.5193
946.834	35.6281
948.5	35.7911
950.168	34.8602
951.834	36.0138
953.499	35.8932
955.163	36.0585
956.83	35.9813
958.494	36.1205
960.158	35.1776
961.821	34.207
963.487	33.5119
965.15	33.2503
966.812	32.1058
968.474	32.4552
970.138	31.5242
971.8	30.7012
973.461	29.9747
975.123	29.6021
976.783	28.435
978.446	28.1797
980.106	27.7718
981.766	28.481
983.425	28.414
985.084	27.5969
986.743	26.7772
988.402	25.4217
990.06	24.1517
991.72	22.6794
993.378	21.5541
995.035	20.7584
996.692	19.8649
998.349	18.2365
1000.01	16.9604
1001.66	15.7345
1003.32	15.0305
1004.97	14.5297
1006.63	15.442
1008.28	15.5456
1009.94	16.1137
1011.59	17.2756
1013.25	18.8632
1014.9	20.125
1016.55	21.6465
1018.21	22.3475
1019.86	23.389
1021.51	25.0399
1023.16	26.1037
1024.81	26.4799
1026.47	28.2431
1028.12	29.0066
1029.77	29.2421
1031.42	30.941
1033.07	32.0654
1034.72	32.9561
1036.37	33.0004
1038.02	32.6238
1039.67	33.0936
1041.31	33.0186
1042.96	33.2068
1044.61	33.9332
1046.26	33.3605
1047.91	33.2547
1049.55	32.6353
1051.2	33.0834
1052.84	32.5665
1054.49	32.0076
1056.14	31.7725
1057.78	31.7676
1059.43	31.4101
1061.07	31.9272
1062.72	31.3829
1064.36	30.8873
1066	29.6168
1067.65	27.3846
1069.29	26.1513
1070.93	24.6359
1072.58	23.568
1074.22	21.6041
1075.86	21.0137
1077.5	19.1403
1079.14	17.5387
1080.78	15.999
1082.42	15.1393
1084.06	14.2414
1085.7	13.0727
1087.34	13.3397
1088.98	13.8903
1090.62	13.3822
1092.26	13.69
1093.9	14.4261
1095.54	14.2769
1097.17	14.9124
1098.81	14.9431
1100.45	14.1807
1102.09	13.6799
1103.72	12.5299
1105.36	12.1201
1106.99	11.5165
1108.63	11.3759
1110.27	10.9854
1111.9	10.956
1113.53	11.2652
1115.17	10.855
1116.8	9.96194
1118.43	9.82911
1120.07	8.67309
1121.7	8.68409
1123.33	8.27408
1124.97	7.89214
1126.6	7.5099
1128.23	6.03656
1129.86	5.31737
1131.49	4.81782
1133.12	4.82118
1134.75	4.86548
1136.38	5.00975
1138.01	6.05404
1139.64	6.3254
1141.27	6.30381
1142.9	6.2715
1144.53	5.91562
1146.16	5.47418
1147.78	5.7077
1149.41	5.11318
1151.04	5.63383
1152.67	5.19204
1154.29	5.42201
1155.92	5.66846
1157.54	6.26192
1159.17	6.0619
1160.8	6.35459
1162.42	5.61721
1164.05	6.18882
1165.67	5.934
1167.29	6.39854
1168.92	7.05615
1170.54	7.66945
1172.16	8.33352
1173.79	8.87837
1175.41	8.816
1177.03	8.73008
1178.65	8.59643
1180.28	7.85506
1181.9	7.62527
1183.52	6.92474
1185.14	7.73038
1186.76	8.20244
1188.38	7.81122
1190	7.77865
1191.62	7.7164
1193.24	7.53595
1194.86	7.23727
1196.47	6.56766
1198.09	6.35975
1199.71	6.70119
1201.33	6.73513
1202.95	7.25515
1204.56	7.17485
1206.18	6.07538
1207.8	5.95464
1209.41	5.15726
1211.03	6.09778
1212.64	7.89347
1214.26	9.37871
1215.87	10.1417
1217.49	10.6479
1219.1	12.1565
1220.71	12.3552
1222.33	13.4508
1223.94	15.1461
1225.55	16.4776
1227.16	18.2578
1228.78	19.967
1230.39	21.113
1232	22.6342
1233.61	24.0748
1235.22	26.2139
1236.83	27.0868
1238.44	27.633
1240.05	28.9815
1241.66	29.844
1243.27	30.3807
1244.88	31.1735
1246.49	32.2083
1248.1	32.968
1249.71	33.1586
1251.32	34.5884
1252.92	34.7302
1254.53	35.4521
1256.14	34.9241
1257.74	35.7666
1259.35	35.9983
1260.96	37.2058
1262.56	36.8982
1264.17	36.8026
1265.77	37.1245
1267.38	36.6658
1268.98	35.8641
1270.59	36.2761
1272.19	36.617
1273.79	37.0069
1275.4	37.423
1277	37.4602
1278.6	37.8666
1280.21	38.0301
1281.81	37.5524
1283.41	37.5372
1285.01	37.3377
1286.61	37.2354
1288.21	38.9961
1289.81	39.3895
1291.41	40.516
1293.01	40.622
1294.61	39.8416
1296.21	39.9655
1297.81	40.6885
1299.41	41.7787
1301.01	41.2607
1302.6	42.6812
1304.2	42.7859
1305.8	42.2003
1307.4	42.1431
1308.99	42.8854
1310.59	43.554
1312.19	43.4179
1313.78	43.9403
1315.38	43.8574
1316.97	43.4542
1318.57	43.6575
1320.16	43.9975
1321.76	43.3631
1323.35	43.2946
1324.94	43.0111
1326.54	42.9566
1328.13	41.9317
1329.72	42.1708
1331.32	42.7973
1332.91	42.75
1334.5	42.6809
1336.09	41.8547
1337.68	42.4218
1339.27	41.8073
1340.87	41.7505
1342.45	41.0017
1344.04	41.3269
1345.64	40.7185
1347.22	40.5162
1348.81	40.1397
1350.4	40.637
1351.99	39.8561
1353.58	38.9634
1355.17	38.5247
1356.75	38.4295
1358.34	38.2203
1359.93	38.5536
1361.51	37.5895
1363.1	37.3251
1364.69	37.1177
1366.27	36.6766
1367.86	36.0614
1369.44	34.7729
1371.03	34.2801
1372.61	33.323
1374.2	32.6014
1375.78	32.5543
1377.37	32.0947
1378.95	31.6307
1380.53	30.8241
1382.11	30.1891
1383.7	28.649
1385.28	28.5046
1386.86	28.4843
1388.44	28.5237
1390.02	27.9115
1391.6	27.5737
1393.19	27.3767
1394.77	26.3657
1396.35	27.0811
1397.93	26.3725
1399.51	25.9394
1401.08	25.4396
1402.66	25.4447
1404.24	24.773
1405.82	24.8172
1407.4	24.6373
1408.97	25.4626
1410.55	25.4278
1412.13	25.7099
1413.71	25.6575
1415.28	26.6557
1416.86	26.2642
1418.43	28.159
1420.01	29.862
1421.59	31.0479
1423.16	31.4246
1424.73	31.6061
1426.31	32.8478
1427.88	33.8203
1429.46	34.9247
1431.03	36.5423
1432.6	37.9021
1434.18	39.7075
1435.75	41.5106
1437.32	42.1124
1438.89	42.4979
1440.46	42.5623
1442.04	43.7301
1443.61	44.3136
1445.18	45.0693
1446.75	44.8263
1448.32	45.5553
1449.89	45.4907
1451.46	45.3274
1453.03	45.1847
1454.6	44.4571
1456.16	44.1777
1457.73	43.5506
1459.3	42.3115
1460.87	41.4674
1462.44	40.8826
1464	39.9522
1465.57	38.2967
1467.14	36.7973
1468.7	35.7578
1470.27	34.9881
1471.83	33.682
1473.4	33.2156
1474.96	32.9902
1476.53	31.28
1478.09	31.1871
1479.66	29.8335
1481.22	28.7163
1482.78	27.669
1484.35	26.739
1485.91	25.6945
1487.47	25.5055
1489.04	24.8916
1490.6	24.3206
1492.16	23.2445
1493.72	22.7904
1495.28	22.0779
1496.84	22.9308
1498.4	21.5433
1499.96	20.6314
1501.52	19.9174
1503.08	20.2118
1504.64	20.0596
1506.2	19.804
1507.76	20.0376
1509.32	19.8574
1510.88	19.0077
1512.44	18.306
1513.99	17.5729
1515.55	16.2532
1517.11	15.8423
1518.66	16.1236
1520.22	15.9767
1521.78	15.8113
1523.33	15.6763
1524.89	14.3446
1526.44	13.9903
1528	13.7946
1529.55	13.4417
1531.11	12.822
1532.66	12.8682
1534.21	12.5863
1535.77	12.5504
1537.32	12.463
1538.87	13.5961
1540.43	14.6024
1541.98	14.7472
1543.53	15.1472
1545.08	16.057
1546.63	17.6806
1548.18	18.4459
1549.74	18.6826
1551.29	20.0292
1552.84	20.4816
1554.39	21.1765
1555.94	22.0961
1557.48	21.928
1559.03	22.309
1560.58	22.3638
1562.13	22.0465
1563.68	22.6198
1565.23	22.9441
1566.78	23.6146
1568.32	23.5373
1569.87	24.1681
1571.42	24.6947
1572.96	24.7851
1574.51	24.8274
1576.05	25.3052
1577.6	25.8748
1579.14	26.3259
1580.69	26.7165
1582.24	27.2477
1583.78	27.7204
1585.32	28.1325
1586.87	28.5032
1588.41	29.175
1589.95	29.5913
1591.5	29.8757
1593.04	30.0092
1594.58	31.2599
1596.12	32.1072
1597.67	31.8643
1599.21	32.2372
1600.75	32.3141
1602.29	32.824
1603.83	32.3889
1605.37	32.2984
1606.91	32.3699
1608.45	32.4105
1609.99	32.3201
1611.53	32.164
1613.07	32.4809
1614.6	33.0832
1616.14	33.3252
1617.68	32.6948
1619.22	32.0603
1620.75	31.8777
1622.29	32.5059
1623.83	32.1119
1625.37	31.4556
1626.9	32.5755
1628.44	33.5255
1629.97	33.8047
1631.51	34.2987
1633.04	34.1593
1634.58	33.9866
1636.11	34.325
1637.65	34.2485
1639.18	34.7716
1640.72	35.4306
1642.25	35.8524
1643.78	36.7456
1645.31	37.1415
1646.85	37.7246
1648.38	37.4819
1649.91	37.4798
1651.44	37.9951
1652.97	38.6439
1654.5	39.2007
1656.03	39.6874
1657.56	40.0885
1659.1	41.1079
1660.62	40.6832
1662.15	41.1821
1663.68	41.3303
1665.21	40.5921
1666.74	40.2745
1668.27	39.2511
1669.8	39.5131
1671.32	39.0741
1672.85	37.6433
1674.38	35.965
1675.91	35.2701
1677.43	33.9732
1678.96	32.4849
1680.49	30.4841
1682.01	29.7262
1683.54	28.5405
1685.06	26.9889
1686.59	25.2426
1688.11	24.9304
1689.64	24.2958
1691.16	23.4706
1692.68	21.8035
1694.21	20.886
1695.73	21.0267
1697.25	20.184
1698.78	19.1231
1700.3	17.7673
1701.82	17.2959
1703.34	17.7946
1704.86	16.651
1706.39	16.149
1707.91	15.4119
1709.43	14.7024
1710.95	14.3155
1712.47	13.4669
1713.99	12.6143
1715.51	12.2663
1717.02	11.6273
1718.54	11.9889
1720.06	11.6769
1721.58	11.3316
1723.1	10.3604
1724.62	9.84926
1726.13	9.88716
1727.65	10.3699
1729.17	10.7364
1730.68	10.8973
1732.2	10.8704
1733.72	11.2983
1735.23	11.0656
1736.75	10.427
1738.26	10.3845
1739.78	9.53201
1741.29	9.23965
1742.81	9.18246
1744.32	8.78497
1745.84	8.43109
1747.35	6.82578
1748.86	6.56608
1750.37	6.25591
1751.89	6.07344
1753.4	5.78507
1754.91	5.63411
1756.42	5.53277
1757.93	4.89083
1759.45	4.55187
1760.96	4.39281
1762.47	3.89992
1763.98	4.18592
1765.49	3.53223
1767	2.85581
1768.51	2.70244
1770.02	2.72764
1771.53	2.82393
1773.03	1.94295
1774.54	1.41315
1776.05	1.10184
1777.56	0.864367
1779.07	1.03738
1780.57	0.338291
1782.08	0.177263
1783.59	0.0445898
1785.09	0.0606926
1786.6	-0.0881298
1788.11	-0.205923
1789.61	-0.0520007
1791.12	-0.0299207
1792.62	0.0531793
1794.13	0.418288
1795.63	0.124302
1797.13	0.249331
1798.64	0.675154
1800.14	1.76642
1801.65	2.93626
1803.15	3.72958
1804.65	4.22385
1806.15	4.38101
1807.66	4.76116
1809.16	4.79128
1810.66	4.53075
1812.16	5.03893
1813.66	5.03616
1815.16	5.52226
1816.66	5.45983
1818.16	5.68533
1819.66	5.73035
1821.16	6.13039
1822.66	6.37665
1824.16	6.48279
1825.66	6.35723
1827.16	5.89118
1828.66	6.09515
1830.16	6.01532
1831.65	5.94581
1833.15	5.89563
1834.65	5.29781
1836.14	4.85028
1837.64	4.61392
1839.14	4.90192
1840.63	4.6712
1842.13	4.78246
1843.62	4.31321
1845.12	3.72936
1846.61	3.23458
1848.11	2.94827
1849.6	2.77419
1851.1	3.10644
1852.59	3.01805
1854.08	3.02382
1855.58	2.88061
1857.07	2.65076
1858.56	2.64131
1860.05	2.78102
1861.55	2.88389
1863.04	2.55426
1864.53	2.35835
1866.02	1.95114
1867.51	1.8278
1869	1.66569
1870.49	1.68001
1871.98	1.99332
1873.47	2.54673
1874.96	2.88239
1876.45	3.13597
1877.94	3.09943
1879.43	2.51282
1880.92	2.48357
1882.41	2.86746
1882.51	2.23118
1884	2.56863
1885.5	2.79711
1886.99	2.0115
1888.48	2.21558
1889.98	1.98135
1891.47	2.80412
1892.96	3.19001
1894.46	3.90248
1895.95	3.51615
1897.44	3.65322
1898.93	3.98419
1900.42	4.1094
1901.91	5.17123
1903.41	5.64203
1904.9	5.76221
1906.39	5.31584
1907.88	4.78838
1909.37	5.55882
1910.86	5.92686
1912.35	6.46827
1913.83	6.3579
1915.32	7.12324
1916.81	7.40979
1918.3	7.97765
1919.79	8.26438
1921.27	9.03283
1922.76	9.08533
1924.25	9.56212
1925.74	8.62568
1927.22	8.98644
1928.71	8.7543
1930.19	9.00901
1931.68	8.56439
1933.17	8.73301
1934.65	8.54793
1936.14	7.96458
1937.62	7.88862
1939.11	7.29965
1940.59	7.29981
1942.07	7.30262
1943.56	7.35095
1945.04	7.63782
1946.52	7.01395
1948.01	6.53205
1949.49	6.53848
1950.97	6.0148
1952.45	5.74998
1953.93	5.77929
1955.42	5.13011
1956.9	4.8716
1958.38	5.26574
1959.86	4.93552
1961.34	4.58278
1962.82	5.28477
1964.3	5.52585
1965.78	5.67778
1967.26	5.95642
1968.74	6.18456
1970.21	6.10084
1971.69	6.33052
1973.17	5.96808
1974.65	5.82992
1976.13	5.69598
1977.6	5.57428
1979.08	4.89705
1980.56	4.71284
1982.03	4.86973
1983.51	4.76689
1984.99	4.81601
1986.46	4.60818
1987.94	4.75238
1989.41	5.03174
1990.89	4.60625
1992.36	4.92211
1993.84	4.66393
1995.31	5.03704
1996.78	4.34207
1998.26	4.95067
1999.73	5.1504
2001.2	5.97249
2002.68	6.24292
2004.15	6.38043
2005.62	6.12703
2007.09	6.93592
2008.56	6.67833
2010.04	6.85305
2011.51	6.8062
2012.98	6.75992
2014.45	6.84927
2015.92	6.99351
2017.39	6.67184
2018.86	6.63056
2020.33	6.56039
2021.8	6.80597
2023.26	7.13621
2024.73	7.30724
2026.2	7.55161
2027.67	7.89544
2029.14	7.96576
2030.61	7.95425
2032.07	8.30695
2033.54	8.75989
2035.01	8.82498
2036.47	8.85828
2037.94	8.91537
2039.4	9.06039
2040.87	9.34232
2042.33	9.2873
2043.8	8.89023
2045.27	9.04998
2046.73	8.72202
2048.19	8.42156
2049.66	8.16133
2051.12	7.85919
2052.59	7.17482
2054.05	6.93305
2055.51	6.99643
2056.97	7.4731
2058.44	7.4336
2059.9	7.55967
2061.36	8.29844
2062.82	8.31166
2064.28	9.00526
2065.74	9.23786
2067.21	9.09562
2068.67	9.59117
2070.13	9.90487
2071.59	11.1925
2073.05	10.9953
2074.51	11.0923
2075.96	11.2336
2077.42	11.3367
2078.88	11.4964
2080.34	12.1013
2081.8	12.1024
2083.26	12.8486
2084.72	13.113
2086.17	13.8514
2087.63	14.1999
2089.09	14.4709
2090.54	14.8538
2092	15.2008
2093.45	15.626
2094.91	15.9247
2096.37	16.5095
2097.82	16.97
2099.28	17.1927
2100.73	17.7933
2102.19	17.7251
2103.64	18.803
2105.09	19.1772
2106.55	19.087
2108	18.392
2109.45	19.0688
2110.91	19.4383
2112.36	19.8995
2113.81	19.6682
2115.26	19.8928
2116.72	19.7866
2118.17	20.201
2119.62	19.8663
2121.07	19.9482
2122.52	20.78
2123.97	21.0835
2125.42	21.7783
2126.87	23.0293
2128.32	24.2825
2129.77	25.0748
2131.22	24.9377
2132.67	26.086
2134.11	27.0465
2135.56	27.179
