#Acq. time (s)=	45
#Accumulations=	2
#Range (cm-¹)=	200...3150
#Windows=	2
#Auto scanning=	Off
#Autofocus=	Off
#Macrospot=	Off
#AutoExposure=	Off
#Spike filter=	Multiple accum.
#Delay time (s)=	0
#Binning=	1
#Readout mode=	Signal
#DeNoise=	Off
#ICS correction=	On
#Dark correction=	Off
#Inst. Process=	Off
#Detector Gain=	Best Dynamic Range
#Detector ADC=	20 kHz       
#Detector temperature (°C)=	-69.85
#Instrument=	LabRAM HR Evol
#Detector=	Synapse
#Objective=	x100
#Grating=	600 gr/mm
#ND Filter=	100%
#Laser (nm)=	532 
#Hole=	100.021
#Range=	Auto
#Laser Pol.=	No
#Raman. Pol.=	No
#Laser Pol. (°)=	-0.0007625
#Raman Pol. (°)=	89.9995
#Collection=	Microscope
#StageXY=	Marzhauser
#StageZ=	Marzhauser
#X (µm)=	28066.1
#Y (µm)=	-536.8
#Z (µm)=	1083.55
#Full time(mm:ss)=	3:20
#Project=	
#Sample=	
#Site=	
#Title=	Mb_30_27_07_2x_45s_532 nm_x100_100%_600 gr_mm
#Remark=	
#Date=	12.07.2022 15:56
#Acquired=	12.07.2022 15:56:33
#Base:Fit=	10.08.2022 10:39:47
#Base:Sub=	10.08.2022 10:39:55
#Base:Fit=	10.08.2022 10:40:03
#Base:Sub=	10.08.2022 10:40:17
#Filter:Polynom=	16.08.2022 10:16:15
#AxisType[0]=Intens
#AxisUnit[0]=Cnt
#AxisType[1]=Spectr
#AxisUnit[1]=1/cm
200.388	18.695
202.204	18.6799
204.019	17.8217
205.832	17.496
207.646	17.0093
209.459	16.5102
211.274	15.4111
213.087	13.7604
214.899	12.6801
216.711	11.5488
218.524	11.9161
220.335	12.0847
222.146	11.2562
223.956	9.36943
225.766	9.55806
227.576	9.72003
229.388	8.39554
231.197	8.01168
233.005	8.27801
234.813	6.65253
236.621	5.54182
238.429	6.38817
240.236	5.55614
242.045	5.06595
243.852	4.92949
245.658	5.06781
247.464	3.94772
249.269	2.72574
251.074	2.88749
252.879	2.94553
254.683	2.20385
256.487	3.15968
258.291	2.48385
260.094	2.77088
261.897	2.49098
263.702	4.41316
265.504	5.40887
267.306	5.14337
269.108	5.12589
270.909	5.20246
272.71	5.17824
274.511	5.2395
276.311	5.51566
278.111	5.56837
279.91	4.93112
281.709	5.72994
283.508	6.00705
285.306	6.41383
287.105	6.05522
288.9	7.73619
290.698	7.59837
292.495	9.41866
294.291	10.0265
296.088	9.76376
297.884	10.4522
299.679	10.7962
301.475	10.6503
303.27	11.8133
305.064	13.0041
306.858	14.1538
308.652	15.0842
310.444	14.6304
312.237	13.5621
314.03	14.2223
315.822	16.0789
317.615	15.0615
319.406	14.8537
321.198	15.52
322.987	15.6565
324.778	14.9511
326.568	15.8572
328.358	16.6579
330.148	15.7248
331.935	16.6977
333.724	16.6642
335.513	16.6229
337.301	16.5115
339.089	17.5157
340.875	18.6419
342.662	18.7758
344.449	19.1755
346.236	19.0354
348.02	18.0975
349.806	17.6636
351.592	17.3457
353.375	17.2343
355.16	15.8565
356.944	14.6375
358.728	14.058
360.51	14.0332
362.294	14.5399
364.077	14.0901
365.858	15.9616
367.64	16.0564
369.422	17.3545
371.202	18.1723
372.983	18.2269
374.764	19.6769
376.543	20.3761
378.324	21.7171
380.102	21.4229
381.881	22.2649
383.661	22.202
385.438	23.2975
387.216	25.0499
388.993	25.4827
390.771	25.455
392.548	25.7556
394.324	25.673
396.101	24.9519
397.875	23.9004
399.651	22.8675
401.425	23.0414
403.201	24.1502
404.974	24.128
406.749	23.0057
408.524	23.4544
410.296	22.7116
412.07	21.6273
413.841	20.3003
415.614	19.6321
417.385	18.1742
419.156	17.4293
420.928	17.3911
422.698	16.3758
424.469	15.8553
426.238	15.1734
428.009	13.8837
429.777	12.9322
431.548	11.4359
433.315	9.19909
435.083	6.89152
436.852	6.50863
438.618	5.63004
440.387	5.12528
442.153	4.82991
443.919	5.50363
445.686	6.17248
447.451	6.29536
449.218	6.81627
450.982	7.02359
452.746	6.7574
454.512	7.75907
456.275	8.24332
458.038	9.27363
459.803	10.3328
461.565	12.3718
463.327	13.1548
465.091	14.2303
466.852	15.232
468.613	17.1138
470.374	19.5788
472.136	21.4907
473.896	23.9395
475.655	25.3024
477.415	25.9803
479.176	27.5069
480.934	28.259
482.692	29.7518
484.45	31.0577
486.21	33.0336
487.967	35.3816
489.724	37.5947
491.481	38.0272
493.237	38.2084
494.995	38.6348
496.75	38.9416
498.506	39.133
500.26	40.0525
502.015	40.3619
503.771	41.1271
505.525	41.019
507.279	41.9804
509.032	42.394
510.785	41.9003
512.537	41.3323
514.289	40.7175
516.041	40.2255
517.793	39.6893
519.546	37.8158
521.297	37.6829
523.047	37.8852
524.797	37.9451
526.547	36.821
528.297	35.551
530.046	33.7629
531.795	31.6877
533.543	30.9075
535.291	29.7036
537.039	28.9359
538.787	28.4127
540.534	26.8085
542.281	27.0503
544.027	25.2763
545.773	23.1329
547.519	21.8778
549.264	20.5114
551.01	19.8549
552.754	20.7489
554.499	19.0547
556.243	18.3088
557.987	16.4307
559.73	15.7131
561.474	14.9283
563.216	13.5665
564.959	12.2502
566.701	11.1225
568.441	10.3769
570.182	11.0601
571.923	10.2099
573.664	8.97442
575.405	7.85772
577.145	6.97441
578.885	5.6404
580.624	5.40469
582.361	6.04144
584.1	5.89637
585.839	5.62225
587.577	5.79073
589.315	4.53203
591.052	4.65928
592.787	4.22662
594.524	4.0851
596.26	4.57792
597.997	4.47416
599.732	3.9236
601.466	3.92027
603.201	3.54414
604.936	3.67343
606.67	4.27829
608.403	5.2905
610.136	5.5608
611.87	5.34099
613.603	4.83767
615.334	5.10485
617.067	5.49425
618.799	7.22791
620.529	9.14784
622.26	9.00817
623.991	9.70998
625.72	11.0666
627.451	11.2556
629.181	11.8221
630.909	11.7177
632.638	12.2783
634.368	12.6823
636.095	12.7144
637.823	13.4928
639.551	13.0116
641.277	10.4854
643.005	11.4586
644.73	10.495
646.457	11.7149
648.184	12.5634
649.908	11.9238
651.634	11.7628
653.357	11.5394
655.083	12.092
656.806	12.1115
658.53	10.2513
660.253	10.3704
661.977	9.88212
663.7	10.2013
665.422	9.70397
667.145	10.1259
668.865	11.0421
670.588	9.78283
672.308	8.6645
674.027	9.37254
675.749	8.45251
677.468	9.96583
679.188	10.2898
680.907	10.1366
682.627	10.2982
684.345	10.4618
686.064	10.608
687.781	11.006
689.498	11.7513
691.216	13.4502
692.932	14.9166
694.65	15.4215
696.366	16.3003
698.081	16.7436
699.797	16.9158
701.512	18.4597
703.228	20.1209
704.942	20.9262
706.655	21.7851
708.371	23.0752
710.083	25.4714
711.796	27.2869
713.51	27.4674
715.222	28.5064
716.934	29.7687
718.645	30.18
720.358	31.7033
722.068	31.8797
723.779	34.159
725.49	34.0557
727.2	34.5698
728.909	36.6166
730.618	36.0019
732.329	37.8049
734.037	37.2498
735.745	36.5901
737.453	36.8549
739.16	36.7913
740.869	36.5198
742.576	36.1744
744.282	36.6823
745.988	37.7112
747.694	38.6137
749.401	40.0121
751.107	41.7552
752.811	42.6865
754.516	42.8449
756.22	43.6817
757.924	45.131
759.627	47.0155
761.332	49.187
763.035	51.8596
764.738	52.7491
766.44	53.8168
768.142	54.7337
769.843	56.8118
771.544	57.4874
773.245	59.475
774.946	60.8914
776.646	62.0423
778.346	63.5673
780.046	64.6837
781.745	65.7063
783.444	67.052
785.143	67.7101
786.841	69.915
788.539	71.6246
790.237	73.3628
791.934	75.6601
793.631	77.351
795.328	77.7652
797.024	78.9489
798.72	80.0501
800.416	80.8513
802.112	81.443
803.807	80.9135
805.502	82.1036
807.196	80.8994
808.89	81.6692
810.584	80.4775
812.278	80.2519
813.971	79.4072
815.664	78.2302
817.354	78.2689
819.047	77.0331
820.739	75.4876
822.43	74.9826
824.122	74.2998
825.813	73.1149
827.503	73.6966
829.192	73.8929
830.882	72.3789
832.571	72.0701
834.261	71.004
835.95	70.7197
837.637	69.3341
839.325	69.5207
841.013	69.6534
842.701	68.7947
844.389	69.4219
846.074	69.5149
847.761	67.1345
849.447	65.2448
851.131	63.4822
852.817	62.6211
854.503	63.0233
856.188	62.3828
857.871	61.5515
859.556	60.7008
861.24	61.1428
862.922	61.5151
864.606	60.6048
866.289	59.9961
867.97	59.3483
869.653	58.8909
871.336	59.3365
873.016	59.4837
874.698	59.6681
876.379	58.84
878.058	58.7989
879.739	58.8368
881.418	59.2913
883.098	58.1683
884.778	57.5529
886.456	57.5114
888.135	57.5685
889.812	58.096
891.49	56.8261
893.167	56.8786
894.845	56.2266
896.523	55.5203
898.198	55.5247
899.875	54.7568
901.55	54.0797
903.226	53.3562
904.901	53.5049
906.576	54.7408
908.25	53.866
909.925	53.0494
911.598	53.5379
913.271	52.2721
914.945	52.4205
916.617	52.2486
918.291	51.9073
919.962	51.9734
921.635	51.4239
923.306	51.4349
924.978	49.693
926.648	48.8279
928.318	47.2897
929.989	44.8611
931.659	43.2156
933.328	43.0604
934.998	44.6521
936.666	45.005
938.336	44.2684
940.004	42.958
941.671	41.8743
943.34	40.8937
945.007	39.0291
946.673	37.431
948.339	37.5288
950.007	37.7547
951.672	37.7141
953.337	39.4038
955.004	39.2146
956.669	38.6235
958.333	37.4447
959.997	37.499
961.662	37.8989
963.326	38.3103
964.989	39.6391
966.651	39.4469
968.315	41.5089
969.977	43.4352
971.639	45.2487
973.301	44.9402
974.962	46.3595
976.624	46.859
978.285	47.9411
979.945	49.2325
981.605	49.8442
983.264	50.7853
984.924	51.6869
986.583	53.2765
988.243	54.8729
989.901	55.7401
991.56	55.7785
993.217	56.0186
994.875	55.3286
996.532	53.8806
998.188	53.0531
999.845	51.9163
1001.5	51.674
1003.16	51.9235
1004.81	51.9718
1006.47	53.2608
1008.12	54.5799
1009.78	57.6697
1011.43	60.8302
1013.09	64.0179
1014.74	68.5339
1016.39	71.8394
1018.05	74.8788
1019.7	77.2697
1021.35	79.1866
1023	81.2177
1024.65	83.006
1026.31	84.823
1027.96	86.5936
1029.61	89.5706
1031.26	92.3822
1032.91	91.9789
1034.56	91.8297
1036.21	92.4027
1037.86	92.0013
1039.51	92.4422
1041.16	92.8576
1042.8	93.6185
1044.45	93.1912
1046.1	92.645
1047.75	92.0364
1049.39	89.5008
1051.04	89.3948
1052.69	87.3733
1054.33	84.6904
1055.98	80.9905
1057.62	78.6222
1059.27	75.3074
1060.91	72.2127
1062.56	69.0489
1064.2	65.6641
1065.85	62.0508
1067.49	58.3622
1069.13	55.179
1070.77	51.2795
1072.42	46.7303
1074.06	41.3383
1075.7	37.1371
1077.34	33.7559
1078.98	30.9967
1080.62	29.2556
1082.27	28.5185
1083.91	27.2411
1085.55	27.2375
1087.18	27.0734
1088.82	28.6935
1090.46	30.0136
1092.1	30.8881
1093.74	31.0434
1095.38	30.8051
1097.02	31.7236
1098.65	31.4751
1100.29	32.1101
1101.93	32.6383
1103.56	32.2566
1105.2	32.4429
1106.84	32.7599
1108.47	33.4168
1110.11	33.6221
1111.74	34.6079
1113.38	33.6351
1115.01	32.5974
1116.64	32.2843
1118.28	32.1029
1119.91	31.7147
1121.54	29.8086
1123.18	28.4727
1124.81	26.9553
1126.44	25.3981
1128.07	24.4257
1129.7	24.2997
1131.33	23.3939
1132.97	22.2747
1134.6	21.033
1136.23	20.3163
1137.86	20.1502
1139.49	19.667
1141.11	19.674
1142.74	18.2877
1144.37	18.2639
1146	17.2211
1147.63	15.0757
1149.26	14.9636
1150.88	14.465
1152.51	14.0561
1154.14	13.1431
1155.76	11.9664
1157.39	12.0841
1159.01	11.5347
1160.64	10.1594
1162.27	8.8642
1163.89	7.832
1165.51	6.40651
1167.14	7.02628
1168.76	6.92566
1170.39	7.39497
1172.01	7.81982
1173.63	7.77314
1175.25	7.78905
1176.88	7.72618
1178.5	9.00934
1180.12	9.68371
1181.74	10.4378
1183.36	11.3826
1184.98	11.8947
1186.6	12.7468
1188.22	14.4838
1189.84	15.5638
1191.46	16.6455
1193.08	17.0531
1194.7	17.5208
1196.32	19.7658
1197.94	20.6793
1199.55	22.2053
1201.17	24.5882
1202.79	26.7971
1204.41	28.8563
1206.02	30.5518
1207.64	33.1169
1209.25	35.8513
1210.87	39.5134
1212.48	42.3236
1214.1	45.118
1215.71	48.926
1217.33	51.9724
1218.94	54.9156
1220.56	57.6597
1222.17	60.5812
1223.79	62.3888
1225.4	66.2129
1227.01	68.2358
1228.62	70.5335
1230.23	73.809
1231.85	76.4181
1233.46	78.7925
1235.07	80.9085
1236.68	83.1032
1238.29	85.1629
1239.9	86.597
1241.51	88.0508
1243.12	89.7788
1244.73	92.0281
1246.34	93.6026
1247.94	95.5914
1249.55	96.8556
1251.16	99.011
1252.77	99.9285
1254.37	99.6009
1255.98	100.633
1257.59	100.93
1259.2	102.809
1260.8	103.127
1262.41	103.797
1264.01	103.935
1265.62	105.057
1267.22	106.228
1268.83	106.665
1270.43	107.953
1272.03	108.903
1273.64	109.898
1275.24	111.731
1276.85	112.791
1278.45	112.603
1280.05	113.527
1281.65	114.421
1283.25	115.274
1284.85	115.776
1286.46	116.897
1288.06	118.601
1289.66	119.54
1291.26	120.515
1292.86	120.993
1294.46	121.664
1296.06	122.166
1297.66	121.932
1299.25	122.327
1300.85	122.62
1302.45	122.244
1304.05	122.651
1305.65	124.543
1307.24	124.346
1308.84	124.805
1310.43	124.53
1312.03	125.672
1313.63	125.928
1315.22	126.329
1316.82	126.264
1318.41	125.255
1320.01	124.375
1321.6	124.487
1323.2	124.385
1324.79	123.398
1326.38	121.593
1327.98	120.242
1329.57	118.645
1331.16	116.347
1332.76	113.96
1334.35	111.186
1335.94	109.934
1337.53	107.621
1339.12	105.995
1340.71	102.619
1342.3	100.099
1343.89	97.3321
1345.48	95.4935
1347.07	92.0923
1348.66	90.0168
1350.25	87.9377
1351.84	85.3354
1353.43	83.5302
1355.01	81.1533
1356.6	78.4855
1358.19	76.3836
1359.77	73.9441
1361.36	71.2881
1362.95	69.4312
1364.53	67.2858
1366.12	64.3584
1367.71	62.3983
1369.29	59.7939
1370.88	57.6182
1372.46	56.0824
1374.04	54.6225
1375.63	53.0343
1377.21	50.9673
1378.8	49.1612
1380.38	49.0302
1381.96	48.4515
1383.54	47.9501
1385.13	48.333
1386.71	47.0712
1388.29	46.7346
1389.87	46.5157
1391.45	46.4931
1393.03	46.0868
1394.61	45.5839
1396.19	45.5464
1397.77	44.65
1399.35	44.1804
1400.93	44.1921
1402.51	44.1448
1404.09	44.2127
1405.67	44.9468
1407.24	46.4587
1408.82	47.8915
1410.4	49.4011
1411.98	51.6433
1413.55	54.0268
1415.13	57.3071
1416.71	59.8438
1418.28	62.65
1419.86	65.6156
1421.43	69.9471
1423.01	73.0741
1424.58	76.9992
1426.16	80.4515
1427.73	84.9018
1429.31	89.9448
1430.88	95.7885
1432.45	99.9167
1434.02	104.096
1435.6	108.567
1437.17	111.705
1438.74	113.838
1440.31	117.23
1441.88	120.411
1443.45	123.21
1445.03	124.97
1446.6	127.125
1448.17	128.1
1449.74	129.384
1451.3	129.097
1452.87	129.706
1454.44	129.415
1456.01	127.731
1457.58	125.989
1459.15	125.102
1460.72	121.515
1462.28	118.59
1463.85	116.109
1465.42	112.949
1466.98	109.475
1468.55	105.333
1470.12	101.233
1471.68	98.3511
1473.25	94.7304
1474.81	90.5216
1476.38	85.2972
1477.94	81.3411
1479.51	77.3265
1481.07	73.4552
1482.63	69.6373
1484.2	65.2929
1485.76	61.3665
1487.32	57.6223
1488.88	54.3198
1490.45	51.4514
1492.01	47.6136
1493.57	44.7969
1495.13	41.9632
1496.69	39.9217
1498.25	38.5527
1499.81	37.1326
1501.37	35.1943
1502.93	34.6212
1504.49	33.6473
1506.05	33.6552
1507.61	33.707
1509.17	32.6278
1510.73	31.8133
1512.28	31.0612
1513.84	30.7146
1515.4	28.935
1516.96	28.5929
1518.51	28.9387
1520.07	28.7754
1521.63	28.335
1523.18	26.9072
1524.74	26.6151
1526.29	27.1365
1527.85	27.719
1529.4	27.4521
1530.96	28.2776
1532.51	27.8146
1534.06	27.6176
1535.62	28.3261
1537.17	29.1413
1538.72	29.6215
1540.28	30.5239
1541.83	31.9948
1543.38	32.9103
1544.93	33.4986
1546.48	34.6354
1548.03	36.0489
1549.59	36.7092
1551.14	37.1698
1552.69	36.6476
1554.24	37.388
1555.79	37.5201
1557.34	38.2663
1558.88	38.8319
1560.43	39.2652
1561.98	39.5336
1563.53	40.2309
1565.08	41.7889
1566.62	43.0212
1568.17	44.1475
1569.72	45.6876
1571.27	48.3875
1572.81	50.5005
1574.36	53.1473
1575.9	54.6967
1577.45	56.2884
1579	58.3525
1580.54	60.7656
1582.09	63.9586
1583.63	66.2625
1585.17	67.3478
1586.72	69.7898
1588.26	72.0007
1589.8	73.5458
1591.35	74.8513
1592.89	75.8236
1594.43	77.117
1595.97	77.9395
1597.52	78.7571
1599.06	79.2865
1600.6	80.9694
1602.14	82.8634
1603.68	84.5886
1605.22	85.4146
1606.76	85.9313
1608.3	86.4566
1609.84	86.8551
1611.38	86.648
1612.92	88.0637
1614.46	88.7704
1615.99	88.7551
1617.53	89.4799
1619.07	91.0975
1620.61	92.0692
1622.14	93.3383
1623.68	95.0614
1625.22	96.5154
1626.75	98.7194
1628.29	100.584
1629.82	102.188
1631.36	104.498
1632.9	107.037
1634.43	110.168
1635.96	112.694
1637.5	115.694
1639.03	119.847
1640.57	123.603
1642.1	126.814
1643.63	129.669
1645.16	132.693
1646.7	136.216
1648.23	140.052
1649.76	143.534
1651.29	145.703
1652.82	147.514
1654.36	149.996
1655.89	150.827
1657.42	152.671
1658.95	153.422
1660.48	152.595
1662.01	152.408
1663.53	151.838
1665.06	150.208
1666.59	148.484
1668.12	145.221
1669.65	142.753
1671.18	139.597
1672.7	136.573
1674.23	133.277
1675.76	129.47
1677.29	125.257
1678.81	119.885
1680.34	114.552
1681.86	109.068
1683.39	103.511
1684.91	99.0017
1686.44	94.4368
1687.96	89.7349
1689.49	85.7926
1691.01	80.0271
1692.54	75.2982
1694.06	71.1041
1695.58	66.8139
1697.11	62.7629
1698.63	58.6234
1700.15	55.0875
1701.67	51.1235
1703.2	48.2474
1704.72	44.2387
1706.24	41.739
1707.76	38.8981
1709.28	36.827
1710.8	34.6413
1712.32	33.0907
1713.84	30.6259
1715.36	29.3548
1716.88	26.9603
1718.4	25.3939
1719.91	24.5646
1721.43	23.8669
1722.95	23.3306
1724.47	22.2788
1725.99	21.0291
1727.5	19.3296
1729.02	18.0389
1730.54	17.2005
1732.05	16.29
1733.57	16.4607
1735.09	15.3107
1736.6	14.9045
1738.12	14.3866
1739.63	13.5934
1741.15	12.999
1742.66	11.865
1744.18	10.7584
1745.69	10.1875
1747.2	9.7518
1748.72	8.53215
1750.23	8.23337
1751.74	7.51661
1753.25	7.09347
1754.77	6.5762
1756.28	6.54089
1757.79	6.98243
1759.3	7.13333
1760.81	6.97885
1762.32	6.40011
1763.83	5.71955
1765.34	5.20732
1766.85	5.06662
1768.36	4.78915
1769.87	4.17765
1771.38	4.2802
1772.89	3.84225
1774.4	2.97524
1775.91	2.83627
1777.41	2.34893
1778.92	1.98834
1780.43	1.50615
1781.94	1.75293
1783.44	1.71141
1784.95	1.9726
1786.45	2.137
1787.96	2.01647
1789.47	1.23826
1790.97	1.74249
1792.48	1.50656
1793.98	1.6349
1795.48	1.71706
1796.99	1.7487
1798.49	1.50075
1800	1.2857
1801.5	1.15938
1803	1.02335
1804.51	1.20738
1806.01	1.33927
1807.51	1.44188
1809.01	1.15704
1810.51	0.726893
1812.02	1.02546
1813.52	0.870709
1815.02	0.752454
1816.52	0.546105
1818.02	0.401918
1819.52	0.341916
1821.02	-0.0855908
1822.52	0.0648427
1824.02	-0.00835653
1825.51	1.04144
1827.01	1.33956
1828.51	1.17145
1830.01	0.934891
1831.51	0.761295
1833	0.911578
1834.5	0.558787
1836	0.64915
1837.5	0.655041
1838.99	0.337569
1840.49	0.356027
1841.98	0.60507
1843.48	0.540516
1844.97	0.634773
1846.47	0.628701
1847.96	0.406882
1849.46	0.100515
1850.95	0.168247
1852.45	0.523045
1853.94	0.761223
1855.43	1.59044
1856.92	1.85909
1858.42	2.36666
1859.91	2.28562
1861.4	2.3512
1862.89	2.53351
1864.39	3.12577
1865.88	4.1295
1867.37	4.97832
1868.86	5.55923
1870.35	5.92371
1871.84	6.52769
1873.33	6.99463
1874.82	7.02433
1876.31	7.68513
1877.8	7.82433
1879.29	7.74901
1880.77	7.89095
1882.26	7.67734
1882.51	6.82492
1884	7.15778
1885.5	7.05627
1886.99	7.45344
1888.48	6.94962
1889.98	6.24333
1891.47	5.62979
1892.97	5.60758
1894.46	5.16894
1895.95	5.46521
1897.44	6.01521
1898.93	5.88612
1900.42	5.22902
1901.92	3.76372
1903.41	3.31225
1904.9	3.35241
1906.39	3.44125
1907.88	2.47918
1909.37	2.41751
1910.86	1.72397
1912.35	1.76442
1913.84	1.69907
1915.32	1.59889
1916.81	1.55536
1918.3	1.7368
1919.79	1.9602
1921.28	1.86488
1922.76	1.97128
1924.25	3.01204
1925.74	3.51641
1927.22	3.71709
1928.71	4.87572
1930.2	5.41383
1931.68	5.7655
1933.17	5.99657
1934.65	6.95724
1936.14	7.69706
1937.62	8.89044
1939.11	8.66241
1940.59	8.84834
1942.08	8.91026
1943.56	8.7858
1945.04	8.5572
1946.53	8.05113
1948.01	7.54874
1949.49	7.46797
1950.97	6.95601
1952.45	6.52887
1953.94	6.47512
1955.42	6.19975
1956.9	5.65086
1958.38	6.22251
1959.86	6.0736
1961.34	6.3
1962.82	5.5306
1964.3	5.4763
1965.78	5.81279
1967.26	6.0682
1968.74	6.39252
1970.22	6.58614
1971.69	6.69787
1973.17	5.20841
1974.65	5.45706
1976.13	6.09425
1977.61	6.93411
1979.08	7.19163
1980.56	6.79843
1982.03	6.72307
1983.51	7.09012
1984.99	6.98154
1986.46	6.92169
1987.94	6.83119
1989.41	6.94622
1990.89	6.69794
1992.36	6.2852
1993.84	6.35714
1995.31	6.47433
1996.78	6.75024
1998.26	7.01923
1999.73	6.83145
2001.2	7.60281
2002.68	8.2196
2004.15	8.34933
2005.62	8.25485
2007.09	8.70425
2008.56	8.54838
2010.04	8.23357
2011.51	8.57433
2012.98	8.77452
2014.45	8.847
2015.92	9.04475
2017.39	9.15215
2018.86	9.16789
2020.33	9.14487
2021.8	8.8833
2023.27	9.36732
2024.74	9.80897
2026.2	9.991
2027.67	10.2982
2029.14	10.1879
2030.61	10.2404
2032.07	11.2975
2033.54	11.6654
2035.01	12.0369
2036.47	12.3758
2037.94	12.9786
2039.41	13.5574
2040.87	13.988
2042.34	14.6518
2043.8	14.929
2045.27	15.7533
2046.73	15.5504
2048.2	16.9128
2049.66	17.0889
2051.12	16.7153
2052.59	16.8547
2054.05	16.9203
2055.51	17.1004
2056.98	17.3532
2058.44	17.1888
2059.9	17.216
2061.36	17.2147
2062.82	17.1941
2064.29	17.3757
2065.75	18.5631
2067.21	19.4434
2068.67	20.26
2070.13	20.7361
2071.59	21.6528
2073.05	22.7029
2074.51	23.7688
2075.97	24.6083
2077.43	25.1073
2078.88	25.7737
2080.34	27.0194
2081.8	27.6787
2083.26	28.5958
2084.72	29.9138
2086.17	30.2275
2087.63	30.136
2089.09	30.8846
2090.54	31.8677
2092	32.0116
2093.46	32.5073
2094.91	34.1821
2096.37	35.713
2097.82	36.5064
2099.28	37.7239
2100.73	38.8921
2102.19	40.8253
2103.64	42.6326
2105.09	44.512
2106.55	45.7029
2108	47.53
2109.46	49.4407
2110.91	51.2278
2112.36	53.7362
2113.81	56.0416
2115.27	58.1466
2116.72	60.0907
2118.17	62.4134
2119.62	64.3809
2121.07	67.4446
2122.52	70.7729
2123.97	73.6495
2125.42	76.2994
2126.87	78.4973
2128.32	81.0492
2129.77	84.1491
