#Acq. time (s)=	45
#Accumulations=	2
#Range (cm-¹)=	200...3150
#Windows=	2
#Auto scanning=	Off
#Autofocus=	Off
#Macrospot=	Off
#AutoExposure=	Off
#Spike filter=	Multiple accum.
#Delay time (s)=	0
#Binning=	1
#Readout mode=	Signal
#DeNoise=	Off
#ICS correction=	On
#Dark correction=	Off
#Inst. Process=	Off
#Detector Gain=	Best Dynamic Range
#Detector ADC=	20 kHz       
#Detector temperature (°C)=	-69.85
#Instrument=	LabRAM HR Evol
#Detector=	Synapse
#Objective=	x100
#Grating=	600 gr/mm
#ND Filter=	100%
#Laser (nm)=	532 
#Hole=	100.021
#Range=	Auto
#Laser Pol.=	No
#Raman. Pol.=	No
#Laser Pol. (°)=	-0.0007625
#Raman Pol. (°)=	89.9995
#Collection=	Microscope
#StageXY=	Marzhauser
#StageZ=	Marzhauser
#X (µm)=	-6378.2
#Y (µm)=	830.1
#Z (µm)=	-64.65
#Full time(mm:ss)=	3:18
#Project=	
#Sample=	
#Site=	
#Title=	Mb_30_27_30_2x_45s_532 nm_x100_100%_600 gr_mm
#Remark=	
#Date=	13.07.2022 10:57
#Acquired=	13.07.2022 10:57:36
#Base:Fit=	10.08.2022 10:40:03
#Base:Sub=	10.08.2022 10:40:17
#Filter:Polynom=	16.08.2022 10:16:15
#AxisType[0]=Intens
#AxisUnit[0]=Cnt
#AxisType[1]=Spectr
#AxisUnit[1]=1/cm
200.563	28.9671
202.377	26.7255
204.194	23.512
206.008	20.7125
207.821	18.7922
209.634	17.4839
211.449	16.6369
213.262	15.2993
215.074	14.1746
216.885	12.6909
218.699	11.2102
220.51	9.87593
222.321	10.1798
224.131	9.47235
225.941	9.21181
227.751	7.81944
229.562	8.66395
231.371	9.00444
233.18	9.10153
234.988	8.85827
236.796	8.67562
238.603	8.55448
240.411	9.23728
242.219	9.0841
244.026	8.77864
245.832	9.22197
247.638	9.13464
249.443	9.58967
251.248	10.3189
253.053	10.445
254.857	12.0578
256.661	12.6929
258.465	13.0917
260.268	14.7737
262.071	13.7638
263.874	14.0012
265.678	13.4665
267.48	14.3629
269.282	14.3879
271.083	14.3308
272.884	12.6768
274.684	11.8333
276.484	10.8613
278.284	11.5602
280.084	12.3397
281.883	12.2772
283.682	12.4732
285.48	13.0353
287.276	14.5857
289.074	13.9638
290.871	14.4105
292.668	14.2996
294.465	15.2261
296.261	16.1382
298.057	15.6132
299.853	14.1112
301.648	13.6316
303.443	12.8248
305.237	12.3571
307.032	12.1057
308.823	13.4868
310.617	14.4286
312.41	15.6395
314.203	15.2635
315.995	15.8123
317.788	15.0449
319.579	15.7904
321.369	15.9307
323.16	16.2436
324.951	16.1456
326.741	16.4018
328.531	16.1118
330.321	17.1122
332.108	16.9432
333.897	17.0388
335.686	17.661
337.474	16.7407
339.26	16.569
341.048	16.1139
342.835	15.3663
344.622	15.39
346.406	13.878
348.192	12.1632
349.978	11.1604
351.764	10.4483
353.547	9.53909
355.332	9.25321
357.116	9.29144
358.901	8.45317
360.682	7.80651
362.466	7.19973
364.249	8.10105
366.03	9.26682
367.812	9.68003
369.594	10.0902
371.374	9.78883
373.155	9.92147
374.936	10.1043
376.715	9.44429
378.495	9.47383
380.273	10.2242
382.053	10.3762
383.832	11.1274
385.609	11.3196
387.388	10.3061
389.164	10.3952
390.942	12.0275
392.72	13.4651
394.495	14.925
396.272	16.1962
398.047	17.5902
399.823	18.2788
401.597	19.3349
403.372	20.1448
405.145	20.0194
406.92	21.028
408.693	21.5777
410.467	22.3558
412.239	21.4755
414.012	21.0747
415.783	21.8837
417.556	22.5278
419.327	24.4743
421.099	23.754
422.869	22.9086
424.64	22.0177
426.409	20.141
428.18	19.5274
429.948	18.9501
431.718	18.242
433.486	17.4965
435.253	16.4177
437.022	16.3561
438.789	15.7217
440.558	15.334
442.324	13.9635
444.089	14.5426
445.857	13.5089
447.622	13.7416
449.386	14.6027
451.153	14.625
452.917	14.1245
454.682	13.309
456.446	11.6048
458.208	11.2985
459.973	10.7785
461.735	10.1627
463.497	10.8718
465.259	12.0104
467.022	13.2114
468.783	13.2481
470.544	12.0997
472.306	12.0483
474.066	11.7277
475.825	12.4828
477.585	13.3684
479.346	14.8318
481.104	14.5888
482.862	14.9433
484.62	15.1728
486.38	15.8404
488.137	16.7171
489.894	17.2842
491.65	16.8294
493.407	16.5738
495.164	17.4558
496.92	16.385
498.675	17.0844
500.43	17.6757
502.184	18.4469
503.939	18.6873
505.694	18.8971
507.448	18.5422
509.201	17.6013
510.954	16.5808
512.706	16.0715
514.459	15.4827
516.21	15.9065
517.962	15.9345
519.715	15.4993
521.466	15.3999
523.216	14.7898
524.966	14.9567
526.716	13.6421
528.466	13.9766
530.215	14.8864
531.964	15.1621
533.712	14.8598
535.46	14.5046
537.208	13.2721
538.955	12.6028
540.703	11.9453
542.449	11.6272
544.196	11.5252
545.942	11.4158
547.688	10.776
549.433	10.8473
551.178	11.3508
552.923	11.1299
554.667	9.9724
556.412	9.40625
558.155	8.28953
559.899	9.23901
561.642	8.68248
563.385	8.76619
565.127	7.61268
566.867	7.35753
568.609	6.88355
570.35	7.09749
572.092	5.81396
573.832	5.57218
575.573	4.72846
577.313	4.30521
579.053	2.96296
580.79	3.30927
582.529	3.17691
584.268	2.68713
586.006	3.05365
587.745	3.17217
589.482	2.12286
591.218	2.61071
592.955	3.11884
594.692	3.17515
596.428	3.87574
598.164	3.33314
599.898	3.89997
601.634	3.50113
603.369	3.42217
605.104	4.20628
606.836	3.69745
608.57	4.40645
610.304	4.06532
612.037	5.05108
613.769	5.62104
615.501	7.30425
617.234	7.06795
618.966	6.20842
620.696	5.9278
622.427	5.88842
624.159	6.46184
625.887	6.54448
627.618	7.03923
629.348	7.90141
631.076	8.90571
632.806	8.81759
634.535	9.7669
636.262	11.3884
637.99	11.505
639.716	11.7703
641.444	11.6573
643.172	12.4491
644.897	12.3609
646.624	12.6047
648.348	12.7367
650.075	13.2862
651.801	13.4964
653.524	14.2509
655.249	14.9678
656.972	14.5839
658.697	14.7901
660.419	16.3622
662.143	16.1674
663.865	17.9622
665.588	18.6021
667.309	19.0886
669.032	19.6244
670.752	19.9012
672.474	20.3754
674.194	19.9748
675.915	20.1742
677.634	20.7417
679.355	20.9397
681.073	21.7608
682.793	21.3558
684.511	21.4715
686.23	20.9038
687.947	20.7737
689.664	21.8963
691.382	23.2294
693.098	24.0897
694.816	25.6639
696.531	26.5398
698.247	27.7775
699.963	28.0958
701.678	27.4934
703.392	26.126
705.108	27.4081
706.821	26.9008
708.534	27.4644
710.249	27.7891
711.962	29.5837
713.674	30.5935
715.388	30.6238
717.099	30.7188
718.81	30.417
720.523	31.4434
722.234	32.4055
723.944	33.4047
725.654	33.5264
727.365	34.3497
729.075	35.0336
730.784	35.0397
732.492	36.1897
734.202	38.1666
735.91	38.063
737.618	39.187
739.325	40.0489
741.034	41.3874
742.741	41.7241
744.447	43.6264
746.153	44.905
747.859	46.4118
749.564	47.4703
751.271	47.8058
752.976	48.1272
754.681	49.2761
756.385	50.4596
758.088	51.3467
759.792	52.4709
761.495	54.3421
763.2	56.0959
764.902	57.7915
766.604	58.1694
768.306	59.4661
770.008	61.6164
771.709	62.9307
773.41	64.5461
775.11	66.454
776.811	67.8911
778.51	68.9033
780.21	69.7667
781.909	70.0416
783.608	70.771
785.307	72.0238
787.005	73.1147
788.703	74.965
790.401	76.3208
792.098	77.5483
793.795	79.6525
795.492	80.0426
797.188	80.3582
798.884	79.6913
800.58	79.6663
802.276	80.1695
803.971	80.3014
805.665	81.1537
807.36	82.0186
809.054	81.4585
810.748	79.8076
812.441	79.832
814.135	79.4331
815.826	79.6258
817.518	80.4283
819.21	79.7257
820.902	78.3886
822.594	79.5001
824.285	78.5139
825.976	78.7546
827.665	77.8769
829.355	78.351
831.045	76.9487
832.735	74.5807
834.424	72.7352
836.111	71.7384
837.8	70.5572
839.488	70.1553
841.177	69.4766
842.864	67.9005
844.55	67.2959
846.237	65.9005
847.924	64.201
849.61	61.8993
851.295	60.0178
852.98	59.7688
854.666	58.1079
856.349	56.7
858.034	54.8114
859.719	55.0794
861.403	54.8927
863.085	53.8384
864.769	53.7647
866.452	53.2958
868.133	53.8215
869.816	53.0199
871.498	51.5137
873.179	50.9305
874.86	49.8265
876.54	50.0103
878.221	48.054
879.902	46.1234
881.58	46.122
883.26	46.4612
884.938	45.9148
886.618	45.7947
888.297	46.2841
889.974	47.0527
891.653	46.3046
893.329	45.3553
895.007	45.4167
896.683	46.8605
898.36	47.2945
900.035	47.7579
901.712	47.2754
903.387	46.4311
905.063	46.7659
906.737	47.388
908.412	47.4024
910.085	48.2871
911.76	48.4429
913.433	48.2683
915.107	47.485
916.779	47.2434
918.452	48.888
920.124	48.8799
921.797	48.7615
923.467	48.319
925.138	47.1427
926.81	46.4439
928.48	45.8021
930.151	44.8107
931.82	43.4402
933.489	42.6934
935.16	41.5709
936.828	41.581
938.496	41.5912
940.165	42.1343
941.833	42.1326
943.5	42.3873
945.168	40.8596
946.834	39.5811
948.5	39.3837
950.168	38.4953
951.834	38.1332
953.499	37.2282
955.163	36.8091
956.83	36.6212
958.494	35.0117
960.158	34.564
961.821	32.8686
963.487	32.1632
965.15	32.3661
966.812	31.9328
968.474	32.7203
970.138	32.6394
971.8	32.446
973.461	31.7004
975.123	31.3031
976.783	32.1992
978.446	32.5349
980.106	32.7611
981.766	32.5751
983.425	31.8233
985.084	31.191
986.743	32.2896
988.402	31.3033
990.06	31.4329
991.72	30.2595
993.378	28.8625
995.035	28.635
996.692	27.405
998.349	26.6088
1000.01	25.9377
1001.66	25.1359
1003.32	24.5514
1004.97	24.3947
1006.63	24.92
1008.28	26.2168
1009.94	26.6835
1011.59	27.8952
1013.25	29.4035
1014.9	30.5929
1016.55	32.5343
1018.21	34.4091
1019.86	36.6166
1021.51	38.8151
1023.16	38.9443
1024.81	39.3191
1026.47	39.7184
1028.12	39.8548
1029.77	41.4495
1031.42	42.1217
1033.07	42.5299
1034.72	42.8319
1036.37	43.0053
1038.02	42.4131
1039.67	42.2452
1041.31	41.9496
1042.96	41.8946
1044.61	41.2431
1046.26	41.5607
1047.91	41.7818
1049.55	41.8106
1051.2	42.279
1052.84	40.9679
1054.49	40.7183
1056.14	40.2399
1057.78	39.0088
1059.43	37.6133
1061.07	35.4366
1062.72	33.9311
1064.36	31.8144
1066	30.0349
1067.65	28.5645
1069.29	26.4817
1070.93	22.9408
1072.58	22.2304
1074.22	20.2975
1075.86	19.2907
1077.5	18.1527
1079.14	16.7522
1080.78	15.4287
1082.42	14.838
1084.06	13.7019
1085.7	14.605
1087.34	16.1793
1088.98	17.0987
1090.62	17.4826
1092.26	17.1185
1093.9	18.2929
1095.54	18.9199
1097.17	18.6306
1098.81	18.7618
1100.45	18.706
1102.09	18.1844
1103.72	19.5789
1105.36	18.2116
1106.99	19.1166
1108.63	19.1273
1110.27	19.2006
1111.9	20.2648
1113.53	19.319
1115.17	19.7799
1116.8	18.9984
1118.43	19.8824
1120.07	19.2605
1121.7	19.3024
1123.33	18.8385
1124.97	18.8653
1126.6	19.0663
1128.23	19.4466
1129.86	19.027
1131.49	18.9386
1133.12	18.3524
1134.75	18.0991
1136.38	16.5091
1138.01	15.5106
1139.64	14.1685
1141.27	14.1734
1142.9	13.7975
1144.53	13.3351
1146.16	12.0335
1147.78	11.5026
1149.41	10.6221
1151.04	9.39709
1152.67	8.77585
1154.29	8.27909
1155.92	6.69488
1157.54	5.89553
1159.17	5.255
1160.8	4.51077
1162.42	3.38784
1164.05	3.39915
1165.67	2.74884
1167.29	3.91938
1168.92	3.758
1170.54	2.05055
1172.16	2.17866
1173.79	2.96443
1175.41	2.02007
1177.03	2.64435
1178.65	2.41522
1180.28	2.82346
1181.9	3.03532
1183.52	3.64491
1185.14	4.90403
1186.76	4.59384
1188.38	5.06291
1190	6.22385
1191.62	6.83725
1193.24	7.49606
1194.86	8.52874
1196.47	9.88806
1198.09	9.74286
1199.71	10.7404
1201.33	11.8908
1202.95	12.718
1204.56	14.1374
1206.18	15.9697
1207.8	16.7364
1209.41	17.1266
1211.03	17.8841
1212.64	19.4665
1214.26	21.0729
1215.87	22.5406
1217.49	23.2948
1219.1	25.0085
1220.71	25.674
1222.33	27.0267
1223.94	29.0297
1225.55	30.1397
1227.16	32.2099
1228.78	34.3132
1230.39	36.2832
1232	37.3935
1233.61	39.0682
1235.22	40.4397
1236.83	42.3859
1238.44	44.5925
1240.05	45.9756
1241.66	47.8988
1243.27	48.9114
1244.88	50.6523
1246.49	51.1153
1248.1	52.7942
1249.71	53.4401
1251.32	54.4589
1252.92	56.3706
1254.53	57.4032
1256.14	56.5594
1257.74	58.7981
1259.35	58.3566
1260.96	59.7979
1262.56	60.9949
1264.17	61.9694
1265.77	63.3282
1267.38	63.9139
1268.98	64.4978
1270.59	65.6898
1272.19	66.1828
1273.79	66.8806
1275.4	68.0077
1277	67.3719
1278.6	67.7941
1280.21	69.5433
1281.81	70.5977
1283.41	70.9091
1285.01	72.0333
1286.61	72.8953
1288.21	73.5691
1289.81	74.3671
1291.41	75.1816
1293.01	75.7559
1294.61	75.4153
1296.21	75.8784
1297.81	75.4547
1299.41	74.9868
1301.01	74.979
1302.6	76.1129
1304.2	76.9184
1305.8	76.7004
1307.4	77.4692
1308.99	77.6319
1310.59	78.3841
1312.19	79.0069
1313.78	79.3875
1315.38	79.5227
1316.97	79.3008
1318.57	78.89
1320.16	78.5521
1321.76	77.6477
1323.35	76.8406
1324.94	77.1112
1326.54	75.7907
1328.13	75.5354
1329.72	74.6441
1331.32	74.6117
1332.91	73.6931
1334.5	73.0042
1336.09	72.7392
1337.68	72.9384
1339.27	71.8601
1340.87	71.4185
1342.45	70.1488
1344.04	69.0178
1345.64	67.9566
1347.22	67.0723
1348.81	66.4631
1350.4	65.8093
1351.99	64.7438
1353.58	64.099
1355.17	62.9092
1356.75	61.3252
1358.34	61.0024
1359.93	61.4015
1361.51	58.9935
1363.1	58.6283
1364.69	57.767
1366.27	55.7523
1367.86	54.5702
1369.44	52.6503
1371.03	51.1363
1372.61	50.4093
1374.2	48.58
1375.78	48.6045
1377.37	47.1568
1378.95	47.4449
1380.53	47.1255
1382.11	46.2331
1383.7	46.1237
1385.28	45.9998
1386.86	46.117
1388.44	46.0365
1390.02	45.6717
1391.6	44.6015
1393.19	43.7816
1394.77	43.0613
1396.35	43.6756
1397.93	44.7737
1399.51	45.3502
1401.08	45.3196
1402.66	46.6521
1404.24	47.5392
1405.82	47.8141
1407.4	49.2123
1408.97	50.1135
1410.55	52.1107
1412.13	52.976
1413.71	54.9884
1415.28	56.6317
1416.86	57.9093
1418.43	59.8471
1420.01	61.8213
1421.59	65.0769
1423.16	67.0051
1424.73	69.252
1426.31	72.605
1427.88	75.0933
1429.46	78.1254
1431.03	79.7904
1432.6	82.1484
1434.18	83.5639
1435.75	85.8944
1437.32	87.8944
1438.89	89.5566
1440.46	89.855
1442.04	92.2933
1443.61	93.4558
1445.18	94.225
1446.75	96.5717
1448.32	96.9209
1449.89	96.8131
1451.46	96.3856
1453.03	95.9943
1454.6	96.6029
1456.16	96.7522
1457.73	95.9454
1459.3	94.7846
1460.87	92.9993
1462.44	92.7355
1464	90.1405
1465.57	88.7339
1467.14	86.301
1468.7	83.5315
1470.27	81.8097
1471.83	80.2259
1473.4	78.0514
1474.96	76.3307
1476.53	73.3579
1478.09	70.5776
1479.66	68.2019
1481.22	65.5742
1482.78	63.2357
1484.35	60.7398
1485.91	58.2321
1487.47	55.8372
1489.04	54.3726
1490.6	52.1399
1492.16	50.1682
1493.72	48.6938
1495.28	46.5525
1496.84	44.6488
1498.4	42.9464
1499.96	41.6792
1501.52	39.694
1503.08	38.3887
1504.64	36.998
1506.2	35.4829
1507.76	34.2183
1509.32	32.3319
1510.88	30.8802
1512.44	28.9018
1513.99	27.856
1515.55	26.1836
1517.11	26.2343
1518.66	25.2481
1520.22	24.2206
1521.78	22.8053
1523.33	21.7309
1524.89	21.311
1526.44	19.8004
1528	18.7394
1529.55	18.9098
1531.11	18.8391
1532.66	19.349
1534.21	19.7812
1535.77	19.2553
1537.32	18.6119
1538.87	18.5157
1540.43	19.9191
1541.98	20.0023
1543.53	20.909
1545.08	21.0339
1546.63	22.4647
1548.18	24.0301
1549.74	24.2894
1551.29	24.8053
1552.84	26.0147
1554.39	27.7702
1555.94	28.2994
1557.48	29.1597
1559.03	29.3426
1560.58	30.419
1562.13	32.1664
1563.68	32.8789
1565.23	34.1416
1566.78	36.6789
1568.32	37.5494
1569.87	39.263
1571.42	41.4009
1572.96	41.7338
1574.51	44.0634
1576.05	45.7026
1577.6	47.1762
1579.14	48.5999
1580.69	49.4486
1582.24	51.2253
1583.78	53.0003
1585.32	53.6298
1586.87	55.3792
1588.41	56.2089
1589.95	57.3292
1591.5	58.9796
1593.04	59.4369
1594.58	60.7893
1596.12	60.6558
1597.67	60.609
1599.21	60.7084
1600.75	60.2779
1602.29	61.6537
1603.83	60.7322
1605.37	60.7723
1606.91	61.8422
1608.45	60.9696
1609.99	61.2311
1611.53	60.7267
1613.07	60.8249
1614.6	60.1587
1616.14	60.963
1617.68	61.2859
1619.22	60.0062
1620.75	59.9807
1622.29	60.5817
1623.83	60.4583
1625.37	60.3085
1626.9	60.8503
1628.44	61.6805
1629.97	61.7863
1631.51	62.6567
1633.04	62.6191
1634.58	64.123
1636.11	64.5811
1637.65	65.4183
1639.18	67.5016
1640.72	67.3577
1642.25	68.8893
1643.78	70.3582
1645.31	70.8791
1646.85	73.1156
1648.38	74.0944
1649.91	74.2814
1651.44	75.9031
1652.97	76.5204
1654.5	77.6145
1656.03	78.6607
1657.56	79.3087
1659.1	80.1149
1660.62	80.3861
1662.15	80.9298
1663.68	81.489
1665.21	80.3807
1666.74	79.0813
1668.27	78.4364
1669.8	76.7227
1671.32	75.1907
1672.85	73.0071
1674.38	70.285
1675.91	68.1686
1677.43	66.537
1678.96	65.901
1680.49	62.0055
1682.01	60.0465
1683.54	57.4725
1685.06	54.8408
1686.59	52.5398
1688.11	50.3244
1689.64	48.1088
1691.16	46.0026
1692.68	44.2599
1694.21	41.4803
1695.73	38.9397
1697.25	37.6554
1698.78	36.3795
1700.3	34.1818
1701.82	33.1916
1703.34	31.7935
1704.86	29.8409
1706.39	28.1199
1707.91	27.2803
1709.43	25.631
1710.95	24.3286
1712.47	22.8201
1713.99	21.9378
1715.51	20.8599
1717.02	19.8131
1718.54	19.434
1720.06	18.8859
1721.58	18.7227
1723.1	18.101
1724.62	17.0295
1726.13	16.4903
1727.65	16.6594
1729.17	16.5435
1730.68	16.8876
1732.2	16.4524
1733.72	15.8488
1735.23	14.8872
1736.75	14.0605
1738.26	13.5827
1739.78	12.6844
1741.29	11.9506
1742.81	11.07
1744.32	10.3792
1745.84	8.83513
1747.35	8.10694
1748.86	7.27228
1750.37	6.74641
1751.89	7.04881
1753.4	6.83926
1754.91	6.51787
1756.42	5.54724
1757.93	5.67323
1759.45	5.29577
1760.96	5.13101
1762.47	4.07026
1763.98	3.89903
1765.49	3.81456
1767	4.29564
1768.51	3.13036
1770.02	2.20866
1771.53	2.45304
1773.03	2.59451
1774.54	2.30539
1776.05	1.71307
1777.56	1.14986
1779.07	0.998273
1780.57	0.849412
1782.08	0.485096
1783.59	0.561126
1785.09	0.293195
1786.6	0.711556
1788.11	1.20465
1789.61	0.995553
1791.12	0.592812
1792.62	1.23293
1794.13	0.746143
1795.63	0.918212
1797.13	0.879247
1798.64	1.32444
1800.14	1.86364
1801.65	2.10303
1803.15	1.89987
1804.65	1.76213
1806.15	1.60808
1807.66	0.734881
1809.16	0.853156
1810.66	0.875898
1812.16	1.23808
1813.66	1.83351
1815.16	1.86668
1816.66	2.05562
1818.16	1.6241
1819.66	2.06996
1821.16	1.73572
1822.66	1.60452
1824.16	2.23629
1825.66	2.20911
1827.16	2.86848
1828.66	2.74251
1830.16	2.91179
1831.65	2.97496
1833.15	2.87704
1834.65	3.4615
1836.14	3.12513
1837.64	3.1927
1839.14	3.21797
1840.63	3.29066
1842.13	2.92742
1843.62	1.82236
1845.12	1.90532
1846.61	2.32303
1848.11	2.07368
1849.6	2.03965
1851.1	2.26744
1852.59	2.1999
1854.08	2.64178
1855.58	2.626
1857.07	2.34065
1858.56	2.41949
1860.05	2.4945
1861.55	3.02343
1863.04	2.93778
1864.53	2.66793
1866.02	2.72714
1867.51	3.05489
1869	2.42913
1870.49	2.35899
1871.98	1.52395
1873.47	1.03126
1874.96	0.659462
1876.45	0.387084
1877.94	-0.27721
1879.43	-0.322674
1880.92	0.213095
1882.41	0.291564
1882.51	0.493091
1884	0.299812
1885.5	0.33407
1886.99	0.21293
1888.48	0.0131719
1889.98	0.152771
1891.47	0.42365
1892.96	0.438274
1894.46	-0.0944751
1895.95	-0.0577544
1897.44	0.462634
1898.93	0.203891
1900.42	0.81048
1901.91	0.26876
1903.41	0.453297
1904.9	0.789384
1906.39	0.407775
1907.88	0.45457
1909.37	0.137616
1910.86	1.05919
1912.35	0.989631
1913.83	1.28614
1915.32	2.04585
1916.81	1.89612
1918.3	2.33668
1919.79	3.74288
1921.27	4.23915
1922.76	4.81261
1924.25	4.71761
1925.74	4.88398
1927.22	4.89267
1928.71	5.13968
1930.19	6.09635
1931.68	7.19674
1933.17	7.79495
1934.65	8.91458
1936.14	9.2073
1937.62	9.76602
1939.11	9.88416
1940.59	10.1902
1942.07	10.1166
1943.56	10.3412
1945.04	10.2808
1946.52	11.0418
1948.01	12.1544
1949.49	12.547
1950.97	12.5863
1952.45	13.6928
1953.93	13.4054
1955.42	12.5587
1956.9	12.4492
1958.38	12.4444
1959.86	12.4804
1961.34	12.0537
1962.82	12.552
1964.3	12.7217
1965.78	11.9462
1967.26	11.2009
1968.74	11.5313
1970.21	11.1992
1971.69	11.6979
1973.17	11.405
1974.65	11.9417
1976.13	11.9064
1977.6	12.1723
1979.08	12.3588
1980.56	11.7717
1982.03	11.9054
1983.51	11.9699
1984.99	11.6459
1986.46	11.9112
1987.94	11.8524
1989.41	11.7414
1990.89	11.6098
1992.36	12.1306
1993.84	12.4167
1995.31	11.6019
1996.78	11.439
1998.26	11.3687
1999.73	12.0817
2001.2	11.9772
2002.68	12.308
2004.15	13.2376
2005.62	13.0192
2007.09	12.8905
2008.56	13.6906
2010.04	13.4681
2011.51	13.966
2012.98	13.5322
2014.45	13.2643
2015.92	12.7059
2017.39	12.8697
2018.86	12.7393
2020.33	12.7515
2021.8	13.015
2023.26	13.0527
2024.73	13.4236
2026.2	13.7404
2027.67	13.6558
2029.14	14.5954
2030.61	15.2038
2032.07	15.0096
2033.54	15.4788
2035.01	15.2017
2036.47	15.8785
2037.94	15.38
2039.4	14.9641
2040.87	15.7238
2042.33	16.3225
2043.8	16.4439
2045.27	17.1586
2046.73	16.8043
2048.19	16.7733
2049.66	16.713
2051.12	16.635
2052.59	16.446
2054.05	16.3881
2055.51	16.7803
2056.97	16.9597
2058.44	17.2124
2059.9	17.8668
2061.36	17.7229
2062.82	18.8521
2064.28	19.1827
2065.74	19.4213
2067.21	19.4306
2068.67	20.0268
2070.13	20.1686
2071.59	19.9478
2073.05	20.7516
2074.51	20.4451
2075.96	21.4523
2077.42	22.2714
2078.88	22.9168
2080.34	22.6189
2081.8	22.7595
2083.26	23.314
2084.72	23.0893
2086.17	22.9129
2087.63	24.1108
2089.09	25.4938
2090.54	26.7797
2092	27.7705
2093.45	29.3122
2094.91	30.666
2096.37	31.4352
2097.82	32.1098
2099.28	32.6409
2100.73	32.8582
2102.19	33.0512
2103.64	33.6487
2105.09	33.9699
2106.55	34.7921
2108	34.8486
2109.45	36.7116
2110.91	37.0134
2112.36	37.8094
2113.81	39.0036
2115.26	39.779
2116.72	39.8102
2118.17	40.6186
2119.62	40.6231
2121.07	41.9891
2122.52	43.4358
2123.97	43.4258
2125.42	45.2804
2126.87	46.7054
2128.32	48.3215
2129.77	48.9341
2131.22	50.1907
2132.67	51.8524
2134.11	53.8573
