#Acq. time (s)=	45
#Accumulations=	2
#Range (cm-¹)=	200...3150
#Windows=	2
#Auto scanning=	Off
#Autofocus=	Off
#Macrospot=	Off
#AutoExposure=	Off
#Spike filter=	Multiple accum.
#Delay time (s)=	0
#Binning=	1
#Readout mode=	Signal
#DeNoise=	Off
#ICS correction=	On
#Dark correction=	Off
#Inst. Process=	Off
#Detector Gain=	Best Dynamic Range
#Detector ADC=	20 kHz       
#Detector temperature (°C)=	-69.85
#Instrument=	LabRAM HR Evol
#Detector=	Synapse
#Objective=	x100
#Grating=	600 gr/mm
#ND Filter=	100%
#Laser (nm)=	532 
#Hole=	100.021
#Range=	Auto
#Laser Pol.=	No
#Raman. Pol.=	No
#Laser Pol. (°)=	-0.0007625
#Raman Pol. (°)=	89.9995
#Collection=	Microscope
#StageXY=	Marzhauser
#StageZ=	Marzhauser
#X (µm)=	-6420.6
#Y (µm)=	871.3
#Z (µm)=	-64.95
#Full time(mm:ss)=	3:19
#Project=	
#Sample=	
#Site=	
#Title=	Mb_30_27_14_2x_45s_532 nm_x100_100%_600 gr_mm
#Remark=	
#Date=	13.07.2022 09:38
#Acquired=	13.07.2022 09:38:43
#Edit:Spike=	13.07.2022 09:42:33
#Edit:Spike=	13.07.2022 09:42:34
#Base:Fit=	10.08.2022 10:40:03
#Base:Sub=	10.08.2022 10:40:17
#Filter:Polynom=	16.08.2022 10:16:15
#AxisType[0]=Intens
#AxisUnit[0]=Cnt
#AxisType[1]=Spectr
#AxisUnit[1]=1/cm
200.563	3.25278
202.377	3.98622
204.194	4.97783
206.008	5.2393
207.821	5.30735
209.634	5.022
211.449	4.93416
213.262	5.3311
215.074	5.50063
216.885	4.18884
218.699	3.72495
220.51	3.98486
222.321	3.14684
224.131	3.09874
225.941	3.29598
227.751	3.03993
229.562	2.72662
231.371	3.25215
233.18	3.24097
234.988	3.59793
236.796	3.72943
238.603	3.58001
240.411	3.53622
242.219	2.63621
244.026	2.30473
245.832	2.82282
247.638	3.33369
249.443	3.16885
251.248	2.89767
253.053	1.67624
254.857	1.5395
256.661	1.34453
258.465	2.0722
260.268	2.51346
262.071	2.26834
263.874	2.58455
265.678	3.66933
267.48	4.88267
269.282	4.92326
271.083	4.73948
272.884	4.83884
274.684	4.34083
276.484	5.11077
278.284	4.9104
280.084	4.77979
281.883	4.32169
283.682	4.54629
285.48	4.41391
287.276	4.64583
289.074	4.3773
290.871	4.60018
292.668	3.56684
294.465	2.99776
296.261	3.10253
298.057	3.15674
299.853	4.13779
301.648	3.38583
303.443	2.81473
305.237	2.0437
307.032	1.53847
308.823	2.60654
310.617	2.64703
312.41	2.05457
314.203	3.09021
315.995	3.46845
317.788	3.11557
319.579	3.77441
321.369	4.22218
323.16	5.07404
324.951	6.06794
326.741	5.38069
328.531	5.89053
330.321	6.17094
332.108	5.47015
333.897	6.11488
335.686	7.31668
337.474	7.22826
339.26	6.66713
341.048	6.49942
342.835	6.90944
344.622	7.72855
346.406	8.21931
348.192	8.52468
349.978	8.55836
351.764	9.3578
353.547	9.8432
355.332	9.95642
357.116	9.32974
358.901	9.24832
360.682	9.0508
362.466	9.9905
364.249	10.0064
366.03	10.0288
367.812	8.15719
369.594	8.26772
371.374	7.89925
373.155	7.67851
374.936	7.38573
376.715	6.89
378.495	4.86892
380.273	4.79103
382.053	4.77307
383.832	4.39268
385.609	3.63162
387.388	3.63422
389.164	3.88762
390.942	3.97244
392.72	3.25753
394.495	2.92581
396.272	3.23568
398.047	3.62186
399.823	3.34977
401.597	4.43643
403.372	5.5582
405.145	5.99946
406.92	6.8403
408.693	8.46636
410.467	9.12606
412.239	10.3086
414.012	10.5941
415.783	10.0867
417.556	10.629
419.327	11.2041
421.099	11.3259
422.869	12.3402
424.64	12.5584
426.409	11.5044
428.18	10.9603
429.948	10.5991
431.718	10.8072
433.486	10.9892
435.253	10.9804
437.022	9.66845
438.789	10.3242
440.558	10.3625
442.324	9.95097
444.089	9.40946
445.857	9.95983
447.622	10.6273
449.386	9.21001
451.153	9.97352
452.917	9.52649
454.682	9.31113
456.446	8.9753
458.208	8.91952
459.973	8.38089
461.735	8.16749
463.497	7.17555
465.259	6.98348
467.022	6.38059
468.783	6.9021
470.544	7.03207
472.306	7.44838
474.066	7.49851
475.825	7.82121
477.585	7.70912
479.346	7.22943
481.104	7.43923
482.862	8.74821
484.62	10.7865
486.38	11.1245
488.137	11.8872
489.894	13.0132
491.65	13.507
493.407	14.5769
495.164	15.3888
496.92	15.5919
498.675	15.6894
500.43	16.443
502.184	16.9512
503.939	17.0023
505.694	17.1314
507.448	18.0202
509.201	17.2848
510.954	15.9658
512.706	15.7184
514.459	15.6522
516.21	16.4709
517.962	16.4794
519.715	15.9077
521.466	15.6175
523.216	15.6593
524.966	15.4596
526.716	15.9671
528.466	15.575
530.215	15.3632
531.964	14.8447
533.712	14.7462
535.46	13.714
537.208	13.7334
538.955	13.6682
540.703	13.4821
542.449	12.2324
544.196	10.9098
545.942	10.2814
547.688	9.91395
549.433	10.1203
551.178	9.31961
552.923	9.557
554.667	8.26232
556.412	7.9643
558.155	7.77022
559.899	7.37481
561.642	6.76045
563.385	6.17668
565.127	6.65824
566.867	6.46423
568.609	6.08061
570.35	5.23908
572.092	4.79231
573.832	3.35318
575.573	3.41446
577.313	3.00643
579.053	2.52406
580.79	3.19083
582.529	2.68598
584.268	2.13979
586.006	3.04029
587.745	3.76768
589.482	3.54045
591.218	3.33556
592.955	2.43211
594.692	3.16263
596.428	2.19725
598.164	2.84862
599.898	4.13405
601.634	3.8698
603.369	4.10512
605.104	3.8026
606.836	3.44474
608.57	3.86801
610.304	4.47861
612.037	3.76268
613.769	3.70087
615.501	3.2829
617.234	3.69857
618.966	3.73649
620.696	3.51227
622.427	3.50291
624.159	3.98772
625.887	3.21611
627.618	3.76138
629.348	3.50642
631.076	3.68252
632.806	3.87325
634.535	3.69134
636.262	4.72887
637.99	4.91835
639.716	4.42453
641.444	4.96576
643.172	5.6114
644.897	6.09492
646.624	5.93486
648.348	6.32383
650.075	5.92113
651.801	6.98099
653.524	6.48495
655.249	7.21855
656.972	7.74549
658.697	8.04282
660.419	7.90769
662.143	9.01626
663.865	10.2515
665.588	11.0867
667.309	12.7565
669.032	13.263
670.752	14.6496
672.474	16.2667
674.194	16.9973
675.915	17.5055
677.634	18.7693
679.355	19.3818
681.073	21.1266
682.793	21.0923
684.511	23.0936
686.23	23.4554
687.947	23.7733
689.664	25.5772
691.382	25.8545
693.098	26.0287
694.816	27.939
696.531	29.2632
698.247	29.7974
699.963	30.6963
701.678	30.9388
703.392	31.9785
705.108	31.787
706.821	32.298
708.534	32.3756
710.249	31.8989
711.962	31.6398
713.674	31.7889
715.388	32.1548
717.099	32.0828
718.81	31.5863
720.523	32.3551
722.234	33.4693
723.944	33.1041
725.654	32.2864
727.365	32.8304
729.075	32.012
730.784	31.8019
732.492	31.0136
734.202	31.1187
735.91	31.7936
737.618	32.8449
739.325	31.9618
741.034	32.6284
742.741	32.5304
744.447	33.2735
746.153	34.0786
747.859	35.4265
749.564	36.6627
751.271	37.7377
752.976	39.3201
754.681	40.3022
756.385	41.8012
758.088	42.8022
759.792	44.236
761.495	45.1415
763.2	46.8289
764.902	48.2963
766.604	49.6379
768.306	51.5197
770.008	52.5648
771.709	53.4257
773.41	54.5732
775.11	56.4407
776.811	57.6523
778.51	59.4856
780.21	61.3043
781.909	61.5659
783.608	62.2229
785.307	63.0923
787.005	64.7274
788.703	66.0472
790.401	66.1613
792.098	67.3073
793.795	67.7465
795.492	68.5029
797.188	69.6337
798.884	70.914
800.58	72.6997
802.276	72.8575
803.971	73.872
805.665	74.3719
807.36	74.3183
809.054	73.9503
810.748	73.754
812.441	73.4787
814.135	72.7804
815.826	72.3268
817.518	71.7201
819.21	71.8865
820.902	71.3056
822.594	70.1531
824.285	69.7545
825.976	70.3866
827.665	70.0869
829.355	69.6288
831.045	69.4244
832.735	69.3785
834.424	69.1896
836.111	68.8972
837.8	67.7136
839.488	66.6163
841.177	65.3795
842.864	64.1408
844.55	62.7286
846.237	61.8928
847.924	61.5954
849.61	60.2558
851.295	57.6471
852.98	56.7414
854.666	54.0265
856.349	52.8812
858.034	51.0998
859.719	49.5692
861.403	48.0738
863.085	47.1977
864.769	45.8566
866.452	45.4111
868.133	44.4304
869.816	42.6664
871.498	41.45
873.179	40.7588
874.86	40.1731
876.54	40.4804
878.221	39.9679
879.902	39.0615
881.58	38.6886
883.26	38.1056
884.938	37.2085
886.618	35.5165
888.297	35.4252
889.974	34.5762
891.653	34.5229
893.329	34.2292
895.007	33.2526
896.683	33.0256
898.36	32.4735
900.035	32.1897
901.712	31.5736
903.387	31.2189
905.063	31.031
906.737	30.4887
908.412	31.2227
910.085	31.4652
911.76	30.7285
913.433	30.9922
915.107	31.6697
916.779	31.5972
918.452	31.6116
920.124	31.5312
921.797	31.2385
923.467	31.6065
925.138	32.0004
926.81	33.3009
928.48	33.6328
930.151	33.7825
931.82	33.9401
933.489	32.2043
935.16	31.4849
936.828	32.068
938.496	31.4747
940.165	31.5499
941.833	30.9348
943.5	30.0855
945.168	29.8713
946.834	30.2398
948.5	28.4841
950.168	28.2868
951.834	27.0692
953.499	26.0207
955.163	26.4816
956.83	26.5384
958.494	25.3061
960.158	24.6665
961.821	23.7408
963.487	23.0337
965.15	22.8279
966.812	22.43
968.474	22.835
970.138	22.6702
971.8	22.0252
973.461	21.9058
975.123	21.3543
976.783	20.357
978.446	20.5181
980.106	20.007
981.766	19.4927
983.425	19.5908
985.084	18.0333
986.743	18.296
988.402	17.922
990.06	17.5079
991.72	18.244
993.378	17.8704
995.035	16.7578
996.692	16.6441
998.349	16.4656
1000.01	16.0142
1001.66	15.5405
1003.32	14.3043
1004.97	14.586
1006.63	14.9425
1008.28	15.9729
1009.94	17.3586
1011.59	17.9363
1013.25	19.5751
1014.9	21.2846
1016.55	22.1828
1018.21	24.42
1019.86	26.7429
1021.51	27.9562
1023.16	28.9816
1024.81	29.6434
1026.47	30.6038
1028.12	33.0421
1029.77	33.9588
1031.42	34.459
1033.07	34.9927
1034.72	35.4551
1036.37	35.509
1038.02	36.1475
1039.67	36.2152
1041.31	36.5802
1042.96	37.601
1044.61	37.908
1046.26	37.8353
1047.91	37.4952
1049.55	37.7491
1051.2	36.783
1052.84	36.627
1054.49	36.7959
1056.14	37.2313
1057.78	36.1776
1059.43	35.5757
1061.07	34.7635
1062.72	32.5458
1064.36	30.9577
1066	29.5534
1067.65	27.1425
1069.29	25.7168
1070.93	23.7263
1072.58	21.8147
1074.22	19.82
1075.86	18.3284
1077.5	15.895
1079.14	14.6098
1080.78	13.6865
1082.42	12.8231
1084.06	11.4766
1085.7	11.2104
1087.34	11.5584
1088.98	12.5698
1090.62	13.253
1092.26	13.7971
1093.9	13.5125
1095.54	13.8184
1097.17	13.403
1098.81	13.496
1100.45	14.194
1102.09	14.5445
1103.72	14.6553
1105.36	14.3145
1106.99	14.6625
1108.63	14.3536
1110.27	14.0975
1111.9	12.7642
1113.53	12.2853
1115.17	11.6253
1116.8	11.73
1118.43	11.3718
1120.07	11.5718
1121.7	11.9195
1123.33	11.515
1124.97	11.3248
1126.6	10.3162
1128.23	9.30383
1129.86	9.35514
1131.49	8.93625
1133.12	8.0438
1134.75	9.2739
1136.38	7.82632
1138.01	7.43242
1139.64	6.45923
1141.27	6.24001
1142.9	5.47632
1144.53	4.44284
1146.16	4.40639
1147.78	4.10392
1149.41	3.27636
1151.04	2.15008
1152.67	3.0414
1154.29	2.96322
1155.92	2.79681
1157.54	2.23601
1159.17	1.86101
1160.8	2.17787
1162.42	2.27531
1164.05	1.45265
1165.67	0.785392
1167.29	1.41124
1168.92	1.79793
1170.54	2.42541
1172.16	1.6929
1173.79	1.94982
1175.41	1.75031
1177.03	2.2777
1178.65	2.94367
1180.28	3.2946
1181.9	3.58761
1183.52	2.58712
1185.14	3.00951
1186.76	3.29158
1188.38	4.1671
1190	4.35226
1191.62	5.46903
1193.24	6.00845
1194.86	6.31361
1196.47	6.35047
1198.09	6.71975
1199.71	6.74654
1201.33	7.08734
1202.95	7.83568
1204.56	7.75862
1206.18	8.70232
1207.8	9.08455
1209.41	10.0012
1211.03	11.5383
1212.64	13.1511
1214.26	14.6114
1215.87	16.3231
1217.49	16.0499
1219.1	18.0985
1220.71	18.0439
1222.33	19.8575
1223.94	20.1371
1225.55	21.1723
1227.16	22.4352
1228.78	23.1157
1230.39	25.036
1232	26.5289
1233.61	28.7195
1235.22	29.2599
1236.83	29.6694
1238.44	30.3673
1240.05	31.8248
1241.66	32.5831
1243.27	33.0765
1244.88	33.8659
1246.49	35.7319
1248.1	36.4458
1249.71	37.0287
1251.32	36.5712
1252.92	36.4517
1254.53	37.1891
1256.14	37.6412
1257.74	38.0829
1259.35	38.1373
1260.96	38.1672
1262.56	37.4783
1264.17	38.3663
1265.77	39.7473
1267.38	40.8402
1268.98	40.8735
1270.59	41.4849
1272.19	41.527
1273.79	40.7278
1275.4	40.4991
1277	39.8844
1278.6	40.7839
1280.21	40.2682
1281.81	40.335
1283.41	41.2866
1285.01	41.9571
1286.61	42.8012
1288.21	43.9602
1289.81	44.8606
1291.41	46.1617
1293.01	46.9335
1294.61	46.816
1296.21	47.215
1297.81	47.5546
1299.41	47.6637
1301.01	48.0153
1302.6	49.7583
1304.2	49.7105
1305.8	50.1157
1307.4	50.7573
1308.99	52.1053
1310.59	52.6746
1312.19	53.5121
1313.78	54.0816
1315.38	53.9421
1316.97	54.0655
1318.57	54.3947
1320.16	55.4307
1321.76	55.5405
1323.35	56.1705
1324.94	56.6051
1326.54	56.3894
1328.13	55.1045
1329.72	55.8519
1331.32	55.6133
1332.91	55.595
1334.5	56.4994
1336.09	56.1881
1337.68	56.6713
1339.27	56.6141
1340.87	57.1671
1342.45	56.9507
1344.04	56.9263
1345.64	56.1957
1347.22	55.7042
1348.81	54.3417
1350.4	53.2285
1351.99	51.4355
1353.58	49.9995
1355.17	49.6123
1356.75	47.9739
1358.34	47.4376
1359.93	45.4922
1361.51	45.2447
1363.1	45.3393
1364.69	44.2053
1366.27	42.7124
1367.86	41.9159
1369.44	40.9037
1371.03	39.744
1372.61	38.4375
1374.2	36.6783
1375.78	36.4378
1377.37	35.7731
1378.95	35.0883
1380.53	35.4714
1382.11	35.0559
1383.7	33.9523
1385.28	32.9053
1386.86	32.1663
1388.44	31.3782
1390.02	30.2619
1391.6	30.1836
1393.19	28.798
1394.77	28.8585
1396.35	29.0921
1397.93	29.5469
1399.51	29.9488
1401.08	30.6134
1402.66	30.6921
1404.24	30.8548
1405.82	31.467
1407.4	31.7052
1408.97	33.2517
1410.55	33.4985
1412.13	34.4538
1413.71	35.2572
1415.28	36.6106
1416.86	37.7715
1418.43	37.9654
1420.01	40.2077
1421.59	41.1205
1423.16	42.1437
1424.73	44.1423
1426.31	45.2165
1427.88	46.9093
1429.46	49.1666
1431.03	51.2412
1432.6	53.146
1434.18	55.038
1435.75	56.1443
1437.32	57.5863
1438.89	58.5966
1440.46	60.021
1442.04	60.5672
1443.61	61.181
1445.18	61.9366
1446.75	62.588
1448.32	62.6166
1449.89	62.8963
1451.46	63.6251
1453.03	63.3612
1454.6	63.7684
1456.16	63.308
1457.73	62.1756
1459.3	61.3834
1460.87	60.1784
1462.44	58.9841
1464	57.578
1465.57	56.5207
1467.14	56.2157
1468.7	55.0604
1470.27	54.4874
1471.83	53.9335
1473.4	53.83
1474.96	51.2894
1476.53	49.7339
1478.09	47.9601
1479.66	46.4136
1481.22	44.5606
1482.78	43.0911
1484.35	41.1073
1485.91	39.5138
1487.47	37.8078
1489.04	36.4831
1490.6	34.4575
1492.16	33.6092
1493.72	32.9328
1495.28	30.9739
1496.84	29.9566
1498.4	29.9362
1499.96	28.1526
1501.52	27.5107
1503.08	26.7946
1504.64	26.2553
1506.2	26.3343
1507.76	25.6852
1509.32	24.4158
1510.88	23.7948
1512.44	23.2999
1513.99	21.7929
1515.55	20.9553
1517.11	19.7042
1518.66	20.2529
1520.22	20.1114
1521.78	20.2522
1523.33	19.6018
1524.89	19.723
1526.44	19.56
1528	19.364
1529.55	19.1728
1531.11	18.8387
1532.66	19.6877
1534.21	19.7101
1535.77	19.6717
1537.32	20.4934
1538.87	21.2463
1540.43	21.5402
1541.98	21.4327
1543.53	21.3226
1545.08	21.442
1546.63	21.9222
1548.18	22.8194
1549.74	23.728
1551.29	23.9318
1552.84	23.3592
1554.39	24.2484
1555.94	24.2042
1557.48	24.6212
1559.03	25.5662
1560.58	24.3085
1562.13	24.6402
1563.68	24.7367
1565.23	24.6018
1566.78	25.6557
1568.32	25.6691
1569.87	26.3882
1571.42	26.7569
1572.96	27.3895
1574.51	28.6432
1576.05	29.7585
1577.6	30.8659
1579.14	32.7094
1580.69	33.3069
1582.24	34.9088
1583.78	35.9483
1585.32	37.0554
1586.87	37.6341
1588.41	39.4255
1589.95	39.8431
1591.5	40.7358
1593.04	42.2132
1594.58	43.3096
1596.12	45.2274
1597.67	45.6604
1599.21	46.8663
1600.75	47.1136
1602.29	48.3575
1603.83	48.6148
1605.37	49.4329
1606.91	50.8851
1608.45	50.6612
1609.99	50.5368
1611.53	49.09
1613.07	49.3742
1614.6	49.2307
1616.14	49.5107
1617.68	48.9409
1619.22	48.9429
1620.75	49.113
1622.29	50.2197
1623.83	50.739
1625.37	51.0651
1626.9	52.0541
1628.44	51.0582
1629.97	50.7435
1631.51	51.0649
1633.04	51.4065
1634.58	51.8337
1636.11	51.3969
1637.65	50.9713
1639.18	51.6101
1640.72	52.3179
1642.25	52.8236
1643.78	53.3855
1645.31	54.2117
1646.85	54.2738
1648.38	54.4044
1649.91	54.7813
1651.44	54.8926
1652.97	55.2007
1654.5	56.1356
1656.03	56.4639
1657.56	55.6274
1659.1	55.9338
1660.62	55.2061
1662.15	54.6599
1663.68	54.0161
1665.21	53.8015
1666.74	52.8429
1668.27	52.6909
1669.8	52.0579
1671.32	52.1651
1672.85	51.0127
1674.38	49.4822
1675.91	48.2635
1677.43	46.0538
1678.96	43.9615
1680.49	42.0838
1682.01	40.0452
1683.54	37.5431
1685.06	35.1363
1686.59	33.0423
1688.11	31.9815
1689.64	31.2377
1691.16	29.1093
1692.68	27.3408
1694.21	25.5447
1695.73	23.1125
1697.25	22.1964
1698.78	20.9377
1700.3	19.2225
1701.82	18.338
1703.34	17.5002
1704.86	15.2978
1706.39	14.9551
1707.91	13.2688
1709.43	12.6754
1710.95	11.1413
1712.47	9.82827
1713.99	9.68092
1715.51	9.24137
1717.02	9.28947
1718.54	8.23492
1720.06	8.13185
1721.58	7.65854
1723.1	6.8769
1724.62	6.61674
1726.13	7.33435
1727.65	7.04694
1729.17	7.88962
1730.68	7.88221
1732.2	7.98045
1733.72	8.1012
1735.23	9.22908
1736.75	9.47003
1738.26	9.88833
1739.78	10.3243
1741.29	10.7916
1742.81	11.4375
1744.32	11.5944
1745.84	11.6106
1747.35	11.3604
1748.86	10.6802
1750.37	10.6885
1751.89	11.1418
1753.4	10.6714
1754.91	10.5785
1756.42	11.1603
1757.93	10.7761
1759.45	10.7017
1760.96	10.7347
1762.47	10.4736
1763.98	10.6163
1765.49	9.02594
1767	8.39344
1768.51	7.8789
1770.02	7.53456
1771.53	6.6567
1773.03	6.85468
1774.54	6.29269
1776.05	6.07186
1777.56	5.99525
1779.07	5.79384
1780.57	5.16979
1782.08	4.53285
1783.59	3.74442
1785.09	3.88739
1786.6	2.98845
1788.11	2.58061
1789.61	2.88894
1791.12	2.4791
1792.62	1.44497
1794.13	1.13238
1795.63	1.54799
1797.13	1.25704
1798.64	1.26965
1800.14	0.995371
1801.65	1.16027
1803.15	1.37233
1804.65	1.83383
1806.15	1.96237
1807.66	2.10932
1809.16	1.86344
1810.66	2.07128
1812.16	1.82015
1813.66	1.86515
1815.16	2.19753
1816.66	2.24002
1818.16	2.01973
1819.66	2.36385
1821.16	2.54817
1822.66	2.35928
1824.16	2.92068
1825.66	3.26981
1827.16	2.94138
1828.66	2.81109
1830.16	3.21667
1831.65	3.23075
1833.15	2.91821
1834.65	3.21316
1836.14	2.91201
1837.64	2.60368
1839.14	2.1835
1840.63	2.24906
1842.13	2.87238
1843.62	2.87398
1845.12	3.41494
1846.61	3.81033
1848.11	4.33837
1849.6	4.54878
1851.1	4.70207
1852.59	4.95963
1854.08	4.85314
1855.58	4.71142
1857.07	4.97163
1858.56	5.27336
1860.05	5.62609
1861.55	5.81341
1863.04	5.39443
1864.53	5.60221
1866.02	5.43003
1867.51	4.95557
1869	4.85738
1870.49	5.14951
1871.98	4.77177
1873.47	4.39419
1874.96	3.86861
1876.45	3.46637
1877.94	3.88795
1879.43	3.60622
1880.92	3.77456
1882.41	3.54055
1882.51	3.24106
1884	2.85813
1885.5	2.56234
1886.99	2.79127
1888.48	2.73509
1889.98	2.56758
1891.47	2.58499
1892.96	2.65093
1894.46	1.79274
1895.95	1.40937
1897.44	1.51174
1898.93	1.3642
1900.42	1.57883
1901.91	2.59811
1903.41	3.04375
1904.9	3.22969
1906.39	4.10623
1907.88	5.01691
1909.37	5.25827
1910.86	6.30737
1912.35	7.85275
1913.83	8.46634
1915.32	8.59811
1916.81	9.09959
1918.3	9.49669
1919.79	10.2295
1921.27	10.8828
1922.76	11.3591
1924.25	12.1089
1925.74	12.2431
1927.22	13.0804
1928.71	13.8388
1930.19	13.8526
1931.68	13.8115
1933.17	13.1799
1934.65	12.6616
1936.14	12.3449
1937.62	12.1425
1939.11	11.7124
1940.59	10.6024
1942.07	9.80033
1943.56	9.30163
1945.04	8.39872
1946.52	7.56758
1948.01	7.39619
1949.49	6.84252
1950.97	6.62296
1952.45	5.23183
1953.93	4.37546
1955.42	3.53366
1956.9	2.02901
1958.38	1.65457
1959.86	1.3885
1961.34	1.01119
1962.82	0.244165
1964.3	-0.427958
1965.78	-0.24729
1967.26	-1.17051
1968.74	-1.28433
1970.21	-1.22366
1971.69	-0.325313
1973.17	0.248104
1974.65	0.403062
1976.13	0.903772
1977.6	0.805239
1979.08	1.18827
1980.56	1.28378
1982.03	1.54924
1983.51	1.16461
1984.99	1.68117
1986.46	1.50916
1987.94	1.86156
1989.41	2.33485
1990.89	3.39954
1992.36	3.53789
1993.84	4.34739
1995.31	5.02399
1996.78	4.83942
1998.26	5.06683
1999.73	5.70212
2001.2	6.25322
2002.68	6.04657
2004.15	6.04222
2005.62	6.44225
2007.09	6.21107
2008.56	7.29098
2010.04	7.73809
2011.51	7.67068
2012.98	7.99475
2014.45	8.26396
2015.92	8.57619
2017.39	9.30617
2018.86	9.63704
2020.33	9.58967
2021.8	9.67446
2023.26	9.38791
2024.73	9.79451
2026.2	9.97615
2027.67	10.2647
2029.14	10.2531
2030.61	10.1835
2032.07	10.5794
2033.54	10.4454
2035.01	10.6064
2036.47	10.8362
2037.94	10.9362
2039.4	11.7196
2040.87	11.6964
2042.33	12.8117
2043.8	12.9598
2045.27	13.8315
2046.73	13.8769
2048.19	14.4696
2049.66	15.0611
2051.12	15.1917
2052.59	15.399
2054.05	15.6575
2055.51	15.8879
2056.97	15.746
2058.44	15.6901
2059.9	15.8443
2061.36	16.9951
2062.82	17.0131
2064.28	16.8596
2065.74	16.7532
2067.21	17.0524
2068.67	17.005
2070.13	16.487
2071.59	16.215
2073.05	17.1429
2074.51	16.9363
2075.96	17.4585
2077.42	18.2437
2078.88	17.9898
2080.34	18.6025
2081.8	18.9454
2083.26	19.5984
2084.72	19.6384
2086.17	20.4645
2087.63	20.3901
2089.09	20.7933
2090.54	20.8015
2092	20.5892
2093.45	20.7238
2094.91	20.7942
2096.37	21.7997
2097.82	21.8909
2099.28	21.9192
2100.73	21.2805
2102.19	21.3096
2103.64	22.1176
2105.09	22.4449
2106.55	22.876
2108	24.2671
2109.45	25.8814
2110.91	26.4334
2112.36	26.991
2113.81	27.3344
2115.26	27.4756
2116.72	27.1549
2118.17	28.4584
2119.62	28.7681
2121.07	29.6161
2122.52	29.6767
2123.97	30.5232
2125.42	30.836
2126.87	31.0639
2128.32	31.5282
2129.77	31.9344
