#Acq. time (s)=	45
#Accumulations=	2
#Range (cm-¹)=	200...3150
#Windows=	2
#Auto scanning=	Off
#Autofocus=	Off
#Macrospot=	Off
#AutoExposure=	Off
#Spike filter=	Multiple accum.
#Delay time (s)=	0
#Binning=	1
#Readout mode=	Signal
#DeNoise=	Off
#ICS correction=	On
#Dark correction=	Off
#Inst. Process=	Off
#Detector Gain=	Best Dynamic Range
#Detector ADC=	20 kHz       
#Detector temperature (°C)=	-69.85
#Instrument=	LabRAM HR Evol
#Detector=	Synapse
#Objective=	x100
#Grating=	600 gr/mm
#ND Filter=	100%
#Laser (nm)=	532 
#Hole=	100.021
#Range=	Auto
#Laser Pol.=	No
#Raman. Pol.=	No
#Laser Pol. (°)=	-0.0007625
#Raman Pol. (°)=	89.9995
#Collection=	Microscope
#StageXY=	Marzhauser
#StageZ=	Marzhauser
#X (µm)=	-1255.6
#Y (µm)=	1610.7
#Z (µm)=	-6.3
#Full time(mm:ss)=	3:18
#Project=	
#Sample=	
#Site=	
#Title=	Mb_30_27_10_2x_45s_532 nm_x100_100%_600 gr_mm
#Remark=	
#Date=	12.07.2022 16:42
#Acquired=	12.07.2022 16:42:41
#Base:Fit=	10.08.2022 10:39:47
#Base:Sub=	10.08.2022 10:39:55
#Base:Fit=	10.08.2022 10:40:03
#Base:Sub=	10.08.2022 10:40:17
#Filter:Polynom=	16.08.2022 10:16:15
#AxisType[0]=Intens
#AxisUnit[0]=Cnt
#AxisType[1]=Spectr
#AxisUnit[1]=1/cm
200.413	13.0751
202.227	14.0173
204.042	12.6765
205.856	10.9412
207.671	9.72377
209.485	8.72516
211.297	8.09052
213.11	7.60085
214.924	6.95959
216.736	6.70155
218.547	5.8426
220.358	4.84466
222.169	5.38217
223.982	4.07438
225.792	2.92242
227.601	1.34416
229.411	1.22664
231.22	1.19268
233.028	1.38759
234.837	1.86631
236.647	2.42409
238.454	2.01757
240.261	1.57588
242.068	2.03517
243.875	1.3772
245.681	1.01144
247.487	1.67155
249.292	2.15963
251.099	1.96048
252.904	1.95851
254.708	2.57673
256.512	2.86932
258.316	2.99577
260.12	2.92994
261.922	3.45776
263.725	3.82992
265.527	4.06855
267.329	4.87619
269.131	5.38774
270.932	4.86913
272.733	4.87368
274.534	4.17692
276.334	4.95074
278.134	5.61686
279.933	6.00951
281.732	6.99497
283.531	7.87742
285.329	9.69985
287.128	10.0093
288.925	10.3607
290.723	10.2825
292.52	10.4166
294.316	11.4491
296.113	12.2579
297.909	13.2367
299.702	13.6531
301.498	14.488
303.293	14.4275
305.087	14.8649
306.881	14.7496
308.675	14.1469
310.469	14.6183
312.262	14.3886
314.055	14.2185
315.845	14.9829
317.638	15.6173
319.429	17.0164
321.221	16.9527
323.012	17.6007
324.803	17.101
326.591	16.9324
328.381	16.1945
330.171	16.1072
331.96	16.3919
333.749	15.3835
335.536	15.2091
337.324	14.8765
339.112	13.9507
340.9	13.4058
342.685	13.3143
344.472	12.6483
346.259	12.0503
348.045	10.9883
349.829	11.1471
351.614	11.2113
353.4	10.4676
355.185	9.82101
356.967	9.5684
358.751	8.2235
360.535	7.80759
362.317	8.74994
364.1	8.68756
365.883	9.36529
367.663	8.92264
369.445	9.18708
371.227	10.268
373.006	10.6815
374.787	10.2614
376.568	9.22618
378.346	9.11177
380.126	10.147
381.904	10.265
383.683	11.1002
385.462	11.0886
387.239	10.9184
389.017	10.1289
390.793	9.68448
392.571	9.75744
394.348	10.0093
396.123	9.0155
397.9	9.70832
399.674	9.40207
401.45	9.14929
403.224	8.9664
404.999	8.72165
406.772	8.19084
408.546	8.02932
410.318	7.70334
412.092	7.60111
413.864	6.74062
415.637	7.04998
417.408	6.52318
419.18	6.32763
420.95	6.32966
422.722	5.50867
424.492	4.61253
426.263	4.11551
428.032	3.73837
429.802	3.19732
431.57	3.09568
433.338	2.60528
435.107	2.13719
436.874	2.56376
438.643	3.00344
440.41	4.10494
442.176	3.77148
443.943	3.91488
445.709	3.5676
447.476	3.77219
449.24	3.74908
451.005	4.3418
452.771	3.57741
454.534	4.68415
456.298	6.00725
458.063	7.21914
459.825	8.61735
461.588	9.33702
463.352	9.9928
465.113	11.3745
466.875	11.6513
468.638	12.0094
470.398	11.0488
472.158	11.6306
473.918	10.9728
475.68	11.0508
477.439	11.0671
479.198	11.4493
480.957	12.0842
482.717	11.622
484.475	10.6471
486.233	10.7088
487.99	10.0479
489.747	10.7575
491.505	11.3552
493.261	12.2257
495.017	12.2254
496.773	11.6694
498.528	11.6123
500.285	11.4151
502.039	11.8667
503.794	12.2843
505.548	11.9899
507.301	12.109
509.054	12.2589
510.807	10.6538
512.562	9.8633
514.314	10.2451
516.066	9.54796
517.817	9.86721
519.568	10.1742
521.319	9.61243
523.07	10.0663
524.82	10.4629
526.57	10.0736
528.319	9.88397
530.068	8.94624
531.817	8.7443
533.568	8.60598
535.316	8.87641
537.064	9.99627
538.811	10.3168
540.558	10.8436
542.305	11.2745
544.051	10.9818
545.798	10.8526
547.543	11.282
549.289	10.5714
551.034	10.2022
552.777	9.64292
554.521	8.7896
556.265	7.98762
558.009	8.63682
559.753	8.86607
561.496	8.18198
563.239	7.74091
564.981	7.18878
566.723	7.77457
568.465	7.20988
570.207	6.17979
571.948	5.75358
573.688	5.67144
575.427	5.94415
577.167	5.64217
578.907	5.16953
580.646	3.58474
582.385	3.01349
584.124	2.84876
585.863	3.58979
587.599	4.03189
589.337	3.98548
591.074	3.7719
592.811	3.5516
594.548	3.55536
596.283	2.23643
598.019	1.17666
599.755	1.7128
601.49	1.82537
603.223	1.3135
604.958	1.97781
606.693	1.0181
608.427	0.632936
610.159	1.18336
611.892	1.38288
613.625	2.38054
615.358	3.31775
617.089	3.43382
618.821	4.28292
620.553	5.02887
622.282	5.87376
624.014	6.38392
625.744	6.08885
627.473	6.7946
629.203	7.33807
630.933	8.57978
632.661	9.257
634.39	9.37082
636.119	9.26936
637.845	9.89874
639.574	9.90208
641.301	11.4842
643.027	12.1039
644.754	13.9269
646.479	14.2876
648.206	15.098
649.932	15.8304
651.656	17.2428
653.382	18.4725
655.105	18.7859
656.83	18.1052
658.552	19.0723
660.277	19.274
661.999	19.9137
663.722	19.5741
665.444	19.3584
667.167	19.5712
668.887	20.5453
670.61	21.2902
672.33	22.3472
674.051	21.9258
675.771	21.8346
677.492	22.4097
679.21	22.2455
680.931	22.3149
682.649	21.796
684.369	22.9599
686.086	23.572
687.803	23.6007
689.522	24.4814
691.238	25.1926
692.956	25.4089
694.672	26.7084
696.388	27.7562
698.105	28.5852
699.819	29.8127
701.536	30.0717
703.25	31.1238
704.964	32.064
706.679	33.1397
708.393	33.4528
710.105	33.9399
711.82	35.0722
713.532	35.2225
715.244	35.9592
716.957	36.265
718.669	36.0926
720.38	36.1254
722.09	37.2434
723.802	39.241
725.512	40.5349
727.222	42.4066
728.933	41.9714
730.642	42.7511
732.351	42.4275
734.059	43.313
735.767	44.0067
737.477	44.8235
739.184	44.934
740.891	45.3924
742.598	44.6489
744.304	46.5144
746.012	47.2859
747.718	48.7646
749.423	50.0265
751.128	51.4842
752.833	53.4734
754.538	55.0028
756.244	56.7205
757.947	58.107
759.651	58.5752
761.354	60.6395
763.057	61.4947
764.759	62.3382
766.462	63.2412
768.163	63.5633
769.865	65.1947
771.568	65.7127
773.269	66.6941
774.97	67.7913
776.67	68.4084
778.37	69.6599
780.069	70.9041
781.769	72.2422
783.468	73.9056
785.166	74.2853
786.865	75.5518
788.563	76.8
790.26	77.3191
791.958	78.3431
793.655	78.5746
795.352	78.99
797.048	79.9077
798.744	79.6379
800.44	79.317
802.135	79.052
803.83	79.5325
805.525	78.7078
807.218	79.0035
808.912	78.8497
810.606	78.1252
812.299	77.2809
813.993	75.9459
815.685	75.2678
817.378	74.9596
819.07	75.8516
820.762	75.5506
822.452	74.7107
824.143	74.7907
825.834	73.9321
827.525	74.0146
829.215	74.5356
830.905	73.9073
832.593	73.5419
834.282	72.1265
835.971	70.4487
837.66	68.5392
839.349	66.4913
841.035	65.3433
842.723	64.0065
844.41	62.4395
846.097	61.5508
847.782	60.6115
849.469	59.5399
851.155	58.3598
852.841	56.901
854.525	56.9635
856.21	55.6828
857.895	54.7142
859.577	53.6184
861.262	53.2604
862.946	52.4685
864.628	52.0645
866.311	51.5134
867.994	51.0589
869.675	50.3149
871.357	50.0427
873.039	49.827
874.719	49.2114
876.401	49.2524
878.082	49.0435
879.761	48.2616
881.441	48.3263
883.12	47.2989
884.799	46.9725
886.479	47.6305
888.156	47.7594
889.835	47.2482
891.512	47.9447
893.19	48.305
894.866	48.1714
896.544	47.5796
898.22	47.9034
899.897	48.3057
901.573	48.9422
903.248	48.6802
904.924	48.4209
906.598	47.9418
908.271	49.0846
909.947	48.1199
911.62	48.4101
913.294	47.0989
914.966	46.9274
916.64	46.4701
918.312	45.2075
919.985	44.8237
921.656	44.7139
923.329	44.4123
925	44.3014
926.67	45.1478
928.341	44.5357
930.011	44.1994
931.68	44.0801
933.351	43.2442
935.019	43.0312
936.69	41.784
938.358	41.5221
940.025	40.0777
941.694	39.7821
943.361	40.0332
945.028	38.9982
946.696	39.0201
948.362	38.6996
950.028	38.0833
951.694	37.8677
953.361	37.1524
955.026	36.6042
956.69	36.3007
958.356	34.8022
960.02	34.5517
961.684	33.0316
963.347	32.2041
965.012	32.3314
966.674	31.6759
968.337	31.1389
969.999	31.1793
971.661	30.3899
973.324	29.3995
974.985	28.4194
976.646	28.0114
978.306	27.9989
979.966	27.3265
981.626	27.7535
983.288	26.3778
984.947	26.4014
986.606	25.8784
988.264	25.9057
989.923	25.0198
991.581	24.558
993.238	22.282
994.896	22.5912
996.553	22.0176
998.212	21.9231
999.868	21.4707
1001.52	20.2832
1003.18	20.061
1004.84	20.1173
1006.49	20.1815
1008.15	20.9763
1009.8	22.504
1011.45	22.6912
1013.11	24.4467
1014.76	26.4701
1016.42	27.4813
1018.07	28.3229
1019.72	29.2493
1021.37	30.8681
1023.03	32.3034
1024.68	34.3702
1026.33	35.129
1027.98	35.1159
1029.63	36.5794
1031.28	36.9324
1032.93	38.3986
1034.58	38.6757
1036.23	38.9806
1037.88	39.1385
1039.53	38.3265
1041.18	38.601
1042.83	38.5002
1044.47	38.8504
1046.12	38.7132
1047.77	38.579
1049.42	37.7731
1051.06	37.1623
1052.71	36.8124
1054.35	35.6368
1056	34.9241
1057.64	33.9254
1059.29	33.5658
1060.94	32.9845
1062.58	31.6851
1064.22	30.3312
1065.87	28.1732
1067.51	27.0228
1069.15	24.4334
1070.8	22.7099
1072.44	19.5386
1074.08	17.7335
1075.72	16.5372
1077.36	16.2232
1079.01	13.9971
1080.65	13.0481
1082.29	11.704
1083.93	10.4526
1085.57	11.2467
1087.21	12.0158
1088.85	11.8015
1090.49	11.7779
1092.12	11.7453
1093.76	11.8705
1095.4	12.2723
1097.04	12.1296
1098.68	11.8555
1100.31	10.9606
1101.95	10.1411
1103.59	9.37139
1105.22	9.50248
1106.86	9.44205
1108.49	8.74045
1110.13	8.63171
1111.76	9.30129
1113.4	9.09506
1115.03	9.33766
1116.66	9.16821
1118.3	9.71408
1119.93	9.21105
1121.57	9.00356
1123.2	9.46988
1124.83	9.00194
1126.46	9.16082
1128.09	7.89953
1129.72	8.40481
1131.36	8.22152
1132.99	8.72787
1134.62	8.86355
1136.25	8.3548
1137.88	8.60885
1139.51	8.26513
1141.14	8.10249
1142.77	7.92386
1144.39	7.5792
1146.02	6.46175
1147.65	5.98928
1149.28	5.20706
1150.9	4.74864
1152.53	4.75712
1154.16	3.63168
1155.78	4.26795
1157.41	3.82419
1159.04	3.36329
1160.66	3.79373
1162.29	3.80342
1163.91	3.35885
1165.54	3.63059
1167.16	3.89907
1168.78	3.66862
1170.41	3.22265
1172.03	3.44002
1173.65	2.68404
1175.27	3.82756
1176.9	4.00447
1178.52	3.3775
1180.14	3.20243
1181.76	2.85534
1183.38	3.26951
1185	4.13142
1186.62	5.27111
1188.24	4.84444
1189.86	5.19013
1191.48	5.41672
1193.1	6.04424
1194.72	5.70593
1196.34	6.10992
1197.96	6.33288
1199.58	5.9686
1201.19	5.43503
1202.81	5.46129
1204.43	4.58674
1206.04	4.04029
1207.66	3.83403
1209.28	4.53897
1210.89	4.84761
1212.51	5.50449
1214.12	6.13951
1215.74	5.90934
1217.35	5.55221
1218.97	5.14184
1220.58	5.12239
1222.19	5.34313
1223.81	5.41183
1225.42	4.89357
1227.03	4.87068
1228.64	5.21606
1230.26	5.23306
1231.87	5.72567
1233.48	6.92382
1235.09	6.88732
1236.7	7.88732
1238.31	8.15335
1239.92	9.5262
1241.53	10.7846
1243.14	10.7075
1244.75	12.1357
1246.36	13.6654
1247.97	14.7452
1249.57	15.8746
1251.18	16.7753
1252.79	18.0732
1254.4	19.4538
1256	20.0355
1257.61	20.3968
1259.22	21.6804
1260.82	23.8229
1262.43	24.3084
1264.03	25.6341
1265.64	26.0153
1267.24	26.9896
1268.85	26.587
1270.45	26.7801
1272.06	27.0097
1273.66	26.5429
1275.26	25.6736
1276.87	25.2546
1278.47	26.1368
1280.07	26.0264
1281.67	27.3664
1283.28	27.8061
1284.88	27.5665
1286.48	27.8959
1288.08	28.3185
1289.68	28.4019
1291.28	26.0891
1292.88	26.8759
1294.48	25.7558
1296.08	25.4485
1297.68	24.3174
1299.28	23.9983
1300.87	24.2193
1302.47	23.3771
1304.07	22.8595
1305.67	23.2526
1307.26	23.8299
1308.86	23.6589
1310.46	24.199
1312.05	25.2476
1313.65	25.4824
1315.24	25.3034
1316.84	25.6686
1318.44	25.7679
1320.03	26.2358
1321.62	26.5063
1323.22	26.1348
1324.81	25.6698
1326.4	25.4039
1328	24.7755
1329.59	24.7484
1331.18	25.3709
1332.78	26.4497
1334.37	26.6776
1335.96	26.392
1337.55	28.1773
1339.14	28.964
1340.73	27.9573
1342.32	27.1676
1343.91	27.084
1345.5	26.2887
1347.09	25.5907
1348.68	24.4454
1350.27	22.9661
1351.86	23.2776
1353.45	22.8355
1355.03	22.7623
1356.62	22.5628
1358.21	22.4729
1359.8	21.5438
1361.38	21.7965
1362.97	19.6504
1364.56	17.9361
1366.14	17.2848
1367.73	16.5001
1369.31	15.8224
1370.9	14.9087
1372.48	16.0449
1374.07	15.7778
1375.65	15.9766
1377.23	15.4119
1378.82	15.9836
1380.4	15.8071
1381.98	15.7751
1383.57	16.2935
1385.15	16.013
1386.73	16.7894
1388.31	17.0683
1389.89	17.9258
1391.47	17.8661
1393.05	16.8763
1394.63	17.6444
1396.21	17.1099
1397.79	17.6382
1399.37	17.7805
1400.95	17.6267
1402.53	17.1076
1404.11	18.156
1405.69	19.0554
1407.27	20.1783
1408.84	20.7471
1410.42	21.7855
1412	21.7985
1413.57	22.5026
1415.15	22.5758
1416.73	22.6012
1418.3	22.7614
1419.88	22.6051
1421.45	23.8385
1423.03	24.2059
1424.6	24.5335
1426.18	25.4012
1427.75	25.8042
1429.33	26.7038
1430.9	28.9486
1432.47	29.1094
1434.04	29.5422
1435.62	30.665
1437.19	31.3491
1438.76	32.4174
1440.33	33.2009
1441.91	33.7487
1443.47	35.5944
1445.05	35.9773
1446.62	36.7926
1448.19	37.9334
1449.76	37.8641
1451.33	38.6017
1452.9	39.708
1454.46	40.1028
1456.03	40.323
1457.6	41.5337
1459.17	41.9654
1460.74	42.7855
1462.3	43.6187
1463.87	43.3144
1465.44	43.9424
1467.01	43.4485
1468.57	43.2985
1470.14	42.3502
1471.7	42.6191
1473.27	42.4837
1474.83	41.7503
1476.4	41.6092
1477.96	39.608
1479.53	38.7929
1481.09	38.3732
1482.65	37.9569
1484.22	35.7311
1485.78	34.332
1487.34	32.7278
1488.91	31.5546
1490.47	31.6047
1492.03	31.3748
1493.59	30.0757
1495.15	29.8629
1496.71	29.1221
1498.27	28.1908
1499.83	27.567
1501.39	26.7351
1502.95	25.7356
1504.51	24.135
1506.07	22.8649
1507.63	22.9077
1509.19	21.8879
1510.75	20.95
1512.3	19.5538
1513.86	19.0827
1515.42	18.1614
1516.98	17.5303
1518.53	16.5886
1520.09	16.8957
1521.65	16.0357
1523.2	15.6412
1524.76	16.5043
1526.31	15.8148
1527.87	15.376
1529.42	15.7679
1530.98	16.8582
1532.53	16.5664
1534.08	16.7794
1535.64	17.3593
1537.19	16.9339
1538.74	17.091
1540.3	16.8861
1541.85	16.8498
1543.4	17.0233
1544.95	17.5743
1546.5	17.9294
1548.05	17.6008
1549.61	18.3294
1551.16	17.6763
1552.71	18.167
1554.26	17.9236
1555.81	18.061
1557.36	18.727
1558.9	18.4448
1560.45	18.6385
1562	18.943
1563.55	19.6463
1565.1	20.6414
1566.64	20.9336
1568.19	22.1784
1569.74	22.0254
1571.29	22.4203
1572.83	23.2421
1574.38	22.7892
1575.93	23.297
1577.47	23.6734
1579.02	24.1508
1580.56	24.7317
1582.1	25.3997
1583.65	26.7283
1585.19	26.9818
1586.74	27.3738
1588.28	28.0615
1589.82	28.2431
1591.37	29.1627
1592.91	30.0624
1594.45	29.9726
1595.99	30.6102
1597.54	31.728
1599.08	31.2229
1600.62	31.8531
1602.16	31.9128
1603.7	31.7567
1605.24	31.3186
1606.78	31.0524
1608.32	31.7285
1609.86	31.7999
1611.4	32.6861
1612.94	33.2825
1614.48	32.5112
1616.01	32.4595
1617.55	32.8205
1619.09	33.1591
1620.63	33.2629
1622.16	33.5552
1623.7	32.5583
1625.24	32.6756
1626.77	33.7226
1628.31	34.3178
1629.84	34.7113
1631.38	34.2722
1632.92	33.861
1634.45	33.9531
1635.98	34.2729
1637.52	34.4669
1639.05	34.0774
1640.59	33.7051
1642.12	33.8383
1643.65	33.8217
1645.19	34.6998
1646.72	35.2163
1648.25	35.3013
1649.78	35.4509
1651.31	35.7036
1652.85	36.6259
1654.38	37.0094
1655.91	37.3683
1657.44	36.5178
1658.97	36.2497
1660.5	35.875
1662.03	35.0595
1663.56	35.0208
1665.08	34.0802
1666.61	33.3629
1668.14	32.4344
1669.67	31.6456
1671.2	30.6329
1672.72	30.0095
1674.25	28.4439
1675.78	27.367
1677.31	27.0016
1678.83	26.0893
1680.36	25.0908
1681.88	23.7243
1683.41	23.8421
1684.93	23.6235
1686.46	23.073
1687.98	22.0172
1689.51	20.2846
1691.03	18.7913
1692.56	18.4932
1694.08	18.3209
1695.6	17.6677
1697.13	16.5789
1698.65	15.6493
1700.17	15.0861
1701.69	15.2336
1703.21	15.1886
1704.74	13.7336
1706.26	12.4567
1707.78	11.5074
1709.3	10.5722
1710.82	10.3749
1712.34	9.3846
1713.86	8.93547
1715.38	8.07659
1716.9	7.35948
1718.42	7.3136
1719.94	6.77019
1721.45	6.43519
1722.97	5.91879
1724.49	5.8408
1726.01	5.66585
1727.52	5.56669
1729.04	4.7316
1730.56	4.42894
1732.07	4.43873
1733.59	3.43908
1735.11	4.05653
1736.62	4.15944
1738.14	3.60771
1739.65	3.6505
1741.17	3.67706
1742.68	4.03765
1744.19	3.83051
1745.71	3.81496
1747.22	3.91725
1748.74	3.60832
1750.25	3.16158
1751.76	3.81494
1753.27	4.09878
1754.79	4.40473
1756.3	4.73624
1757.81	4.68864
1759.32	4.96111
1760.83	4.72367
1762.34	4.59093
1763.85	4.63729
1765.36	4.65405
1766.87	4.78798
1768.38	4.77916
1769.89	5.18687
1771.4	5.35181
1772.91	5.4809
1774.42	5.4847
1775.93	5.38574
1777.43	5.39585
1778.94	5.42472
1780.45	4.50467
1781.95	4.55261
1783.46	4.25703
1784.97	3.69641
1786.47	3.88564
1787.98	3.41072
1789.49	3.06198
1790.99	1.87487
1792.5	1.59857
1794	1.57399
1795.51	1.35841
1797.01	1.91235
1798.51	2.14223
1800.02	2.45318
1801.52	2.08392
1803.02	2.2871
1804.53	2.95867
1806.03	3.87608
1807.53	4.08165
1809.03	3.94419
1810.53	4.75998
1812.03	5.08896
1813.54	4.88494
1815.04	5.39467
1816.54	5.64569
1818.04	5.64847
1819.54	5.73274
1821.04	5.66895
1822.54	5.27469
1824.04	5.31738
1825.53	5.40714
1827.03	6.12671
1828.53	6.21017
1830.03	6.19014
1831.53	5.75032
1833.02	5.4217
1834.52	5.23588
1836.02	5.16709
1837.52	5.54218
1839.01	6.01652
1840.51	5.9135
1842	6.00818
1843.5	6.15661
1844.99	5.97126
1846.49	5.55559
1847.98	5.49815
1849.48	5.00994
1850.97	5.44654
1852.47	5.59941
1853.96	6.10953
1855.45	6.49244
1856.95	6.48953
1858.44	6.20275
1859.93	5.89899
1861.42	5.65808
1862.91	5.79167
1864.4	5.49166
1865.9	4.87977
1867.39	5.42606
1868.88	5.59121
1870.37	5.85763
1871.86	6.32851
1873.35	5.95623
1874.84	6.09881
1876.33	5.75664
1877.82	6.0936
1879.31	6.45658
1880.79	6.36343
1882.28	6.17116
1882.53	5.93949
1884.02	5.9635
1885.52	6.45173
1887.01	6.61016
1888.51	6.68724
1890	6.33045
1891.49	6.7045
1892.99	6.17746
1894.48	6.05644
1895.97	5.92144
1897.46	5.96169
1898.96	5.98554
1900.45	5.87639
1901.94	5.86566
1903.43	5.45408
1904.92	6.01713
1906.41	6.43828
1907.9	6.42387
1909.39	6.81192
1910.88	7.16142
1912.37	7.67892
1913.86	7.88749
1915.35	7.95257
1916.84	8.26304
1918.32	8.62021
1919.81	9.14089
1921.3	9.64935
1922.79	10.2358
1924.27	11.2751
1925.76	11.7374
1927.25	12.3506
1928.73	12.4108
1930.22	11.8045
1931.7	11.7053
1933.19	11.4361
1934.68	11.005
1936.16	10.4034
1937.65	9.3275
1939.13	8.99961
1940.61	8.8595
1942.1	8.53792
1943.58	7.87658
1945.06	7.51505
1946.55	7.04347
1948.03	7.25315
1949.51	6.76921
1950.99	6.50834
1952.48	5.69481
1953.96	5.41365
1955.44	5.43474
1956.92	5.25706
1958.4	5.42644
1959.88	5.78348
1961.36	5.38713
1962.84	5.07404
1964.32	5.11361
1965.8	5.80845
1967.28	4.99154
1968.76	4.7798
1970.24	4.84145
1971.72	4.6591
1973.19	5.67789
1974.67	6.2678
1976.15	7.41543
1977.63	7.52288
1979.1	8.53971
1980.58	8.19678
1982.06	8.52639
1983.53	9.64562
1985.01	9.86997
1986.48	10.4098
1987.96	10.7921
1989.43	11.8539
1990.91	12.5232
1992.39	13.0554
1993.86	12.9358
1995.33	13.2187
1996.81	13.5415
1998.28	13.5241
1999.75	13.0721
2001.23	12.8188
2002.7	12.9034
2004.17	12.0014
2005.64	11.6051
2007.11	11.2726
2008.59	10.8974
2010.06	9.91849
2011.53	9.76806
2013	9.85708
2014.47	9.81203
2015.94	9.81058
2017.41	9.19929
2018.88	9.31767
2020.35	9.10114
2021.82	9.36054
2023.29	9.13958
2024.76	9.85789
2026.22	10.2319
2027.69	10.5027
2029.16	10.8535
2030.63	10.5771
2032.09	10.5607
2033.56	10.5339
2035.03	10.1238
2036.5	10.1282
2037.96	10.5754
2039.43	10.6792
2040.89	10.1333
2042.36	11.0724
2043.82	12.3235
2045.29	13.0255
2046.75	13.7657
2048.22	13.713
2049.68	13.7442
2051.14	13.2814
2052.61	13.5076
2054.07	13.9681
2055.53	14.4788
2057	14.3308
2058.46	14.3491
2059.92	14.3945
2061.38	14.909
2062.85	15.2957
2064.31	14.9391
2065.77	14.5482
2067.23	13.7492
2068.69	13.505
2070.15	13.3362
2071.61	13.3707
2073.07	13.8454
2074.53	14.0963
2075.99	13.9955
2077.45	13.6763
2078.91	13.7415
2080.36	13.7781
2081.82	13.3951
2083.28	12.8068
2084.74	13.1203
2086.19	13.071
2087.65	12.6671
2089.11	12.1756
2090.57	12.4006
2092.02	13.0985
2093.48	13.4745
2094.93	14.6175
2096.39	14.0353
2097.84	14.6137
2099.3	14.0718
2100.75	13.2124
2102.21	13.4416
2103.66	12.9287
2105.12	12.8359
2106.57	12.8401
2108.02	12.9011
2109.48	13.5605
2110.93	14.0727
2112.38	14.2995
2113.83	14.7297
2115.29	15.8728
2116.74	15.8747
2118.19	16.3466
2119.64	16.6789
2121.09	17.1459
2122.54	17.5244
2123.99	18.8806
2125.44	19.7422
2126.89	20.1593
2128.34	20.0913
2129.79	20.3486
