#Acq. time (s)=	45
#Accumulations=	2
#Range (cm-¹)=	200...3150
#Windows=	2
#Auto scanning=	Off
#Autofocus=	Off
#Macrospot=	Off
#AutoExposure=	Off
#Spike filter=	Multiple accum.
#Delay time (s)=	0
#Binning=	1
#Readout mode=	Signal
#DeNoise=	Off
#ICS correction=	On
#Dark correction=	Off
#Inst. Process=	Off
#Detector Gain=	Best Dynamic Range
#Detector ADC=	20 kHz       
#Detector temperature (°C)=	-69.85
#Instrument=	LabRAM HR Evol
#Detector=	Synapse
#Objective=	x100
#Grating=	600 gr/mm
#ND Filter=	100%
#Laser (nm)=	532 
#Hole=	100.021
#Range=	Auto
#Laser Pol.=	No
#Raman. Pol.=	No
#Laser Pol. (°)=	-0.0007625
#Raman Pol. (°)=	89.9995
#Collection=	Microscope
#StageXY=	Marzhauser
#StageZ=	Marzhauser
#X (µm)=	-1270.9
#Y (µm)=	1616.1
#Z (µm)=	-6.35
#Full time(mm:ss)=	3:18
#Project=	
#Sample=	
#Site=	
#Title=	Mb_30_27_08_2x_45s_532 nm_x100_100%_600 gr_mm
#Remark=	
#Date=	12.07.2022 16:34
#Acquired=	12.07.2022 16:34:44
#Base:Fit=	10.08.2022 10:39:47
#Base:Sub=	10.08.2022 10:39:55
#Base:Fit=	10.08.2022 10:40:03
#Base:Sub=	10.08.2022 10:40:17
#Filter:Polynom=	16.08.2022 10:16:15
#AxisType[0]=Intens
#AxisUnit[0]=Cnt
#AxisType[1]=Spectr
#AxisUnit[1]=1/cm
200.413	22.337
202.227	19.4904
204.042	16.2588
205.856	14.5438
207.671	12.272
209.485	10.4991
211.297	9.44983
213.11	8.45843
214.924	7.00026
216.736	5.53998
218.547	5.66228
220.358	4.83097
222.169	6.27195
223.982	5.35612
225.792	6.40554
227.601	5.98423
229.411	5.63117
231.22	6.60075
233.028	6.75894
234.837	6.96839
236.647	8.00432
238.454	8.90111
240.261	8.81589
242.068	9.32745
243.875	9.72605
245.681	9.80028
247.487	10.4078
249.292	11.4802
251.099	12.067
252.904	12.3815
254.708	12.3772
256.512	12.2832
258.316	12.473
260.12	13.4728
261.922	13.1044
263.725	14.4441
265.527	14.1373
267.329	15.3003
269.131	16.6195
270.932	17.2134
272.733	15.6147
274.534	15.0933
276.334	14.646
278.134	14.1931
279.933	13.8344
281.732	14.3741
283.531	14.6676
285.329	13.4606
287.128	13.7622
288.925	12.7717
290.723	11.875
292.52	11.1082
294.316	11.2228
296.113	11.0437
297.909	11.73
299.702	10.9394
301.498	10.1927
303.293	10.4642
305.087	9.88923
306.881	9.86034
308.675	10.4464
310.469	10.9709
312.262	10.8158
314.055	9.82924
315.845	10.6778
317.638	10.6615
319.429	10.6729
321.221	10.6951
323.012	10.5805
324.803	10.7013
326.591	11.4449
328.381	10.6584
330.171	10.85
331.96	10.7287
333.749	10.1371
335.536	9.5454
337.324	9.86529
339.112	9.70762
340.9	9.8152
342.685	10.733
344.472	10.4907
346.259	10.4986
348.045	10.3974
349.829	11.5563
351.614	11.0164
353.4	11.833
355.185	11.8841
356.967	12.5986
358.751	11.821
360.535	11.6184
362.317	9.79061
364.1	9.68915
365.883	9.39626
367.663	9.41022
369.445	9.77952
371.227	8.46108
373.006	7.76705
374.787	7.02543
376.568	7.94503
378.346	6.61493
380.126	6.17727
381.904	6.14795
383.683	7.07802
385.462	6.39875
387.239	4.72619
389.017	3.67432
390.793	4.17905
392.571	4.36076
394.348	3.09088
396.123	2.89212
397.9	4.20451
399.674	4.0693
401.45	2.94256
403.224	3.74609
404.999	4.07559
406.772	4.0662
408.546	2.8219
410.318	2.19995
412.092	2.72672
413.864	2.01996
415.637	2.92974
417.408	3.51507
419.18	4.17291
420.95	2.79725
422.722	3.46795
424.492	2.61828
426.263	2.7519
428.032	3.10757
429.802	3.52111
431.57	3.29804
433.338	2.27911
435.107	2.45333
436.874	3.24882
438.643	4.69752
440.41	4.34239
442.176	5.4342
443.943	5.60623
445.709	5.45026
447.476	5.6648
449.24	6.80673
451.005	6.92216
452.771	7.60929
454.534	9.19233
456.298	10.1766
458.063	10.2551
459.825	10.1954
461.588	11.2351
463.352	12.3447
465.113	12.4945
466.875	12.4127
468.638	13.1407
470.398	13.945
472.158	14.0888
473.918	14.4924
475.68	15.7222
477.439	16.394
479.198	16.5478
480.957	16.8951
482.717	18.2245
484.475	19.2952
486.233	20.571
487.99	19.6604
489.747	19.7234
491.505	19.8638
493.261	19.7839
495.017	19.1057
496.773	18.7118
498.528	19.2905
500.285	20.2438
502.039	20.4871
503.794	21.4894
505.548	20.1605
507.301	19.1584
509.054	18.3245
510.807	17.9205
512.562	16.712
514.314	18.0334
516.066	18.2441
517.817	18.2832
519.568	18.2457
521.319	17.8292
523.07	17.9622
524.82	18.1186
526.57	17.9569
528.319	17.5017
530.068	17.1941
531.817	17.4135
533.568	17.0736
535.316	16.3888
537.064	15.7175
538.811	15.7711
540.558	15.1955
542.305	14.8449
544.051	13.983
545.798	13.1834
547.543	12.7198
549.289	12.956
551.034	12.3894
552.777	11.4234
554.521	11.6492
556.265	11.3003
558.009	11.4116
559.753	11.2287
561.496	11.2423
563.239	11.0612
564.981	10.0148
566.723	10.9026
568.465	11.1718
570.207	11.1473
571.948	10.49
573.688	9.55404
575.427	8.98545
577.167	8.23873
578.907	8.0811
580.646	7.30916
582.385	7.34743
584.124	7.80912
585.863	7.76696
587.599	7.39067
589.337	7.10932
591.074	6.63096
592.811	6.39535
594.548	6.50326
596.283	6.60989
598.019	6.82284
599.755	7.81591
601.49	8.40074
603.223	7.20496
604.958	7.72168
606.693	7.27913
608.427	7.17263
610.159	6.65705
611.892	7.03651
613.625	7.09598
615.358	7.2028
617.089	6.25135
618.821	6.88168
620.553	5.98049
622.282	5.50548
624.014	6.83332
625.744	8.68315
627.473	9.23726
629.203	9.37956
630.933	10.1578
632.661	10.7409
634.39	11.0932
636.119	12.1236
637.845	12.5089
639.574	13.0063
641.301	13.5623
643.027	13.6392
644.754	14.2765
646.479	14.8915
648.206	15.4346
649.932	15.1444
651.656	15.1839
653.382	15.0136
655.105	14.41
656.83	15.2817
658.552	16.4388
660.277	16.9047
661.999	16.8938
663.722	16.6736
665.444	16.952
667.167	17.3967
668.887	19.1138
670.61	19.2857
672.33	20.7275
674.051	21.329
675.771	22.0295
677.492	23.2544
679.21	24.6866
680.931	25.5787
682.649	27.1457
684.369	27.3559
686.086	28.1066
687.803	28.8232
689.522	29.956
691.238	32.143
692.956	31.535
694.672	32.6066
696.388	33.5265
698.105	36.2082
699.819	36.9371
701.536	37.4979
703.25	38.1081
704.964	39.3519
706.679	40.2675
708.393	41.2116
710.105	43.139
711.82	44.4008
713.532	43.9768
715.244	44.2162
716.957	45.1627
718.669	45.4654
720.38	45.8258
722.09	45.5492
723.802	44.2619
725.512	43.4066
727.222	43.5185
728.933	43.3897
730.642	43.2195
732.351	43.3815
734.059	42.9089
735.767	42.8387
737.477	43.8155
739.184	44.3046
740.891	44.6623
742.598	44.9858
744.304	45.1679
746.012	44.7444
747.718	45.0427
749.423	46.1213
751.128	45.8705
752.833	47.5302
754.538	49.298
756.244	49.3052
757.947	50.7426
759.651	50.6725
761.354	51.8323
763.057	52.5337
764.759	53.5283
766.462	54.7226
768.163	55.4053
769.865	56.3299
771.568	58.4328
773.269	60.1457
774.97	61.5476
776.67	61.9812
778.37	62.4814
780.069	64.7648
781.769	65.6611
783.468	66.6344
785.166	66.2686
786.865	67.3971
788.563	68.2
790.26	68.9721
791.958	70.4236
793.655	71.0403
795.352	72.0241
797.048	72.5513
798.744	72.5628
800.44	73.9589
802.135	74.0225
803.83	73.8092
805.525	73.7243
807.218	73.2009
808.912	73.183
810.606	73.2788
812.299	73.0532
813.993	72.5175
815.685	72.655
817.378	72.7375
819.07	72.056
820.762	71.2659
822.452	71.3109
824.143	70.8766
825.834	69.6934
827.525	69.6142
829.215	69.9057
830.905	69.7899
832.593	68.9845
834.282	68.0006
835.971	67.0931
837.66	67.5772
839.349	67.6969
841.035	66.4994
842.723	66.3177
844.41	65.4975
846.097	64.0345
847.782	64.1296
849.469	64.3558
851.155	63.7755
852.841	62.59
854.525	61.0985
856.21	60.4355
857.895	59.1964
859.577	57.9304
861.262	56.7332
862.946	55.5897
864.628	54.3588
866.311	53.9588
867.994	52.5997
869.675	51.976
871.357	51.2131
873.039	49.7483
874.719	49.5455
876.401	49.068
878.082	48.6959
879.761	48.0268
881.441	47.483
883.12	47.8255
884.799	48.0494
886.479	46.9995
888.156	46.4915
889.835	45.6932
891.512	45.9359
893.19	44.8244
894.866	44.3763
896.544	43.804
898.22	43.7766
899.897	43.7191
901.573	43.0006
903.248	42.494
904.924	42.5649
906.598	43.0039
908.271	43.0716
909.947	43.4942
911.62	44.5454
913.294	44.9027
914.966	45.2742
916.64	44.95
918.312	45.1138
919.985	45.3786
921.656	46.2822
923.329	45.5745
925	45.153
926.67	44.0894
928.341	43.5085
930.011	42.9611
931.68	43.6254
933.351	42.1731
935.019	41.8678
936.69	40.997
938.358	40.1675
940.025	40.242
941.694	39.3641
943.361	38.5462
945.028	37.5559
946.696	35.6867
948.362	35.1234
950.028	34.882
951.694	33.0341
953.361	32.7334
955.026	31.2667
956.69	30.4736
958.356	29.67
960.02	28.8518
961.684	27.6643
963.347	27.19
965.012	26.7243
966.674	26.9109
968.337	26.962
969.999	25.5637
971.661	24.5546
973.324	23.8824
974.985	23.6131
976.646	22.1562
978.306	21.8752
979.966	22.4091
981.626	21.3129
983.288	21.1369
984.947	21.0445
986.606	20.9408
988.264	20.0647
989.923	18.9608
991.581	18.7481
993.238	18.4865
994.896	17.9336
996.553	16.4166
998.212	14.6758
999.868	12.8581
1001.52	11.4581
1003.18	9.87527
1004.84	9.08405
1006.49	7.72292
1008.15	10.8395
1009.8	12.0072
1011.45	16.077
1013.11	19.7253
1014.76	24.2706
1016.42	28.8714
1018.07	33.6945
1019.72	38.8225
1021.37	42.696
1023.03	47.3302
1024.68	51.7922
1026.33	56.1923
1027.98	60.3363
1029.63	63.926
1031.28	67.1673
1032.93	69.583
1034.58	71.7602
1036.23	74.455
1037.88	74.7951
1039.53	76.6852
1041.18	77.9581
1042.83	79.451
1044.47	78.8479
1046.12	79.7337
1047.77	80.0297
1049.42	80.0097
1051.06	79.9978
1052.71	77.3274
1054.35	75.4797
1056	73.3812
1057.64	70.9078
1059.29	68.0508
1060.94	65.3953
1062.58	62.5895
1064.22	57.7338
1065.87	53.458
1067.51	48.4543
1069.15	43.6343
1070.8	38.194
1072.44	34.3761
1074.08	30.4899
1075.72	25.5355
1077.36	20.6808
1079.01	16.0823
1080.65	12.808
1082.29	9.09287
1083.93	5.99808
1085.57	4.29682
1087.21	5.10598
1088.85	5.72743
1090.49	8.07512
1092.12	8.44228
1093.76	10.0867
1095.4	10.2844
1097.04	11.5507
1098.68	12.304
1100.31	12.2375
1101.95	13.0958
1103.59	13.0036
1105.22	14.8303
1106.86	15.4124
1108.49	15.9407
1110.13	15.4911
1111.76	14.588
1113.4	13.9948
1115.03	14.3225
1116.66	14.506
1118.3	12.9302
1119.93	12.2465
1121.57	12.4694
1123.2	12.2886
1124.83	11.3562
1126.46	9.81619
1128.09	11.0783
1129.72	10.5179
1131.36	9.82263
1132.99	9.82798
1134.62	8.34523
1136.25	7.90015
1137.88	7.44345
1139.51	7.41082
1141.14	7.20024
1142.77	6.83459
1144.39	7.09567
1146.02	6.76353
1147.65	5.50115
1149.28	6.09087
1150.9	5.74508
1152.53	4.55754
1154.16	4.97188
1155.78	4.60453
1157.41	3.83702
1159.04	4.10947
1160.66	4.33142
1162.29	3.51858
1163.91	2.27805
1165.54	2.40283
1167.16	2.81639
1168.78	3.46543
1170.41	3.00663
1172.03	2.86964
1173.65	2.63591
1175.27	2.33361
1176.9	2.04855
1178.52	2.40413
1180.14	2.83324
1181.76	3.09854
1183.38	4.23374
1185	5.38401
1186.62	6.01545
1188.24	6.48963
1189.86	7.13684
1191.48	7.62544
1193.1	8.69202
1194.72	8.5048
1196.34	9.1416
1197.96	9.83566
1199.58	9.85822
1201.19	11.1212
1202.81	11.3747
1204.43	12.0535
1206.04	12.4373
1207.66	13.376
1209.28	14.6894
1210.89	14.8023
1212.51	15.7288
1214.12	16.3562
1215.74	18.0978
1217.35	18.4568
1218.97	18.4577
1220.58	19.2951
1222.19	19.4883
1223.81	20.0534
1225.42	20.9562
1227.03	20.6735
1228.64	20.6224
1230.26	21.2489
1231.87	21.5894
1233.48	22.2753
1235.09	22.8582
1236.7	22.8053
1238.31	23.4795
1239.92	24.7377
1241.53	25.7913
1243.14	25.5536
1244.75	25.5559
1246.36	24.908
1247.97	25.8177
1249.57	25.9174
1251.18	24.7698
1252.79	24.2218
1254.4	24.6341
1256	24.0581
1257.61	24.2847
1259.22	25.638
1260.82	26.32
1262.43	26.537
1264.03	25.8884
1265.64	26.0935
1267.24	26.3302
1268.85	26.5587
1270.45	27.7773
1272.06	28.221
1273.66	28.8339
1275.26	29.0754
1276.87	30.2627
1278.47	30.6055
1280.07	30.0521
1281.67	30.4439
1283.28	30.9064
1284.88	31.1815
1286.48	32.354
1288.08	33.201
1289.68	33.6595
1291.28	34.2065
1292.88	35.7083
1294.48	37.1521
1296.08	38.301
1297.68	37.4426
1299.28	37.6779
1300.87	39.992
1302.47	40.1144
1304.07	41.5851
1305.67	42.6428
1307.26	42.8105
1308.86	44.3535
1310.46	45.3679
1312.05	46.5409
1313.65	47.0838
1315.24	47.7036
1316.84	48.7841
1318.44	49.8506
1320.03	50.0146
1321.62	50.5669
1323.22	49.6266
1324.81	50.226
1326.4	50.9539
1328	51.9652
1329.59	52.0019
1331.18	51.8581
1332.78	51.986
1334.37	52.0311
1335.96	51.7537
1337.55	51.7814
1339.14	51.4795
1340.73	50.7327
1342.32	49.5273
1343.91	48.5847
1345.5	48.7942
1347.09	49.0603
1348.68	49.4441
1350.27	48.8408
1351.86	47.6387
1353.45	47.0449
1355.03	46.2757
1356.62	45.9559
1358.21	45.4095
1359.8	44.65
1361.38	44.6441
1362.97	42.9366
1364.56	41.0657
1366.14	40.6036
1367.73	39.6829
1369.31	37.9936
1370.9	37.4455
1372.48	36.865
1374.07	36.3276
1375.65	35.1492
1377.23	33.5565
1378.82	33.8223
1380.4	34.3752
1381.98	33.3169
1383.57	33.7069
1385.15	33.67
1386.73	33.6549
1388.31	34.3126
1389.89	34.1845
1391.47	34.6796
1393.05	34.8802
1394.63	35.3854
1396.21	34.462
1397.79	35.1421
1399.37	35.7237
1400.95	36.3663
1402.53	35.6624
1404.11	36.3292
1405.69	36.7027
1407.27	36.3762
1408.84	37.0489
1410.42	37.6164
1412	37.7845
1413.57	38.3775
1415.15	39.3876
1416.73	39.9996
1418.3	40.7603
1419.88	42.0615
1421.45	42.3007
1423.03	43.0672
1424.6	44.1149
1426.18	45.303
1427.75	45.9838
1429.33	46.079
1430.9	48.2107
1432.47	49.862
1434.04	51.451
1435.62	52.5388
1437.19	52.8311
1438.76	52.4271
1440.33	52.7304
1441.91	52.1743
1443.47	52.5466
1445.05	53.3631
1446.62	53.1105
1448.19	52.9793
1449.76	54.3915
1451.33	54.7349
1452.9	55.0112
1454.46	54.7844
1456.03	55.0223
1457.6	56.4406
1459.17	56.8524
1460.74	57.8672
1462.3	58.0818
1463.87	58.4533
1465.44	58.2749
1467.01	58.6004
1468.57	58.2295
1470.14	58.5944
1471.7	58.2924
1473.27	57.3525
1474.83	56.91
1476.4	57.7262
1477.96	57.1458
1479.53	56.3294
1481.09	56.1049
1482.65	56.1935
1484.22	55.9112
1485.78	54.6702
1487.34	54.1029
1488.91	52.6413
1490.47	50.938
1492.03	50.0247
1493.59	48.1647
1495.15	46.9111
1496.71	45.3313
1498.27	44.0011
1499.83	43.0703
1501.39	41.7802
1502.95	40.6428
1504.51	39.6979
1506.07	37.7351
1507.63	36.6161
1509.19	36.0331
1510.75	34.3126
1512.3	32.5064
1513.86	30.1494
1515.42	27.4855
1516.98	24.9772
1518.53	24.7918
1520.09	24.0696
1521.65	22.8117
1523.2	22.7857
1524.76	22.3984
1526.31	22.1297
1527.87	22.4118
1529.42	22.1501
1530.98	21.7036
1532.53	22.4624
1534.08	22.9007
1535.64	23.1856
1537.19	24.3996
1538.74	25.5358
1540.3	25.8671
1541.85	26.4723
1543.4	27.0397
1544.95	27.912
1546.5	28.5694
1548.05	29.7354
1549.61	31.0202
1551.16	31.2795
1552.71	32.8084
1554.26	33.7907
1555.81	34.0466
1557.36	34.5072
1558.9	34.3994
1560.45	33.7102
1562	33.0909
1563.55	33.3894
1565.1	34.3663
1566.64	34.3497
1568.19	34.4312
1569.74	34.3046
1571.29	33.8309
1572.83	35.2078
1574.38	35.0199
1575.93	35.6671
1577.47	36.3425
1579.02	36.2518
1580.56	36.188
1582.1	36.4981
1583.65	36.1561
1585.19	36.9048
1586.74	36.8326
1588.28	36.0181
1589.82	36.7703
1591.37	37.2016
1592.91	37.9241
1594.45	38.9719
1595.99	41.0968
1597.54	41.6165
1599.08	41.3362
1600.62	40.979
1602.16	41.4272
1603.7	42.1311
1605.24	42.391
1606.78	42.9473
1608.32	42.9968
1609.86	43.7787
1611.4	44.134
1612.94	44.6894
1614.48	45.4643
1616.01	45.2643
1617.55	44.8852
1619.09	44.5608
1620.63	44.6485
1622.16	44.3329
1623.7	44.2468
1625.24	44.3389
1626.77	44.9785
1628.31	44.8173
1629.84	45.0586
1631.38	45.1352
1632.92	44.4751
1634.45	43.88
1635.98	43.3628
1637.52	43.3433
1639.05	44.0349
1640.59	45.0234
1642.12	44.4499
1643.65	43.8974
1645.19	44.0556
1646.72	44.894
1648.25	44.7297
1649.78	45.0564
1651.31	45.695
1652.85	46.4539
1654.38	46.5033
1655.91	46.0004
1657.44	44.8704
1658.97	44.3537
1660.5	43.6257
1662.03	42.8742
1663.56	42.5828
1665.08	42.3372
1666.61	41.9588
1668.14	41.237
1669.67	40.589
1671.2	39.6094
1672.72	38.8799
1674.25	38.0472
1675.78	36.6807
1677.31	35.1514
1678.83	35.3655
1680.36	33.7191
1681.88	31.9498
1683.41	30.9175
1684.93	29.1526
1686.46	28.2186
1687.98	26.8533
1689.51	24.8619
1691.03	22.406
1692.56	21.2255
1694.08	20.1153
1695.6	18.8223
1697.13	17.6246
1698.65	16.5407
1700.17	16.0338
1701.69	15.7348
1703.21	15.5944
1704.74	14.3947
1706.26	13.2067
1707.78	12.8703
1709.3	11.927
1710.82	11.3047
1712.34	11.4737
1713.86	11.1222
1715.38	11.3303
1716.9	10.4582
1718.42	9.45185
1719.94	9.61893
1721.45	9.23123
1722.97	9.10718
1724.49	8.304
1726.01	8.63776
1727.52	8.78995
1729.04	7.61732
1730.56	6.40416
1732.07	5.59333
1733.59	5.61276
1735.11	6.14552
1736.62	6.94287
1738.14	6.83754
1739.65	7.64219
1741.17	7.43519
1742.68	7.24785
1744.19	8.00996
1745.71	7.80109
1747.22	7.25641
1748.74	7.64094
1750.25	7.79353
1751.76	7.11242
1753.27	6.34621
1754.79	6.21075
1756.3	5.92903
1757.81	5.57819
1759.32	6.00047
1760.83	5.80355
1762.34	6.18989
1763.85	5.74191
1765.36	5.68741
1766.87	5.64435
1768.38	6.29149
1769.89	6.28463
1771.4	6.57913
1772.91	6.69612
1774.42	6.93367
1775.93	6.76279
1777.43	6.96334
1778.94	6.91263
1780.45	5.739
1781.95	5.46522
1783.46	5.74879
1784.97	5.65772
1786.47	6.09339
1787.98	6.25876
1789.49	6.23097
1790.99	6.19606
1792.5	5.25317
1794	5.04659
1795.51	5.1801
1797.01	4.66674
1798.51	3.89361
1800.02	3.17773
1801.52	2.92598
1803.02	2.82689
1804.53	2.50693
1806.03	2.65933
1807.53	3.30016
1809.03	4.11874
1810.53	4.88085
1812.03	4.63663
1813.54	4.06891
1815.04	4.95888
1816.54	4.8888
1818.04	4.60741
1819.54	3.98955
1821.04	3.40289
1822.54	3.52813
1824.04	3.6437
1825.53	2.98121
1827.03	2.79755
1828.53	2.43901
1830.03	2.63315
1831.53	3.07095
1833.02	3.32199
1834.52	3.59739
1836.02	3.24788
1837.52	3.49355
1839.01	3.00102
1840.51	3.15211
1842	3.52832
1843.5	3.77628
1844.99	3.50513
1846.49	3.0664
1847.98	2.82456
1849.48	2.91268
1850.97	2.48672
1852.47	2.54619
1853.96	2.17992
1855.45	1.81439
1856.95	2.59008
1858.44	2.96345
1859.93	2.62496
1861.42	2.0857
1862.91	1.79946
1864.4	1.61028
1865.9	0.750164
1867.39	0.998226
1868.88	0.463632
1870.37	-0.181033
1871.86	-0.140337
1873.35	0.112332
1874.84	1.06479
1876.33	2.22761
1877.82	3.10333
1879.31	3.52539
1880.79	4.14997
1882.28	4.73024
1882.53	4.58509
1884.02	4.54073
1885.52	3.5305
1887.01	4.21706
1888.51	4.61689
1890	4.77178
1891.49	4.22859
1892.99	3.77732
1894.48	4.37858
1895.97	5.27274
1897.46	4.98527
1898.96	5.05899
1900.45	5.61365
1901.94	5.98848
1903.43	5.52883
1904.92	6.36085
1906.41	6.88954
1907.9	5.90499
1909.39	5.68721
1910.88	5.32538
1912.37	4.66717
1913.86	4.90586
1915.35	5.14487
1916.84	4.89495
1918.32	4.57558
1919.81	5.3594
1921.3	5.33658
1922.79	5.34004
1924.27	5.28665
1925.76	5.27324
1927.25	4.76757
1928.73	4.68698
1930.22	4.83669
1931.7	3.94957
1933.19	3.34449
1934.68	3.41805
1936.16	4.17262
1937.65	4.49807
1939.13	4.37868
1940.61	5.10294
1942.1	5.3003
1943.58	5.93201
1945.06	6.42143
1946.55	7.30744
1948.03	7.4344
1949.51	8.0394
1950.99	8.02858
1952.48	7.72097
1953.96	7.62022
1955.44	7.4076
1956.92	7.39887
1958.4	8.58641
1959.88	8.76329
1961.36	9.08836
1962.84	8.71153
1964.32	8.72175
1965.8	8.25462
1967.28	7.97082
1968.76	9.17077
1970.24	8.94355
1971.72	8.21115
1973.19	8.08118
1974.67	8.15797
1976.15	7.60009
1977.63	7.19985
1979.1	7.94957
1980.58	7.38973
1982.06	6.85781
1983.53	7.91628
1985.01	7.89202
1986.48	7.78222
1987.96	8.51823
1989.43	8.62736
1990.91	8.19192
1992.39	8.17273
1993.86	8.31709
1995.33	7.99218
1996.81	8.51334
1998.28	8.17319
1999.75	7.95178
2001.23	8.72928
2002.7	9.21415
2004.17	9.10562
2005.64	8.60136
2007.11	8.08467
2008.59	7.97572
2010.06	7.9951
2011.53	8.07987
2013	8.44816
2014.47	9.03192
2015.94	8.99886
2017.41	8.27131
2018.88	8.1292
2020.35	7.82227
2021.82	7.26757
2023.29	7.41083
2024.76	7.20487
2026.22	7.10583
2027.69	7.36898
2029.16	7.46199
2030.63	7.39511
2032.09	7.23549
2033.56	6.24315
2035.03	5.18661
2036.5	4.77495
2037.96	4.46946
2039.43	4.27691
2040.89	3.57485
2042.36	4.59994
2043.82	4.34495
2045.29	4.8873
2046.75	4.75721
2048.22	4.75443
2049.68	4.14236
2051.14	4.38186
2052.61	4.44613
2054.07	4.46129
2055.53	4.38204
2057	4.43479
2058.46	4.11378
2059.92	4.69653
2061.38	5.05708
2062.85	5.54098
2064.31	6.23161
2065.77	7.0566
2067.23	7.56384
2068.69	8.27476
2070.15	9.06098
2071.61	9.30092
2073.07	9.88185
2074.53	9.37633
2075.99	8.54958
2077.45	8.42204
2078.91	8.2733
2080.36	8.42396
2081.82	9.08199
2083.28	9.60738
2084.74	9.97574
2086.19	10.2898
2087.65	10.1876
2089.11	10.2477
2090.57	9.94358
2092.02	10.2842
2093.48	10.5356
2094.93	11.504
2096.39	12.1252
2097.84	12.259
2099.3	11.6628
2100.75	11.5265
2102.21	11.5364
2103.66	11.7402
2105.12	12.2478
2106.57	12.5612
2108.02	12.4897
2109.48	12.5217
2110.93	13.7957
2112.38	14.7832
2113.83	15.8324
2115.29	16.5208
2116.74	16.5223
2118.19	16.2961
2119.64	15.9966
2121.09	16.3117
2122.54	17.1011
2123.99	18.1489
2125.44	19.0886
2126.89	20.2954
2128.34	21.2969
2129.79	23.2578
2131.24	23.9179
