#Acq. time (s)=	45
#Accumulations=	2
#Range (cm-¹)=	200...3150
#Windows=	2
#Auto scanning=	Off
#Autofocus=	Off
#Macrospot=	Off
#AutoExposure=	Off
#Spike filter=	Multiple accum.
#Delay time (s)=	0
#Binning=	1
#Readout mode=	Signal
#DeNoise=	Off
#ICS correction=	On
#Dark correction=	Off
#Inst. Process=	Off
#Detector Gain=	Best Dynamic Range
#Detector ADC=	20 kHz       
#Detector temperature (°C)=	-70.08
#Instrument=	LabRAM HR Evol
#Detector=	Synapse
#Objective=	x100
#Grating=	600 gr/mm
#ND Filter=	100%
#Laser (nm)=	532 
#Hole=	100.021
#Range=	Auto
#Laser Pol.=	No
#Raman. Pol.=	No
#Laser Pol. (°)=	-0.0007625
#Raman Pol. (°)=	89.9995
#Collection=	Microscope
#StageXY=	Marzhauser
#StageZ=	Marzhauser
#X (µm)=	-2492.9
#Y (µm)=	-79
#Z (µm)=	-10.45
#Full time(mm:ss)=	3:19
#Project=	
#Sample=	
#Site=	
#Title=	Mb_40_24_35_2x_45s_532 nm_x100_100%_600 gr_mm
#Remark=	
#Date=	14.07.2022 13:15
#Acquired=	14.07.2022 13:15:35
#Edit:Spike=	14.07.2022 13:18:05
#Base:Fit=	10.08.2022 10:47:00
#Base:Sub=	10.08.2022 10:47:12
#Filter:Polynom=	16.08.2022 10:11:48
#AxisType[0]=Intens
#AxisUnit[0]=Cnt
#AxisType[1]=Spectr
#AxisUnit[1]=1/cm
200.554	32.9841
202.369	32.9368
204.183	32.0219
205.999	33.2921
207.813	31.6671
209.626	30.3525
211.439	29.79
213.253	29.25
215.065	27.9755
216.877	28.013
218.688	28.318
220.5	28.6142
222.312	27.9211
224.123	25.0359
225.933	25.7242
227.742	25.1384
229.552	23.0925
231.361	21.7336
233.171	20.1774
234.98	18.7527
236.787	18.6971
238.595	17.5652
240.402	17.7134
242.209	16.2976
244.015	16.2491
245.822	15.8901
247.627	14.1664
249.435	13.188
251.24	11.7781
253.045	10.576
254.849	10.3725
256.653	11.0917
258.457	9.44685
260.26	8.8542
262.063	9.08664
263.866	8.83878
265.668	8.30942
267.47	7.66077
269.271	8.60366
271.073	7.22284
272.873	5.50348
274.674	5.22987
276.474	5.54541
278.274	3.94155
280.073	3.16368
281.872	1.4361
283.671	1.32681
285.47	0.530025
287.268	0.90921
289.065	-0.216996
290.863	1.0296
292.66	2.01631
294.456	2.2292
296.253	1.70544
298.049	4.51599
299.844	4.17285
301.637	6.11807
303.432	6.39286
305.227	8.27963
307.021	10.5747
308.815	10.8175
310.609	11.407
312.402	11.6014
314.195	12.9707
315.987	14.8922
317.777	15.2906
319.569	16.3403
321.36	17.9991
323.151	19.9686
324.942	20.0127
326.733	20.2531
328.521	21.0122
330.31	22.6477
332.1	23.619
333.889	25.2087
335.677	24.8486
337.464	25.0438
339.252	24.8423
341.039	24.432
342.826	25.2168
344.611	25.4467
346.398	25.7781
348.184	24.5229
349.97	23.8854
351.754	23.0046
353.539	21.2837
355.324	19.0912
357.106	17.332
358.89	15.0875
360.674	12.9727
362.455	10.791
364.239	10.2691
366.021	9.59329
367.804	9.16918
369.584	9.20215
371.366	8.76135
373.145	9.6694
374.926	9.00749
376.707	9.25302
378.485	8.68532
380.265	9.34115
382.045	8.87748
383.822	8.28874
385.601	8.71165
387.378	8.97434
389.156	9.9575
390.934	11.387
392.71	12.2353
394.487	12.3113
396.262	11.5043
398.038	11.2872
399.813	12.3223
401.588	12.3455
403.362	13.1287
405.137	14.1219
406.912	13.7837
408.685	14.06
410.459	14.7962
412.23	14.6502
414.004	14.0368
415.775	15.2956
417.548	17.9781
419.318	18.302
421.089	19.4028
422.86	18.9003
424.63	18.2559
426.401	18.175
428.17	17.8758
429.94	18.5668
431.708	19.5126
433.478	19.7142
435.245	19.3087
437.012	18.3235
438.781	18.3384
440.547	16.9074
442.315	16.8896
444.081	17.7266
445.846	17.5667
447.613	18.3178
449.378	19.8468
451.142	20.202
452.908	21.969
454.672	22.3653
456.435	23.5597
458.2	24.3935
459.963	23.6663
461.725	23.999
463.489	24.2218
465.251	24.9122
467.012	25.3828
468.775	26.625
470.536	27.5781
472.296	28.3405
474.056	29.8591
475.817	29.8448
477.576	31.8531
479.335	31.6659
481.094	32.1346
482.854	33.0431
484.612	35.4216
486.37	36.4955
488.127	37.5621
489.886	38.3569
491.642	40.4877
493.398	41.9989
495.154	42.2462
496.91	44.0046
498.667	45.3168
500.422	44.75
502.176	46.4496
503.93	47.9862
505.684	49.8624
507.438	50.4682
509.191	52.0646
510.946	52.2295
512.698	53.0328
514.45	53.6912
516.202	55.5634
517.954	56.2875
519.705	57.1513
521.456	56.4174
523.206	56.639
524.956	56.8569
526.706	57.3729
528.456	56.9648
530.207	57.2188
531.956	57.187
533.704	56.5418
535.452	57.1564
537.2	55.5821
538.947	53.8633
540.694	53.103
542.441	50.9459
544.188	49.9782
545.934	49.3989
547.68	47.4303
549.425	45.9939
551.17	45.6646
552.915	45.2907
554.659	42.7762
556.403	41.6343
558.145	40.6998
559.889	39.4283
561.632	38.9238
563.375	37.1757
565.117	36.2479
566.859	34.602
568.601	34.0586
570.342	33.0018
572.083	32.0194
573.824	29.786
575.565	29.0393
577.303	28.3197
579.043	28.9818
580.782	28.7477
582.521	27.9731
584.26	27.5222
585.998	27.4182
587.734	26.9805
589.472	27.0323
591.21	26.8979
592.947	26.6139
594.684	26.2996
596.418	26.7908
598.154	26.6386
599.89	27.0977
601.626	28.1686
603.361	29.7965
605.094	29.1458
606.828	28.6237
608.562	28.445
610.296	29.8315
612.027	29.489
613.761	28.7713
615.493	29.5393
617.224	29.075
618.956	27.6034
620.688	26.5238
622.419	26.3778
624.149	26.4743
625.879	26.5346
627.61	27.5369
629.338	27.4244
631.068	28.4448
632.797	29.0421
634.525	28.4631
636.254	28.1424
637.98	28.9595
639.708	26.925
641.436	25.6078
643.162	25.0735
644.889	24.6285
646.614	23.4557
648.34	22.8893
650.067	21.9547
651.791	22.0838
653.516	21.6742
655.239	19.2294
656.964	18.7795
658.687	17.6491
660.411	16.58
662.133	16.3212
663.857	15.8198
665.58	16.2013
667.301	14.3605
669.024	13.8276
670.744	12.5987
672.464	11.6762
674.186	11.5941
675.905	11.2578
677.626	12.6408
679.345	13.8539
681.065	14.5085
682.783	15.7561
684.503	15.2422
686.22	16.3003
687.939	16.4002
689.656	15.8962
691.372	15.7516
693.09	15.9393
694.806	15.8782
696.523	15.8728
698.239	15.8214
699.953	17.5712
701.67	20.0998
703.384	20.2454
705.098	21.7737
706.813	24.4993
708.526	27.0461
710.239	29.2973
711.954	30.2952
713.666	32.3133
715.378	31.8637
717.091	32.1183
718.802	31.9164
720.513	31.2085
722.226	31.53
723.936	31.3054
725.646	30.4552
727.355	31.9107
729.067	32.2747
730.776	32.8383
732.484	32.6918
734.192	32.5657
735.902	33.8922
737.61	32.1936
739.317	31.5287
741.024	31.1411
742.731	33.3866
744.439	33.2649
746.145	34.7041
747.851	36.6744
749.556	37.2277
751.262	38.9571
752.966	40.0566
754.673	41.8633
756.377	42.417
758.081	44.8467
759.784	45.2558
761.487	46.699
763.19	48.0125
764.892	48.3409
766.594	48.7762
768.296	49.1775
770	49.7453
771.701	50.7874
773.402	51.3804
775.102	52.1498
776.803	52.6191
778.503	53.2993
780.202	53.5324
781.901	56.0226
783.6	56.2085
785.299	58.5248
786.997	57.9533
788.695	59.2765
790.393	58.9959
792.09	59.339
793.787	61.2706
795.484	62.2233
797.18	62.2342
798.877	61.4785
800.572	60.21
802.268	59.6974
803.963	60.2032
805.658	60.0703
807.35	61.4776
809.044	59.8025
810.738	59.751
812.432	60.3486
814.125	57.7137
815.818	58.0043
817.51	58.7359
819.202	58.2274
820.894	58.963
822.584	60.4552
824.275	62.3002
825.966	64.1487
827.657	66.5306
829.347	66.6234
831.037	69.1599
832.725	70.2568
834.414	69.75
836.103	70.395
837.792	70.6189
839.481	70.9067
841.167	70.9539
842.854	71.2853
844.542	71.4132
846.229	71.819
847.914	71.9628
849.6	71.5507
851.287	71.1746
852.973	70.3687
854.656	70.7391
856.341	70.5728
858.026	70.2743
859.711	69.3817
861.393	69.703
863.077	70.4855
864.761	69.3779
866.442	69.6591
868.125	68.0879
869.808	69.6472
871.489	68.4003
873.171	68.9481
874.85	66.0559
876.532	66.2337
878.213	64.9346
879.892	62.151
881.572	60.3841
883.251	57.7163
884.931	55.3249
886.61	54.139
888.287	53.977
889.966	51.7677
891.643	51.2413
893.321	49.6274
894.997	48.5304
896.675	48.2159
898.352	46.5593
900.028	48.743
901.704	47.0807
903.379	48.3517
905.055	49.6814
906.729	50.727
908.404	50.216
910.077	51.1996
911.75	50.9989
913.425	50.9979
915.097	52.3244
916.771	50.5659
918.443	50.3626
920.116	50.893
921.787	50.7887
923.46	50.916
925.13	51.2466
926.8	51.3589
928.472	51.8822
930.141	51.3933
931.813	50.0737
933.481	49.7608
935.15	49.8966
936.82	49.865
938.488	50.3962
940.156	50.7458
941.825	50.466
943.492	51.4523
945.158	50.3869
946.827	48.7343
948.493	47.1486
950.158	46.5666
951.824	44.9068
953.491	42.4216
955.156	40.4753
956.82	37.6765
958.486	36.1472
960.15	35.9018
961.814	36.2428
963.477	37.0825
965.142	38.6684
966.804	39.1782
968.467	40.1299
970.129	42.4769
971.79	43.7952
973.454	45.2193
975.115	47.77
976.776	47.7841
978.436	48.5735
980.096	50.3644
981.756	51.9116
983.417	52.9938
985.077	51.9763
986.736	54.4941
988.394	53.7394
990.052	54.0168
991.71	53.7283
993.368	51.957
995.025	51.8928
996.682	51.7028
998.341	51.7307
999.998	50.464
1001.65	50.0879
1003.31	48.8299
1004.97	48.2737
1006.62	49.4393
1008.28	50.6473
1009.93	51.937
1011.58	54.6844
1013.24	56.0065
1014.89	58.0324
1016.54	61.0595
1018.2	63.5596
1019.85	65.9971
1021.5	70.501
1023.16	73.3921
1024.81	75.5137
1026.46	76.9413
1028.11	77.5868
1029.76	80.5505
1031.41	81.6705
1033.06	84.0351
1034.71	85.227
1036.36	85.6859
1038.01	89.0048
1039.66	91.3012
1041.31	95.4814
1042.95	97.2444
1044.6	99.3225
1046.25	101.717
1047.9	102.559
1049.54	103.468
1051.19	103.275
1052.84	103.34
1054.48	103.852
1056.13	103.907
1057.77	102.6
1059.42	101.006
1061.06	98.5213
1062.71	97.4399
1064.35	95.0984
1066	90.3756
1067.64	86.2333
1069.28	83.0659
1070.93	79.2267
1072.57	74.9441
1074.21	69.8769
1075.85	66.2137
1077.49	64.1506
1079.13	60.7999
1080.78	56.8172
1082.42	51.4863
1084.06	48.978
1085.7	47.6021
1087.34	46.2605
1088.97	45.6434
1090.61	44.5467
1092.25	43.7093
1093.89	44.2864
1095.53	42.7804
1097.17	43.1315
1098.8	41.8231
1100.44	42.7078
1102.08	41.729
1103.71	42.369
1105.35	40.4185
1106.99	40.4882
1108.62	40.3471
1110.26	40.8453
1111.89	39.5184
1113.52	39.0977
1115.16	38.9916
1116.79	37.0866
1118.43	35.8316
1120.06	35.2536
1121.69	33.9569
1123.32	33.0803
1124.96	30.4599
1126.59	30.1721
1128.22	30.2444
1129.85	29.252
1131.48	28.2758
1133.11	27.2772
1134.75	27.8403
1136.37	27.0338
1138	25.821
1139.63	25.1301
1141.26	23.4821
1142.89	21.2048
1144.52	22.0174
1146.15	18.5275
1147.78	16.1931
1149.4	15.0463
1151.03	14.2569
1152.66	13.3277
1154.28	11.5154
1155.91	9.80366
1157.54	9.4601
1159.16	8.2354
1160.79	6.51445
1162.41	5.49706
1164.04	4.97637
1165.66	5.5392
1167.29	3.47593
1168.91	2.36256
1170.53	3.00284
1172.16	3.39522
1173.78	4.48257
1175.4	4.27395
1177.02	2.964
1178.65	3.81557
1180.27	3.99676
1181.89	4.76995
1183.51	7.00873
1185.13	8.38513
1186.75	8.94903
1188.37	10.789
1189.99	12.1377
1191.61	12.4339
1193.23	12.9912
1194.85	13.9525
1196.47	14.2241
1198.08	15.2474
1199.7	16.7043
1201.32	18.8844
1202.94	19.9163
1204.55	21.6037
1206.17	22.4661
1207.79	24.9587
1209.4	27.3514
1211.02	29.9576
1212.63	31.1701
1214.25	33.0929
1215.86	35.1178
1217.48	34.791
1219.09	38.0986
1220.71	41.3812
1222.32	42.7646
1223.93	45.4876
1225.54	47.0185
1227.16	47.2062
1228.77	48.8742
1230.38	50.5011
1231.99	52.5035
1233.6	54.0123
1235.22	55.417
1236.83	56.8262
1238.44	59.7224
1240.05	61.164
1241.66	63.1188
1243.26	66.3436
1244.87	68.1801
1246.48	70.5009
1248.09	71.034
1249.7	74.8694
1251.31	77.0392
1252.92	78.3464
1254.52	79.7709
1256.13	81.4404
1257.74	84.809
1259.34	87.9529
1260.95	91.4612
1262.55	94.4866
1264.16	98.2156
1265.76	97.9656
1267.37	102.926
1268.97	106.838
1270.58	110.456
1272.18	113.4
1273.78	116.785
1275.39	119.206
1276.99	123.388
1278.59	127.175
1280.2	131.1
1281.8	132.944
1283.4	134.542
1285	138.436
1286.6	141.564
1288.2	144.767
1289.8	147.699
1291.4	149.072
1293	149.316
1294.6	150.319
1296.2	152.077
1297.8	152.093
1299.4	154.22
1301	154.496
1302.6	153.558
1304.19	152.836
1305.79	151.047
1307.39	149.983
1308.99	150.202
1310.58	148.714
1312.18	149.184
1313.77	147.607
1315.37	146.535
1316.96	145.212
1318.56	144.585
1320.15	143.014
1321.75	140.665
1323.34	139.122
1324.94	135.253
1326.53	132.642
1328.12	129.855
1329.72	127.821
1331.31	124.684
1332.9	122.498
1334.49	121.052
1336.08	119.897
1337.67	118.226
1339.27	116.838
1340.86	114.524
1342.45	113.405
1344.04	112.194
1345.63	110.607
1347.22	111.821
1348.8	110.156
1350.39	109.893
1351.98	109.287
1353.57	109.505
1355.16	109.364
1356.75	108.638
1358.33	108.477
1359.92	107.419
1361.51	105.368
1363.09	105.091
1364.68	106.179
1366.27	106.448
1367.85	105.934
1369.44	106.12
1371.02	106.25
1372.61	106.255
1374.19	106.899
1375.77	106.452
1377.36	107.184
1378.94	109.593
1380.52	111.048
1382.11	112.269
1383.69	113.628
1385.27	116.307
1386.85	118.531
1388.43	120.509
1390.02	121.338
1391.6	124.097
1393.18	124.657
1394.76	126.261
1396.34	127.812
1397.92	130.496
1399.5	132.289
1401.08	134.103
1402.65	137.163
1404.23	141.141
1405.81	146.129
1407.39	149.904
1408.97	153.849
1410.54	160.606
1412.12	166.205
1413.7	171.544
1415.27	178.091
1416.85	184.325
1418.43	190.481
1420	195.763
1421.58	203.124
1423.15	209.627
1424.73	216.759
1426.3	224.232
1427.87	230.194
1429.45	236.335
1431.02	242.503
1432.6	247.581
1434.17	252.192
1435.74	256.951
1437.31	260.975
1438.89	263.983
1440.46	265.627
1442.03	267.994
1443.6	269.276
1445.17	269.6
1446.74	267.591
1448.31	266.312
1449.88	263.593
1451.45	261.257
1453.02	257.032
1454.59	252.225
1456.16	248.427
1457.72	242.504
1459.29	236.187
1460.86	230.097
1462.43	223.876
1463.99	215.895
1465.56	205.847
1467.13	197.127
1468.69	186.464
1470.26	177.338
1471.83	167.24
1473.39	158.487
1474.95	149.076
1476.52	140.84
1478.08	132.266
1479.65	124.406
1481.21	116.383
1482.78	109.025
1484.34	102.141
1485.9	95.5242
1487.47	89.8842
1489.03	84.8525
1490.59	79.5004
1492.15	74.8814
1493.71	70.1415
1495.27	65.6029
1496.84	60.4653
1498.39	57.2597
1499.96	55.7132
1501.52	53.4582
1503.07	51.4632
1504.64	48.901
1506.19	48.1598
1507.75	47.4373
1509.31	46.7323
1510.87	44.5186
1512.43	44.1511
1513.98	43.5308
1515.54	42.021
1517.1	41.856
1518.65	40.8044
1520.21	40.4234
1521.77	41.0563
1523.32	42.4694
1524.88	41.996
1526.44	43.4901
1527.99	43.8519
1529.54	45.0361
1531.1	44.6704
1532.65	46.2764
1534.21	47.6981
1535.76	48.8218
1537.31	50.9836
1538.87	53.2807
1540.42	54.8749
1541.97	55.2832
1543.52	56.9814
1545.07	58.6735
1546.63	59.688
1548.18	64.2024
1549.73	65.8555
1551.28	68.7055
1552.83	70.8859
1554.38	73.3475
1555.93	76.1312
1557.48	78.6666
1559.03	81.2002
1560.57	83.2692
1562.12	86.8806
1563.67	89.2198
1565.22	91.7753
1566.77	94.7556
1568.31	97.4311
1569.86	99.3369
1571.41	101.453
1572.95	104.932
1574.5	108.209
1576.05	113.093
1577.59	116.088
1579.14	118.806
1580.68	122.883
1582.23	127.467
1583.77	131.089
1585.31	132.079
1586.86	135.759
1588.4	138.204
1589.95	141.38
1591.49	144.995
1593.03	146.704
1594.57	147.905
1596.11	149.577
1597.66	151.537
1599.2	153.647
1600.74	154.855
1602.28	154.708
1603.82	154.465
1605.36	153.73
1606.9	153.858
1608.44	153.755
1609.98	153.556
1611.52	152.793
1613.06	153.36
1614.6	153.917
1616.13	154.259
1617.67	153.355
1619.21	153.07
1620.75	153.238
1622.28	152.375
1623.82	152.015
1625.36	151.604
1626.89	150.675
1628.43	151.673
1629.96	151.657
1631.5	151.907
1633.04	152.855
1634.57	151.854
1636.11	153.604
1637.64	153.895
1639.17	154.923
1640.71	153.911
1642.24	155.232
1643.77	156.847
1645.31	157.518
1646.84	159.217
1648.37	159.353
1649.9	161.267
1651.43	160.996
1652.96	161.024
1654.5	160.351
1656.03	160.176
1657.56	160.242
1659.09	158.99
1660.62	156.266
1662.15	154.227
1663.67	152.77
1665.2	149.551
1666.73	146.754
1668.26	143.68
1669.79	139.125
1671.32	135.446
1672.84	131.911
1674.37	127.259
1675.9	122.969
1677.43	118.291
1678.95	111.461
1680.48	106.879
1682	102.133
1683.53	97.3722
1685.05	93.2503
1686.58	88.8415
1688.1	84.6295
1689.63	82.0422
1691.15	76.8408
1692.68	73.1604
1694.2	68.8627
1695.72	65.7352
1697.25	63
1698.77	59.6752
1700.29	57.9383
1701.81	56.13
1703.33	54.5638
1704.86	52.8528
1706.38	51.0346
1707.9	49.4739
1709.42	48.1957
1710.94	46.7545
1712.46	47.4015
1713.98	45.4555
1715.5	44.6583
1717.02	44.4859
1718.54	45.4263
1720.06	44.2647
1721.57	42.3428
1723.09	41.3713
1724.61	40.6005
1726.13	40.1607
1727.64	37.7068
1729.16	37.8801
1730.68	36.8614
1732.19	36.2652
1733.71	35.2826
1735.23	33.73
1736.74	33.1979
1738.26	31.9836
1739.77	29.9181
1741.29	28.1037
1742.8	26.8762
1744.31	26.4178
1745.83	25.4078
1747.34	23.7104
1748.85	21.549
1750.37	19.8957
1751.88	19.1143
1753.39	17.6299
1754.91	16.1791
1756.42	16.0565
1757.93	14.5304
1759.44	13.1508
1760.95	13.1285
1762.46	12.1515
1763.97	11.2035
1765.48	10.8988
1766.99	9.48888
1768.5	9.56439
1770.01	8.927
1771.52	9.5609
1773.03	9.38205
1774.54	8.39102
1776.04	8.05842
1777.55	6.90451
1779.06	6.13737
1780.57	6.08891
1782.07	6.63119
1783.58	6.79412
1785.09	7.50811
1786.59	7.68776
1788.1	7.44645
1789.6	6.67599
1791.11	6.5527
1792.61	5.30925
1794.12	4.39167
1795.62	4.00944
1797.13	3.35489
1798.63	3.5149
1800.13	4.08388
1801.64	2.85946
1803.14	2.95013
1804.64	3.30003
1806.15	2.93082
1807.65	3.16646
1809.15	2.57091
1810.65	2.22405
1812.15	1.59949
1813.65	0.660849
1815.16	0.324976
1816.66	0.493981
1818.15	0.808996
1819.66	0.905396
1821.16	0.617647
1822.65	-0.336741
1824.15	-0.207865
1825.65	-0.280843
1827.15	-0.456641
1828.65	-0.833108
1830.15	-1.16358
1831.64	-1.30672
1833.14	-1.26566
1834.64	-1.85279
1836.14	-2.55124
1837.63	-2.57137
1839.13	-1.78879
1840.62	-0.538212
1842.12	-0.232051
1843.62	-0.167027
1845.11	0.0724225
1846.61	0.198385
1848.1	-0.335057
1849.6	-1.01371
1851.09	-1.02833
1852.58	-0.868014
1854.08	-0.387976
1855.57	0.87337
1857.06	1.81206
1858.55	2.67235
1860.05	2.81691
1861.54	2.42926
1863.03	1.32441
1864.52	1.74223
1866.01	2.23145
1867.5	2.5839
1869	2.67824
1870.49	2.91622
1871.98	2.66762
1873.47	2.55307
1874.96	2.77142
1876.44	3.12091
1877.93	3.13108
1879.42	2.99237
1880.91	3.16074
1882.4	3.32265
1882.47	2.98082
1883.96	3.66865
1885.46	3.31672
1886.95	4.45834
1888.44	4.03824
1889.94	3.37464
1891.43	3.65174
1892.93	4.68469
1894.42	5.4256
1895.91	4.83966
1897.4	4.55155
1898.89	4.1729
1900.39	4.74636
1901.88	5.51446
1903.37	5.69175
1904.86	5.39641
1906.35	4.91138
1907.84	4.83377
1909.33	5.36672
1910.82	6.74873
1912.31	7.05868
1913.8	6.69252
1915.29	6.0554
1916.77	5.74214
1918.26	5.96795
1919.75	6.34093
1921.24	6.21458
1922.73	5.55792
1924.21	6.11506
1925.7	5.77847
1927.19	5.68031
1928.67	5.04817
1930.16	4.77547
1931.64	4.83388
1933.13	4.60169
1934.61	3.73598
1936.1	3.7743
1937.58	4.60777
1939.07	4.22675
1940.55	3.90215
1942.04	3.1418
1943.52	3.13585
1945	3.04475
1946.49	3.31739
1947.97	2.94795
1949.45	2.83117
1950.93	2.91991
1952.42	3.60425
1953.9	4.64871
1955.38	4.18837
1956.86	4.29073
1958.34	4.77454
1959.82	4.54402
1961.3	5.58858
1962.78	5.56462
1964.26	6.10592
1965.74	6.99662
1967.22	7.62737
1968.7	7.73694
1970.18	7.8619
1971.65	8.11657
1973.13	9.4808
1974.61	10.0499
1976.09	9.66747
1977.57	8.72478
1979.04	8.50237
1980.52	9.41302
1982	10.0366
1983.47	9.76367
1984.95	9.39332
1986.42	9.45963
1987.9	9.43997
1989.37	9.40803
1990.85	9.37266
1992.32	9.32203
1993.8	8.68038
1995.27	7.62594
1996.75	7.01773
1998.22	7.41596
1999.69	6.22698
2001.17	5.43478
2002.64	5.76183
2004.11	6.22568
2005.58	6.13486
2007.05	5.49372
2008.53	5.23662
2010	5.19145
2011.47	5.36222
2012.94	4.3291
2014.41	3.66588
2015.88	2.96534
2017.35	2.56091
2018.82	2.6309
2020.29	1.91573
2021.76	1.79701
2023.23	2.6203
2024.7	3.78069
2026.16	3.95399
2027.63	4.56538
2029.1	4.52525
2030.57	5.58034
2032.03	5.76097
2033.5	5.83616
2034.97	6.42644
2036.44	6.83391
2037.9	6.80492
2039.37	8.44952
2040.83	9.88823
2042.3	10.9711
2043.76	12.1189
2045.23	13.1248
2046.69	14.9188
2048.16	15.3997
2049.62	16.4617
2051.08	17.018
2052.55	18.1757
2054.01	19.7751
2055.47	20.1832
2056.94	20.7462
2058.4	20.4523
2059.86	21.0595
2061.32	21.6309
2062.79	22.0744
2064.25	22.7239
2065.71	23.1618
2067.17	23.7
2068.63	24.4413
2070.09	24.7231
2071.55	25.9283
2073.01	25.9124
2074.47	27.1483
2075.93	29.1422
2077.39	29.625
2078.85	30.2736
2080.31	30.8765
2081.76	32.3675
2083.22	32.294
2084.68	34.075
2086.13	33.3948
2087.59	33.9692
2089.05	35.5567
2090.51	37.3266
2091.96	39.6284
2093.42	40.2996
2094.87	41.8137
2096.33	42.306
2097.78	44.0029
2099.24	44.378
2100.69	45.6056
2102.15	46.249
2103.6	46.7694
2105.06	48.2813
2106.51	50.4851
2107.96	53.8586
2109.42	56.338
2110.87	58.7023
2112.32	61.0603
2113.77	62.8837
2115.23	64.5403
2116.68	67.4244
2118.13	69.8882
2119.58	71.7951
2121.03	73.6548
2122.48	74.6987
2123.93	75.8482
2125.38	76.8829
2126.83	79.1458
2128.28	80.911
2129.73	83.1182
2131.18	84.3868
2132.63	87.2962
2134.08	90.2191
2135.53	92.0728
