#Acq. time (s)=	45
#Accumulations=	2
#Range (cm-¹)=	200...3150
#Windows=	2
#Auto scanning=	Off
#Autofocus=	Off
#Macrospot=	Off
#AutoExposure=	Off
#Spike filter=	Multiple accum.
#Delay time (s)=	0
#Binning=	1
#Readout mode=	Signal
#DeNoise=	Off
#ICS correction=	On
#Dark correction=	Off
#Inst. Process=	Off
#Detector Gain=	Best Dynamic Range
#Detector ADC=	20 kHz       
#Detector temperature (°C)=	-70.08
#Instrument=	LabRAM HR Evol
#Detector=	Synapse
#Objective=	x100
#Grating=	600 gr/mm
#ND Filter=	100%
#Laser (nm)=	532 
#Hole=	100.021
#Range=	Auto
#Laser Pol.=	No
#Raman. Pol.=	No
#Laser Pol. (°)=	-0.0007625
#Raman Pol. (°)=	89.9995
#Collection=	Microscope
#StageXY=	Marzhauser
#StageZ=	Marzhauser
#X (µm)=	-2541.9
#Y (µm)=	-38.3
#Z (µm)=	-10.35
#Full time(mm:ss)=	3:19
#Project=	
#Sample=	
#Site=	
#Title=	Mb_40_24_03_2x_45s_532 nm_x100_100%_600 gr_mm
#Remark=	
#Date=	14.07.2022 10:54
#Acquired=	14.07.2022 10:54:32
#Base:Fit=	10.08.2022 10:47:00
#Base:Sub=	10.08.2022 10:47:12
#Filter:Polynom=	16.08.2022 10:11:48
#AxisType[0]=Intens
#AxisUnit[0]=Cnt
#AxisType[1]=Spectr
#AxisUnit[1]=1/cm
200.554	24.0366
202.369	20.7688
204.183	19.1476
205.999	17.0804
207.813	15.6851
209.626	13.8068
211.439	12.4032
213.253	11.2737
215.065	10.005
216.877	8.25663
218.688	7.49402
220.5	7.47493
222.312	5.82262
224.123	4.49406
225.933	2.84107
227.742	3.1832
229.552	2.78936
231.361	2.99076
233.171	2.72591
234.98	2.86414
236.787	3.15857
238.595	3.17386
240.402	2.96457
242.209	3.39125
244.015	3.4088
245.822	3.69848
247.627	4.64224
249.435	5.50145
251.24	6.39017
253.045	6.35793
254.849	7.03602
256.653	7.98881
258.457	9.37161
260.26	9.1365
262.063	10.0571
263.866	10.9618
265.668	10.0045
267.47	9.34818
269.271	10.1548
271.073	9.75297
272.873	9.66844
274.674	9.65394
276.474	9.63416
278.274	8.74051
280.073	7.80429
281.872	8.18921
283.671	7.94396
285.47	6.66416
287.268	5.88332
289.065	6.88611
290.863	6.12066
292.66	6.08062
294.456	5.97917
296.253	5.59467
298.049	5.06078
299.844	6.2122
301.637	6.07474
303.432	6.21373
305.227	6.18721
307.021	6.57996
308.815	7.62668
310.609	8.86014
312.402	9.82867
314.195	10.8926
315.987	13.4152
317.777	14.814
319.569	15.8372
321.36	17.6589
323.151	18.1608
324.942	19.9229
326.733	20.3823
328.521	21.1254
330.31	20.9648
332.1	21.4455
333.889	22.0982
335.677	22.4812
337.464	23.8857
339.252	23.5242
341.039	23.2497
342.826	23.0428
344.611	24.1161
346.398	24.734
348.184	24.7992
349.97	23.9179
351.754	24.6292
353.539	24.8243
355.324	23.2238
357.106	24.0491
358.89	23.6675
360.674	22.7546
362.455	21.6959
364.239	21.927
366.021	21.4261
367.804	21.1905
369.584	21.022
371.366	20.0328
373.145	18.842
374.926	18.8137
376.707	19.6067
378.485	20.3926
380.265	20.3079
382.045	20.4667
383.822	20.7836
385.601	19.8994
387.378	19.8639
389.156	20.2816
390.934	20.9603
392.71	20.7071
394.487	20.5789
396.262	21.0445
398.038	22.1265
399.813	22.6506
401.588	22.6077
403.362	21.7849
405.137	21.4963
406.912	20.1883
408.685	19.8849
410.459	19.0705
412.23	18.0067
414.004	18.1955
415.775	15.7671
417.548	15.3628
419.318	15.0667
421.089	15.4261
422.86	14.848
424.63	14.6473
426.401	14.289
428.17	13.3023
429.94	12.136
431.708	11.5794
433.478	11.2105
435.245	10.5602
437.012	9.93294
438.781	9.44805
440.547	8.967
442.315	8.72912
444.081	9.07593
445.846	9.60507
447.613	9.75352
449.378	10.3874
451.142	11.1193
452.908	11.8853
454.672	12.2269
456.435	12.9839
458.2	12.0119
459.963	11.3266
461.725	12.9937
463.489	14.977
465.251	15.2357
467.012	16.5882
468.775	16.642
470.536	17.1525
472.296	16.3947
474.056	16.3435
475.817	16.6318
477.576	17.4338
479.335	18.4396
481.094	18.2342
482.854	18.98
484.612	19.7289
486.37	19.7907
488.127	19.8549
489.886	19.9712
491.642	19.6901
493.398	20.4744
495.154	20.9446
496.91	21.306
498.667	21.6132
500.422	22.6434
502.176	23.5353
503.93	22.8678
505.684	23.9151
507.438	24.2952
509.191	23.2796
510.946	22.3349
512.698	22.1744
514.45	21.1965
516.202	20.4047
517.954	19.3751
519.705	20.2431
521.456	19.9277
523.206	19.7599
524.956	20.4986
526.706	20.4269
528.456	19.8325
530.207	19.0053
531.956	18.9095
533.704	18.1522
535.452	18.5677
537.2	18.0144
538.947	17.033
540.694	16.0946
542.441	16.1917
544.188	15.9372
545.934	15.9047
547.68	15.5461
549.425	15.5131
551.17	13.9158
552.915	12.9225
554.659	12.406
556.403	10.6838
558.145	10.3079
559.889	9.55345
561.632	8.82083
563.375	7.52859
565.117	7.30475
566.859	7.3379
568.601	5.7024
570.342	5.48896
572.083	5.20093
573.824	5.49086
575.565	6.26072
577.303	4.75709
579.043	4.93281
580.782	5.18758
582.521	4.67068
584.26	5.07984
585.998	5.41462
587.734	6.12188
589.472	5.75859
591.21	4.50509
592.947	4.70482
594.684	5.21488
596.418	4.84999
598.154	4.87987
599.89	5.93164
601.626	6.43888
603.361	6.32153
605.094	7.30232
606.828	8.63575
608.562	7.97414
610.296	8.93861
612.027	9.55106
613.761	9.3361
615.493	10.2961
617.224	10.0729
618.956	10.6586
620.688	10.4929
622.419	10.416
624.149	10.6915
625.879	10.6553
627.61	11.4648
629.338	11.4448
631.068	10.7263
632.797	9.70636
634.525	8.61985
636.254	8.5968
637.98	8.08087
639.708	8.63917
641.436	8.95245
643.162	8.47933
644.889	8.06135
646.614	7.69252
648.34	7.73816
650.067	8.16092
651.791	9.69138
653.516	10.7602
655.239	10.1637
656.964	10.6652
658.687	10.2255
660.411	10.2278
662.133	9.67273
663.857	9.00376
665.58	9.75221
667.301	9.51834
669.024	10.0531
670.744	9.91909
672.464	9.99585
674.186	9.99432
675.905	9.33959
677.626	9.71568
679.345	11.3604
681.065	12.1603
682.783	13.1434
684.503	15.1992
686.22	16.3455
687.939	16.33
689.656	16.9275
691.372	16.7614
693.09	16.7019
694.806	16.1441
696.523	16.9669
698.239	17.0653
699.953	17.7466
701.67	16.5235
703.384	15.6432
705.098	15.9714
706.813	17.3016
708.526	16.4904
710.239	18.144
711.954	17.3672
713.666	18.1239
715.378	17.3371
717.091	16.9826
718.802	16.7515
720.513	17.32
722.226	17.1702
723.936	17.0296
725.646	16.819
727.355	16.72
729.067	16.3817
730.776	17.234
732.484	18.3102
734.192	17.4309
735.902	17.9351
737.61	19.3021
739.317	19.0134
741.024	18.251
742.731	19.4608
744.439	19.2832
746.145	20.4544
747.851	20.5527
749.556	22.0183
751.262	22.88
752.966	24.6538
754.673	25.7826
756.377	26.7923
758.081	28.2259
759.784	29.6641
761.487	30.731
763.19	33.1598
764.892	34.3016
766.594	35.594
768.296	36.7213
770	38.1937
771.701	38.0179
773.402	38.7115
775.102	39.5255
776.803	40.0388
778.503	41.7698
780.202	43.1592
781.901	44.7845
783.6	46.2499
785.299	48.6852
786.997	49.3432
788.695	50.8301
790.393	51.8021
792.09	52.8711
793.787	51.9924
795.484	54.063
797.18	53.3386
798.877	55.1764
800.572	55.621
802.268	56.2895
803.963	55.9283
805.658	57.5269
807.35	57.1964
809.044	57.3307
810.738	57.6845
812.432	58.3326
814.125	58.2911
815.818	58.2856
817.51	58.4818
819.202	58.0572
820.894	58.1308
822.584	57.8223
824.275	56.4601
825.966	56.826
827.657	57.8665
829.347	57.5665
831.037	58.2978
832.725	58.9061
834.414	60.0413
836.103	59.1302
837.792	58.6015
839.481	58.4535
841.167	57.694
842.854	57.1275
844.542	56.9224
846.229	56.1723
847.914	54.6734
849.6	53.3315
851.287	53.6924
852.973	53.1114
854.656	53.3353
856.341	51.903
858.026	51.1942
859.711	49.9959
861.393	49.5639
863.077	49.0657
864.761	48.8937
866.442	48.1623
868.125	47.7865
869.808	47.2771
871.489	44.2384
873.171	42.7148
874.85	42.4465
876.532	42.1031
878.213	41.0329
879.892	41.9751
881.572	40.5123
883.251	40.3551
884.931	38.9765
886.61	38.4714
888.287	37.952
889.966	37.8564
891.643	36.286
893.321	35.23
894.997	34.9401
896.675	34.6549
898.352	34.7439
900.028	34.5629
901.704	34.9004
903.379	34.3094
905.055	35.0521
906.729	36.9235
908.404	37.4349
910.077	38.5523
911.75	39.0427
913.425	38.884
915.097	39.0838
916.771	39.0037
918.443	38.3278
920.116	38.309
921.787	38.5632
923.46	39.1918
925.13	38.6232
926.8	39.927
928.472	39.0313
930.141	38.0451
931.813	37.0914
933.481	37.6307
935.15	37.3934
936.82	35.8759
938.488	35.0834
940.156	34.4522
941.825	33.166
943.492	32.2115
945.158	31.2959
946.827	30.8387
948.493	29.6616
950.158	28.1454
951.824	27.7419
953.491	26.3263
955.156	24.9984
956.82	24.5455
958.486	23.2537
960.15	21.6424
961.814	19.7639
963.477	20.191
965.142	18.6647
966.804	19.983
968.467	20.7002
970.129	20.8715
971.79	20.5827
973.454	20.8997
975.115	21.9479
976.776	22.4812
978.436	22.7242
980.096	23.5892
981.756	23.5133
983.417	23.462
985.077	24.0875
986.736	23.573
988.394	23.6515
990.052	22.2914
991.71	22.3739
993.368	22.0587
995.025	22.2516
996.682	21.9338
998.341	21.4634
999.998	20.7071
1001.65	20.667
1003.31	20.591
1004.97	20.5998
1006.62	20.8492
1008.28	21.4457
1009.93	22.5559
1011.58	23.387
1013.24	23.9504
1014.89	26.2377
1016.54	28.1636
1018.2	30.2549
1019.85	32.8715
1021.5	34.1807
1023.16	34.92
1024.81	35.0773
1026.46	37.363
1028.11	39.0361
1029.76	40.8969
1031.41	41.6243
1033.06	42.2212
1034.71	42.5503
1036.36	43.5259
1038.01	43.5773
1039.66	43.8063
1041.31	44.3457
1042.95	45.4302
1044.6	46.0548
1046.25	47.5566
1047.9	47.4678
1049.54	48.5228
1051.19	48.2606
1052.84	48.709
1054.48	48.6303
1056.13	48.4028
1057.77	46.9026
1059.42	45.4371
1061.06	43.977
1062.71	42.5008
1064.35	40.6688
1066	39.4428
1067.64	37.0178
1069.28	35.1077
1070.93	33.7485
1072.57	32.2012
1074.21	30.936
1075.85	29.1919
1077.49	27.3943
1079.13	24.8301
1080.78	22.0867
1082.42	21.0358
1084.06	20.4598
1085.7	19.8309
1087.34	20.0277
1088.97	20.1468
1090.61	20.6852
1092.25	21.0587
1093.89	20.6291
1095.53	18.9912
1097.17	19.4551
1098.8	19.551
1100.44	19.3538
1102.08	19.4394
1103.71	18.3398
1105.35	18.3097
1106.99	19.131
1108.62	19.8924
1110.26	19.6539
1111.89	19.8678
1113.52	18.8233
1115.16	17.5748
1116.79	17.4601
1118.43	17.6976
1120.06	16.105
1121.69	15.8675
1123.32	14.979
1124.96	14.6055
1126.59	13.921
1128.22	14.5217
1129.85	14.1712
1131.48	14.0223
1133.11	13.9667
1134.75	13.7326
1136.37	11.4302
1138	11.9509
1139.63	11.9835
1141.26	11.7679
1142.89	11.0338
1144.52	10.2166
1146.15	10.2965
1147.78	9.8019
1149.4	8.62279
1151.03	9.34057
1152.66	9.03553
1154.28	8.76214
1155.91	8.48787
1157.54	7.81744
1159.16	6.61515
1160.79	5.79546
1162.41	5.67867
1164.04	6.50265
1165.66	6.0697
1167.29	5.70587
1168.91	5.12071
1170.53	4.43542
1172.16	4.23891
1173.78	2.96304
1175.4	3.42827
1177.02	4.25158
1178.65	5.48061
1180.27	6.37344
1181.89	6.82929
1183.51	7.93537
1185.13	7.71772
1186.75	8.66028
1188.37	10.1104
1189.99	10.968
1191.61	11.8978
1193.23	12.3828
1194.85	12.1271
1196.47	12.7221
1198.08	13.9228
1199.7	14.9929
1201.32	15.6367
1202.94	17.1597
1204.55	18.1116
1206.17	20.3888
1207.79	21.9959
1209.4	23.403
1211.02	25.4682
1212.63	26.6577
1214.25	28.1386
1215.86	28.9229
1217.48	29.6285
1219.09	32.7171
1220.71	34.0602
1222.32	34.8683
1223.93	36.5809
1225.54	38.9669
1227.16	40.5765
1228.77	41.4346
1230.38	42.6674
1231.99	44.6389
1233.6	45.5553
1235.22	47.1093
1236.83	47.3883
1238.44	47.9311
1240.05	48.9513
1241.66	49.9292
1243.26	50.4275
1244.87	50.4541
1246.48	50.6272
1248.09	50.5004
1249.7	50.4338
1251.31	51.2581
1252.92	51.7535
1254.52	51.8939
1256.13	53.0398
1257.74	52.6266
1259.34	52.344
1260.95	52.6095
1262.55	54.0099
1264.16	54.0344
1265.76	55.4357
1267.37	56.1124
1268.97	56.6079
1270.58	57.3437
1272.18	57.5279
1273.78	57.8026
1275.39	59.668
1276.99	61.5171
1278.59	62.998
1280.2	65.0784
1281.8	66.2842
1283.4	68.1199
1285	69.6353
1286.6	72.2288
1288.2	72.9383
1289.8	73.2781
1291.4	74.6243
1293	74.993
1294.6	76.1923
1296.2	77.0897
1297.8	78.2126
1299.4	79.5791
1301	79.9524
1302.6	79.4701
1304.19	81.4611
1305.79	82.1208
1307.39	81.6189
1308.99	81.5904
1310.58	82.4807
1312.18	83.087
1313.77	82.8898
1315.37	82.7807
1316.96	82.1133
1318.56	82.5371
1320.15	81.7694
1321.75	81.96
1323.34	82.3165
1324.94	81.7617
1326.53	81.8735
1328.12	80.5257
1329.72	79.5953
1331.31	79.899
1332.9	78.6852
1334.49	78.2597
1336.08	76.6296
1337.67	75.8699
1339.27	75.1455
1340.86	74.0393
1342.45	73.2451
1344.04	71.451
1345.63	70.9483
1347.22	68.4942
1348.8	68.1539
1350.39	67.5344
1351.98	67.032
1353.57	67.3801
1355.16	67.2885
1356.75	66.6049
1358.33	65.5495
1359.92	64.7183
1361.51	63.6187
1363.09	63.2965
1364.68	61.788
1366.27	61.2306
1367.85	59.8888
1369.44	59.5178
1371.02	60.0801
1372.61	59.8485
1374.19	59.209
1375.77	58.7251
1377.36	59.0424
1378.94	59.7585
1380.52	60.3047
1382.11	61.1965
1383.69	63.0582
1385.27	62.6518
1386.85	63.7368
1388.43	64.5149
1390.02	64.7631
1391.6	65.9557
1393.18	65.9328
1394.76	66.8321
1396.34	67.7536
1397.92	68.2338
1399.5	70.1053
1401.08	72.8176
1402.65	74.3829
1404.23	75.2912
1405.81	77.1902
1407.39	78.6136
1408.97	80.7284
1410.54	83.2608
1412.12	84.479
1413.7	87.1995
1415.27	89.0049
1416.85	91.6457
1418.43	92.9208
1420	95.1197
1421.58	97.5349
1423.15	99.3791
1424.73	102.334
1426.3	105.547
1427.87	109.184
1429.45	112.261
1431.02	114.854
1432.6	117.117
1434.17	118.461
1435.74	120.695
1437.31	121.33
1438.89	122.865
1440.46	124.259
1442.03	124.499
1443.6	125.178
1445.17	126.705
1446.74	127.903
1448.31	128.324
1449.88	127.788
1451.45	128.262
1453.02	127.912
1454.59	127.369
1456.16	127.098
1457.72	125.726
1459.29	123.716
1460.86	122.41
1462.43	121.032
1463.99	118.921
1465.56	117.283
1467.13	114.192
1468.69	111.334
1470.26	109.551
1471.83	107.156
1473.39	104.179
1474.95	101.4
1476.52	98.8446
1478.08	96.4147
1479.65	93.368
1481.21	90.2264
1482.78	87.3236
1484.34	83.5183
1485.9	79.8776
1487.47	76.4074
1489.03	73.7179
1490.59	71.1479
1492.15	69.6219
1493.71	67.1811
1495.27	64.1289
1496.84	62.0151
1498.39	59.6642
1499.96	57.779
1501.52	56.044
1503.07	54.9101
1504.64	53.2628
1506.19	51.1167
1507.75	50.1548
1509.31	47.4043
1510.87	45.6923
1512.43	42.6641
1513.98	41.0599
1515.54	39.4348
1517.1	38.8492
1518.65	36.2141
1520.21	35.7462
1521.77	36.1782
1523.32	36.0414
1524.88	35.7643
1526.44	35.1754
1527.99	35.2701
1529.54	36.4309
1531.1	36.1032
1532.65	36.4768
1534.21	36.6876
1535.76	37.2012
1537.31	38.4439
1538.87	39.1844
1540.42	39.801
1541.97	40.8003
1543.52	42.387
1545.07	43.1336
1546.63	44.3874
1548.18	45.3799
1549.73	46.4576
1551.28	46.2515
1552.83	46.9655
1554.38	47.5853
1555.93	48.5438
1557.48	48.8416
1559.03	50.2502
1560.57	50.8575
1562.12	51.6269
1563.67	53.5886
1565.22	55.0037
1566.77	57.5394
1568.31	59.9152
1569.86	61.9818
1571.41	62.8779
1572.95	64.3558
1574.5	65.9388
1576.05	66.8879
1577.59	68.935
1579.14	70.2946
1580.68	71.9181
1582.23	73.6213
1583.77	75.2513
1585.31	77.1705
1586.86	77.1536
1588.4	78.4181
1589.95	79.317
1591.49	81.0491
1593.03	82.1952
1594.57	83.2362
1596.11	83.59
1597.66	85.2188
1599.2	85.1668
1600.74	85.5261
1602.28	85.5723
1603.82	85.1157
1605.36	84.6216
1606.9	84.2796
1608.44	83.1164
1609.98	82.7257
1611.52	82.5105
1613.06	82.9205
1614.6	82.4884
1616.13	82.59
1617.67	82.8255
1619.21	83.365
1620.75	82.9407
1622.28	82.9155
1623.82	82.7464
1625.36	82.9367
1626.89	82.8435
1628.43	82.9663
1629.96	82.8541
1631.5	83.3516
1633.04	84.0265
1634.57	84.0213
1636.11	84.9143
1637.64	85.5181
1639.17	86.0472
1640.71	87.5416
1642.24	87.9117
1643.77	89.6105
1645.31	90.5789
1646.84	91.2062
1648.37	91.746
1649.9	92.4409
1651.43	92.9421
1652.96	93.2448
1654.5	93.4444
1656.03	92.8636
1657.56	92.4588
1659.09	91.6839
1660.62	90.4701
1662.15	89.6123
1663.67	86.9079
1665.2	85.5955
1666.73	84.0585
1668.26	82.9279
1669.79	80.7363
1671.32	78.4173
1672.84	75.7252
1674.37	72.7343
1675.9	70.3205
1677.43	67.3709
1678.95	63.8318
1680.48	60.3426
1682	58.1281
1683.53	55.4619
1685.05	52.7501
1686.58	50.904
1688.1	48.7582
1689.63	47.1144
1691.15	44.305
1692.68	42.3178
1694.2	39.2181
1695.72	37.7899
1697.25	35.9892
1698.77	34.2989
1700.29	32.3652
1701.81	31.186
1703.33	29.7778
1704.86	29.2359
1706.38	28.0466
1707.9	27.3694
1709.42	26.7678
1710.94	25.7847
1712.46	25.6909
1713.98	26.19
1715.5	25.4395
1717.02	25.5865
1718.54	25.3881
1720.06	25.9967
1721.57	25.6084
1723.09	24.9325
1724.61	24.2964
1726.13	23.5589
1727.64	22.7459
1729.16	21.2089
1730.68	20.6143
1732.19	19.336
1733.71	18.9912
1735.23	18.8596
1736.74	18.6091
1738.26	18.3366
1739.77	18.1969
1741.29	18.3212
1742.8	18.7402
1744.31	18.411
1745.83	17.1653
1747.34	17.2115
1748.85	16.9222
1750.37	16.4785
1751.88	16.5618
1753.39	15.271
1754.91	14.9914
1756.42	15.087
1757.93	15.4525
1759.44	15.2372
1760.95	15.2125
1762.46	15.2141
1763.97	15.3295
1765.48	14.9858
1766.99	13.8701
1768.5	13.5339
1770.01	12.828
1771.52	13.1593
1773.03	12.8827
1774.54	12.4691
1776.04	12.4288
1777.55	12.4132
1779.06	12.6495
1780.57	13.0434
1782.07	12.7169
1783.58	12.3813
1785.09	12.2129
1786.59	11.9879
1788.1	11.8552
1789.6	11.0926
1791.11	10.9368
1792.61	10.9194
1794.12	10.8002
1795.62	10.6498
1797.13	9.80634
1798.63	9.12334
1800.13	9.21854
1801.64	8.76971
1803.14	8.49698
1804.64	8.68096
1806.15	8.79884
1807.65	8.42312
1809.15	8.35603
1810.65	8.78947
1812.15	8.73912
1813.65	8.77153
1815.16	9.1826
1816.66	8.57605
1818.15	9.04819
1819.66	8.45374
1821.16	8.50619
1822.65	8.92503
1824.15	9.01488
1825.65	8.2762
1827.15	7.91231
1828.65	7.84316
1830.15	8.21329
1831.64	8.81844
1833.14	8.90611
1834.64	8.53052
1836.14	8.04687
1837.63	7.61012
1839.13	7.3877
1840.62	6.81488
1842.12	7.31986
1843.62	7.28785
1845.11	7.32127
1846.61	7.77805
1848.1	7.674
1849.6	7.29372
1851.09	7.5602
1852.58	7.4027
1854.08	7.69423
1855.57	8.13907
1857.06	7.86422
1858.55	7.83862
1860.05	8.14087
1861.54	7.15301
1863.03	7.5869
1864.52	7.74177
1866.01	8.24724
1867.5	6.9164
1869	6.84678
1870.49	6.92491
1871.98	6.72783
1873.47	6.02517
1874.96	5.84963
1876.44	5.19571
1877.93	4.65436
1879.42	4.37526
1880.91	4.2084
1882.4	4.18667
1882.47	4.18647
1883.96	4.10519
1885.46	4.33365
1886.95	4.20463
1888.44	3.90479
1889.94	3.53174
1891.43	3.19697
1892.93	3.02907
1894.42	3.3142
1895.91	3.34814
1897.4	2.61913
1898.89	1.68304
1900.39	2.25558
1901.88	2.66821
1903.37	2.68386
1904.86	2.28969
1906.35	2.04825
1907.84	2.60087
1909.33	2.67564
1910.82	3.21264
1912.31	3.60351
1913.8	4.3296
1915.29	4.81145
1916.77	4.87742
1918.26	4.81125
1919.75	4.64289
1921.24	4.61366
1922.73	4.77141
1924.21	4.55562
1925.7	4.68812
1927.19	5.78396
1928.67	6.46104
1930.16	6.58315
1931.64	6.15856
1933.13	5.27653
1934.61	4.10592
1936.1	4.25092
1937.58	3.81715
1939.07	2.96919
1940.55	1.94072
1942.04	2.41643
1943.52	1.98535
1945	1.84594
1946.49	0.989535
1947.97	1.40821
1949.45	1.08121
1950.93	0.639238
1952.42	0.733165
1953.9	0.597107
1955.38	0.519369
1956.86	0.500588
1958.34	0.229642
1959.82	0.547688
1961.3	0.308455
1962.78	0.0637494
1964.26	-0.267631
1965.74	0.0760226
1967.22	0.10946
1968.7	0.140053
1970.18	-0.214779
1971.65	-0.460673
1973.13	-0.070946
1974.61	0.488418
1976.09	0.593303
1977.57	1.23775
1979.04	0.932088
1980.52	1.30729
1982	1.71588
1983.47	1.39277
1984.95	1.33974
1986.42	1.88062
1987.9	2.3148
1989.37	2.19627
1990.85	2.35105
1992.32	2.80788
1993.8	3.63428
1995.27	3.83088
1996.75	3.98506
1998.22	4.40146
1999.69	4.96657
2001.17	5.05572
2002.64	4.53923
2004.11	3.45236
2005.58	2.36539
2007.05	1.75295
2008.53	1.98508
2010	2.14912
2011.47	2.25774
2012.94	1.78741
2014.41	2.43319
2015.88	2.65983
2017.35	2.26713
2018.82	2.35199
2020.29	2.29441
2021.76	2.29546
2023.23	1.99085
2024.7	2.15149
2026.16	2.52792
2027.63	3.06524
2029.1	3.76378
2030.57	3.8774
2032.03	3.62698
2033.5	4.2525
2034.97	4.61786
2036.44	4.45533
2037.9	4.84859
2039.37	6.24636
2040.83	5.80209
2042.3	6.31673
2043.76	6.87999
2045.23	8.25475
2046.69	9.20693
2048.16	9.41984
2049.62	10.0135
2051.08	10.6114
2052.55	10.6484
2054.01	12.0452
2055.47	13.0376
2056.94	14.1699
2058.4	14.992
2059.86	16.1885
2061.32	16.18
2062.79	16.7214
2064.25	17.3813
2065.71	18.4226
2067.17	18.0984
2068.63	17.8326
2070.09	18.1083
2071.55	18.2741
2073.01	18.2038
2074.47	18.8768
2075.93	19.1029
2077.39	18.8155
2078.85	19.463
2080.31	20.0838
2081.76	21.0242
2083.22	21.3126
2084.68	21.437
2086.13	21.141
2087.59	21.0448
2089.05	20.4104
2090.51	20.6666
2091.96	20.8126
2093.42	21.6426
2094.87	22.5249
2096.33	23.1047
2097.78	23.8003
2099.24	24.2733
2100.69	25.0313
2102.15	25.3704
2103.6	26.2083
2105.06	26.5573
2106.51	27.2698
2107.96	27.4621
2109.42	28.3752
2110.87	29.8252
2112.32	30.6432
2113.77	31.5813
2115.23	32.9369
2116.68	34.8319
2118.13	36.5622
2119.58	36.9505
2121.03	37.9907
2122.48	39.7544
2123.93	40.6689
2125.38	42.3914
2126.83	44.1184
2128.28	45.2521
2129.73	46.5785
2131.18	48.009
2132.63	49.2529
2134.08	50.1258
2135.53	51.75
2136.97	53.8098
2138.42	54.7598
