#Acq. time (s)=	45
#Accumulations=	2
#Range (cm-¹)=	200...3150
#Windows=	2
#Auto scanning=	Off
#Autofocus=	Off
#Macrospot=	Off
#AutoExposure=	Off
#Spike filter=	Multiple accum.
#Delay time (s)=	0
#Binning=	1
#Readout mode=	Signal
#DeNoise=	Off
#ICS correction=	On
#Dark correction=	Off
#Inst. Process=	Off
#Detector Gain=	Best Dynamic Range
#Detector ADC=	20 kHz       
#Detector temperature (°C)=	-70.08
#Instrument=	LabRAM HR Evol
#Detector=	Synapse
#Objective=	x100
#Grating=	600 gr/mm
#ND Filter=	100%
#Laser (nm)=	532 
#Hole=	100.021
#Range=	Auto
#Laser Pol.=	No
#Raman. Pol.=	No
#Laser Pol. (°)=	-0.0007625
#Raman Pol. (°)=	89.9995
#Collection=	Microscope
#StageXY=	Marzhauser
#StageZ=	Marzhauser
#X (µm)=	-2446.7
#Y (µm)=	-59.7
#Z (µm)=	-10.15
#Full time(mm:ss)=	3:19
#Project=	
#Sample=	
#Site=	
#Title=	Mb_40_24_49_2x_45s_532 nm_x100_100%_600 gr_mm
#Remark=	
#Date=	14.07.2022 14:28
#Acquired=	14.07.2022 14:28:25
#Base:Fit=	10.08.2022 10:47:00
#Base:Sub=	10.08.2022 10:47:12
#Filter:Polynom=	16.08.2022 10:11:48
#AxisType[0]=Intens
#AxisUnit[0]=Cnt
#AxisType[1]=Spectr
#AxisUnit[1]=1/cm
200.554	38.1031
202.369	33.5718
204.183	29.3347
205.999	25.7778
207.813	23.1918
209.626	21.3021
211.439	20.4053
213.253	20.0706
215.065	19.7169
216.877	19.4789
218.688	20.3744
220.5	21.0563
222.312	21.2842
224.123	20.7326
225.933	22.3573
227.742	22.0466
229.552	22.2531
231.361	20.9926
233.171	20.4555
234.98	19.1761
236.787	19.1524
238.595	20.8012
240.402	20.2209
242.209	19.7342
244.015	19.1203
245.822	18.7052
247.627	18.9714
249.435	18.878
251.24	19.5161
253.045	20.1129
254.849	20.2481
256.653	19.6984
258.457	19.8293
260.26	19.6749
262.063	18.6445
263.866	18.4602
265.668	19.4348
267.47	20.4248
269.271	22.5651
271.073	20.7406
272.873	21.0007
274.674	20.2901
276.474	18.9392
278.274	16.8405
280.073	14.9975
281.872	14.4285
283.671	14.45
285.47	13.7832
287.268	12.9977
289.065	12.4717
290.863	12.7371
292.66	12.909
294.456	13.4497
296.253	13.3386
298.049	13.0059
299.844	13.0867
301.637	15.6234
303.432	15.3447
305.227	15.6153
307.021	16.3507
308.815	16.6025
310.609	16.7462
312.402	17.8286
314.195	18.0669
315.987	19.2615
317.777	18.4232
319.569	18.7003
321.36	18.4526
323.151	18.4797
324.942	18.8202
326.733	19.7916
328.521	19.9517
330.31	18.321
332.1	17.8826
333.889	18.5808
335.677	18.9251
337.464	18.6986
339.252	18.9683
341.039	18.6322
342.826	17.6856
344.611	16.5992
346.398	15.6551
348.184	14.7394
349.97	13.8186
351.754	13.2775
353.539	14.5869
355.324	15.6069
357.106	14.3447
358.89	13.7435
360.674	12.6376
362.455	12.7983
364.239	11.5261
366.021	11.4281
367.804	11.5543
369.584	12.2932
371.366	13.1574
373.145	11.7111
374.926	11.3829
376.707	10.9897
378.485	10.1968
380.265	9.56586
382.045	9.14226
383.822	9.95079
385.601	10.0274
387.378	11.1752
389.156	13.2178
390.934	13.4579
392.71	12.8678
394.487	13.7894
396.262	14.3657
398.038	15.0401
399.813	15.7229
401.588	16.3868
403.362	16.2898
405.137	16.9457
406.912	16.8235
408.685	16.8061
410.459	16.2201
412.23	15.5411
414.004	15.571
415.775	14.8493
417.548	14.1795
419.318	13.3982
421.089	11.7218
422.86	10.6058
424.63	9.77208
426.401	8.56446
428.17	9.29265
429.94	7.61
431.708	7.35003
433.478	6.6892
435.245	7.31492
437.012	6.28775
438.781	6.63167
440.547	7.14163
442.315	7.91545
444.081	7.71332
445.846	7.75958
447.613	8.58907
449.378	8.98549
451.142	9.59876
452.908	8.96281
454.672	11.0454
456.435	12.0483
458.2	12.7075
459.963	13.1691
461.725	13.75
463.489	14.9436
465.251	16.0495
467.012	15.8935
468.775	17.6927
470.536	19.8026
472.296	21.3505
474.056	22.3212
475.817	23.6817
477.576	24.8811
479.335	24.8011
481.094	26.1043
482.854	27.0171
484.612	27.7045
486.37	29.2954
488.127	29.63
489.886	31.2466
491.642	31.9245
493.398	31.7269
495.154	32.7257
496.91	33.1368
498.667	32.8528
500.422	33.2585
502.176	33.5446
503.93	33.9455
505.684	33.8659
507.438	34.0107
509.191	34.0214
510.946	34.2865
512.698	35.3784
514.45	35.3604
516.202	36.4693
517.954	35.5336
519.705	34.6275
521.456	34.1281
523.206	34.7129
524.956	34.0623
526.706	34.2808
528.456	34.1599
530.207	33.6514
531.956	33.3197
533.704	33.5514
535.452	32.6101
537.2	31.9963
538.947	30.7505
540.694	30.4584
542.441	30.3921
544.188	29.6473
545.934	30.1577
547.68	28.9566
549.425	27.8587
551.17	26.2107
552.915	25.8869
554.659	24.6085
556.403	24.4972
558.145	23.2824
559.889	22.0131
561.632	20.956
563.375	20.2073
565.117	18.5479
566.859	16.4077
568.601	15.5782
570.342	14.7442
572.083	13.4864
573.824	12.5159
575.565	11.1034
577.303	10.758
579.043	9.85604
580.782	9.72229
582.521	9.10126
584.26	7.94085
585.998	6.92158
587.734	6.6321
589.472	5.64084
591.21	5.24775
592.947	5.18247
594.684	4.85254
596.418	4.05317
598.154	4.14426
599.89	4.97568
601.626	5.29026
603.361	4.96711
605.094	4.51424
606.828	4.84056
608.562	6.4448
610.296	6.48298
612.027	6.63689
613.761	7.43969
615.493	8.08629
617.224	8.18703
618.956	8.27697
620.688	7.80634
622.419	6.81895
624.149	7.72815
625.879	8.12303
627.61	9.34672
629.338	10.2319
631.068	11.0451
632.797	11.5405
634.525	10.171
636.254	10.0378
637.98	10.7713
639.708	11.4818
641.436	11.2511
643.162	11.4963
644.889	12.2709
646.614	11.7645
648.34	11.0774
650.067	10.7736
651.791	10.2966
653.516	10.913
655.239	11.4353
656.964	12.0127
658.687	11.4284
660.411	12.0996
662.133	12.7159
663.857	13.0663
665.58	13.8413
667.301	13.3018
669.024	12.2332
670.744	12.3773
672.464	12.0641
674.186	12.6046
675.905	13.2933
677.626	14.073
679.345	15.3071
681.065	15.7283
682.783	16.6725
684.503	17.5386
686.22	17.8306
687.939	18.7707
689.656	18.8849
691.372	19.7409
693.09	19.8199
694.806	19.8063
696.523	20.3155
698.239	21.3165
699.953	21.7184
701.67	21.4205
703.384	20.9504
705.098	21.4409
706.813	21.7606
708.526	22.0657
710.239	22.9101
711.954	23.5795
713.666	23.9667
715.378	24.6328
717.091	24.8837
718.802	25.2774
720.513	24.8136
722.226	25.0791
723.936	25.9285
725.646	25.6594
727.355	26.5216
729.067	27.1507
730.776	28.0971
732.484	29.1536
734.192	30.1494
735.902	30.6974
737.61	31.6713
739.317	32.4507
741.024	33.0793
742.731	33.7027
744.439	32.7611
746.145	35.1531
747.851	36.2225
749.556	36.405
751.262	37.0207
752.966	37.0262
754.673	38.5707
756.377	40.2064
758.081	41.9423
759.784	43.278
761.487	45.0859
763.19	45.4731
764.892	47.031
766.594	47.3836
768.296	48.5696
770	49.6013
771.701	51.0293
773.402	51.5926
775.102	51.7703
776.803	53.1695
778.503	53.9049
780.202	54.8022
781.901	55.9679
783.6	55.6417
785.299	57.1096
786.997	58.5991
788.695	59.3839
790.393	61.4327
792.09	62.4402
793.787	63.9286
795.484	65.1689
797.18	66.4979
798.877	67.3526
800.572	67.1371
802.268	67.3645
803.963	66.7917
805.658	67.4002
807.35	68.2312
809.044	68.2111
810.738	68.8935
812.432	69.4525
814.125	69.7182
815.818	69.3017
817.51	68.7748
819.202	67.0205
820.894	65.9325
822.584	66.7226
824.275	66.2169
825.966	66.2805
827.657	66.0189
829.347	65.7797
831.037	67.6303
832.725	65.7085
834.414	64.4038
836.103	63.6388
837.792	62.9858
839.481	62.2562
841.167	61.4899
842.854	60.5251
844.542	60.5016
846.229	59.1598
847.914	57.7862
849.6	58.0875
851.287	57.7363
852.973	57.569
854.656	56.3831
856.341	55.7555
858.026	55.0825
859.711	55.2783
861.393	54.9471
863.077	54.1243
864.761	53.765
866.442	52.6342
868.125	53.0551
869.808	54.9472
871.489	55.0794
873.171	54.4077
874.85	55.1752
876.532	54.9825
878.213	55.7189
879.892	54.7914
881.572	53.4894
883.251	52.6499
884.931	51.8093
886.61	52.2144
888.287	51.9296
889.966	51.6515
891.643	51.2091
893.321	50.7589
894.997	50.4928
896.675	49.4614
898.352	49.7949
900.028	48.8273
901.704	49.045
903.379	49.7034
905.055	50.8814
906.729	51.663
908.404	50.6294
910.077	51.209
911.75	50.6248
913.425	49.2271
915.097	49.7929
916.771	47.8925
918.443	47.0825
920.116	46.3248
921.787	47.7145
923.46	48.0065
925.13	48.8125
926.8	48.9112
928.472	48.3369
930.141	46.7283
931.813	46.1596
933.481	45.2744
935.15	43.7313
936.82	42.8644
938.488	42.0871
940.156	41.5456
941.825	40.6561
943.492	39.234
945.158	37.9071
946.827	36.4671
948.493	36.2175
950.158	35.4718
951.824	36.6462
953.491	36.7738
955.156	36.3863
956.82	35.8845
958.486	34.859
960.15	33.5724
961.814	32.7999
963.477	31.9736
965.142	32.3515
966.804	33.7147
968.467	33.7599
970.129	33.8931
971.79	34.1881
973.454	34.5963
975.115	35.9605
976.776	36.333
978.436	36.4986
980.096	38.0931
981.756	39.9945
983.417	39.8817
985.077	40.5837
986.736	41.6413
988.394	41.9772
990.052	41.8404
991.71	41.942
993.368	42.2663
995.025	41.8638
996.682	42.5658
998.341	43.4967
999.998	43.529
1001.65	44.7529
1003.31	45.649
1004.97	46.7769
1006.62	47.8984
1008.28	48.9612
1009.93	49.0601
1011.58	50.0231
1013.24	51.633
1014.89	52.5868
1016.54	54.1833
1018.2	55.5795
1019.85	57.4964
1021.5	59.3396
1023.16	61.1016
1024.81	62.5956
1026.46	63.3213
1028.11	64.1461
1029.76	65.3917
1031.41	68.0254
1033.06	69.5688
1034.71	70.0216
1036.36	71.4498
1038.01	70.9691
1039.66	69.8802
1041.31	69.7411
1042.95	70.4161
1044.6	71.6055
1046.25	72.5183
1047.9	72.5819
1049.54	71.6584
1051.19	70.6504
1052.84	69.724
1054.48	69.148
1056.13	68.6703
1057.77	68.6575
1059.42	67.0875
1061.06	65.0265
1062.71	63.4572
1064.35	61.6278
1066	58.7951
1067.64	56.2841
1069.28	54.1748
1070.93	51.7418
1072.57	49.7712
1074.21	46.5916
1075.85	44.5274
1077.49	43.0053
1079.13	42.2032
1080.78	40.962
1082.42	40.0333
1084.06	38.7
1085.7	37.2432
1087.34	36.6114
1088.97	37.1484
1090.61	36.3467
1092.25	35.4093
1093.89	36.0544
1095.53	35.7457
1097.17	35.5488
1098.8	35.8891
1100.44	36.3003
1102.08	36.8084
1103.71	36.9685
1105.35	35.6438
1106.99	35.0968
1108.62	34.4748
1110.26	34.0744
1111.89	34.6297
1113.52	34.4436
1115.16	32.7388
1116.79	31.731
1118.43	31.3894
1120.06	29.7543
1121.69	29.3881
1123.32	29.4947
1124.96	28.5378
1126.59	27.9178
1128.22	26.8166
1129.85	26.0097
1131.48	23.5086
1133.11	21.9856
1134.75	20.7925
1136.37	19.9768
1138	20.4554
1139.63	18.8923
1141.26	16.3009
1142.89	14.8943
1144.52	13.8265
1146.15	13.3891
1147.78	12.3347
1149.4	10.6492
1151.03	9.66306
1152.66	8.32221
1154.28	7.49214
1155.91	5.69695
1157.54	5.51702
1159.16	5.19025
1160.79	4.99156
1162.41	4.08067
1164.04	2.77006
1165.66	1.71601
1167.29	1.1971
1168.91	1.38566
1170.53	1.81251
1172.16	2.31861
1173.78	2.66442
1175.4	3.9829
1177.02	4.39633
1178.65	4.48664
1180.27	5.42352
1181.89	5.3879
1183.51	6.36316
1185.13	7.60622
1186.75	9.17083
1188.37	11.4724
1189.99	12.1818
1191.61	12.812
1193.23	14.1853
1194.85	15.0643
1196.47	16.2809
1198.08	17.9189
1199.7	17.9121
1201.32	19.2085
1202.94	20.2426
1204.55	21.7673
1206.17	22.7896
1207.79	24.4436
1209.4	27.0828
1211.02	28.7599
1212.63	30.4233
1214.25	34.4225
1215.86	37.2481
1217.48	40.4741
1219.09	43.0226
1220.71	44.1161
1222.32	45.6756
1223.93	49.0534
1225.54	51.3168
1227.16	54.422
1228.77	56.5511
1230.38	57.8685
1231.99	59.3005
1233.6	60.8439
1235.22	63.0259
1236.83	65.4924
1238.44	67.0576
1240.05	69.3529
1241.66	71.2383
1243.26	72.1639
1244.87	73.731
1246.48	75.5226
1248.09	77.9051
1249.7	80.0858
1251.31	81.4248
1252.92	83.2573
1254.52	84.7274
1256.13	86.4253
1257.74	88.0767
1259.34	90.2125
1260.95	93.3202
1262.55	94.9002
1264.16	97.0921
1265.76	99.698
1267.37	99.9599
1268.97	101.404
1270.58	102.586
1272.18	103.389
1273.78	104.1
1275.39	104.277
1276.99	105.451
1278.59	105.856
1280.2	107.009
1281.8	108.469
1283.4	109.852
1285	112.633
1286.6	113.454
1288.2	115.442
1289.8	116.881
1291.4	116.903
1293	117.862
1294.6	118.64
1296.2	118.316
1297.8	117.945
1299.4	116.502
1301	117.149
1302.6	117.755
1304.19	118.883
1305.79	118.185
1307.39	118.129
1308.99	117.483
1310.58	115.279
1312.18	113.24
1313.77	112.773
1315.37	112.316
1316.96	112.269
1318.56	110.363
1320.15	110.393
1321.75	109.854
1323.34	107.962
1324.94	107.318
1326.53	106.116
1328.12	105.667
1329.72	104.813
1331.31	103.566
1332.9	102.728
1334.49	101.243
1336.08	99.7144
1337.67	98.019
1339.27	96.5791
1340.86	95.0238
1342.45	92.7221
1344.04	90.457
1345.63	89.1397
1347.22	86.0983
1348.8	85.3574
1350.39	83.7316
1351.98	81.1491
1353.57	79.6557
1355.16	77.7669
1356.75	75.903
1358.33	74.4508
1359.92	73.409
1361.51	71.9579
1363.09	71.1082
1364.68	70.3079
1366.27	68.8574
1367.85	68.3338
1369.44	66.7983
1371.02	65.1243
1372.61	64.68
1374.19	63.7787
1375.77	64.1053
1377.36	63.5178
1378.94	63.6489
1380.52	65.2282
1382.11	65.2958
1383.69	65.2942
1385.27	64.8378
1386.85	64.8039
1388.43	64.9156
1390.02	65.124
1391.6	66.5142
1393.18	67.9156
1394.76	65.2518
1396.34	65.7336
1397.92	67.5242
1399.5	69.3691
1401.08	71.6492
1402.65	73.6918
1404.23	77.3647
1405.81	80.7783
1407.39	85.2121
1408.97	88.8018
1410.54	92.2083
1412.12	95.8557
1413.7	100.119
1415.27	103.993
1416.85	107.348
1418.43	111.458
1420	115.988
1421.58	119.546
1423.15	122.844
1424.73	127.521
1426.3	130.918
1427.87	135.745
1429.45	139.64
1431.02	142.942
1432.6	146.29
1434.17	149.332
1435.74	153.143
1437.31	156.735
1438.89	158.011
1440.46	159.945
1442.03	162.227
1443.6	164.718
1445.17	166.544
1446.74	166.353
1448.31	166.126
1449.88	164.88
1451.45	164.564
1453.02	162.617
1454.59	162.097
1456.16	158.834
1457.72	156.707
1459.29	153.851
1460.86	149.971
1462.43	145.55
1463.99	140.122
1465.56	136.259
1467.13	131.344
1468.69	125.8
1470.26	119.487
1471.83	113.015
1473.39	106.394
1474.95	104.384
1476.52	101.305
1478.08	97.0306
1479.65	93.3728
1481.21	89.7839
1482.78	85.6178
1484.34	81.0621
1485.9	76.743
1487.47	72.0584
1489.03	67.9999
1490.59	63.1512
1492.15	59.2557
1493.71	55.1502
1495.27	51.1515
1496.84	47.7878
1498.39	45.38
1499.96	42.6149
1501.52	40.2155
1503.07	38.5661
1504.64	36.6034
1506.19	35.4855
1507.75	33.865
1509.31	33.8011
1510.87	32.4488
1512.43	31.4532
1513.98	30.5189
1515.54	28.7584
1517.1	27.454
1518.65	28.3847
1520.21	29.0603
1521.77	29.3881
1523.32	28.5488
1524.88	27.5455
1526.44	28.5979
1527.99	28.4722
1529.54	29.8969
1531.1	31.258
1532.65	32.7571
1534.21	32.4824
1535.76	33.6235
1537.31	34.4518
1538.87	36.3478
1540.42	37.4677
1541.97	39.1222
1543.52	41.0658
1545.07	41.4803
1546.63	42.9176
1548.18	44.2281
1549.73	46.0023
1551.28	47.7684
1552.83	50.0219
1554.38	52.6333
1555.93	53.6383
1557.48	54.4659
1559.03	55.8758
1560.57	56.5674
1562.12	57.888
1563.67	59.3436
1565.22	61.5382
1566.77	63.2198
1568.31	64.5462
1569.86	67.4605
1571.41	68.7086
1572.95	70.569
1574.5	72.5504
1576.05	75.9903
1577.59	77.2052
1579.14	79.2725
1580.68	81.904
1582.23	84.1496
1583.77	86.3694
1585.31	88.048
1586.86	89.388
1588.4	90.3572
1589.95	90.8874
1591.49	92.2025
1593.03	92.8977
1594.57	91.7883
1596.11	90.8771
1597.66	89.9151
1599.2	91.408
1600.74	92.9671
1602.28	95.6037
1603.82	97.8328
1605.36	99.4369
1606.9	100.722
1608.44	101.892
1609.98	102.038
1611.52	104.173
1613.06	106.661
1614.6	108.391
1616.13	109.701
1617.67	110.29
1619.21	112.172
1620.75	113.874
1622.28	115.456
1623.82	117.765
1625.36	119.346
1626.89	121.516
1628.43	123.159
1629.96	124.199
1631.5	126.207
1633.04	126.975
1634.57	129.273
1636.11	131.332
1637.64	133.117
1639.17	134.554
1640.71	135.622
1642.24	137.671
1643.77	138.552
1645.31	139.766
1646.84	140.498
1648.37	141.296
1649.9	142.543
1651.43	142.769
1652.96	143.021
1654.5	141.775
1656.03	142.027
1657.56	140.873
1659.09	138.61
1660.62	136.904
1662.15	133.703
1663.67	130.737
1665.2	127.561
1666.73	123.412
1668.26	118.99
1669.79	114.328
1671.32	109.599
1672.84	107.325
1674.37	106.289
1675.9	104.835
1677.43	101.111
1678.95	97.2722
1680.48	92.5286
1682	88.498
1683.53	83.6044
1685.05	80.07
1686.58	76.1191
1688.1	72.5191
1689.63	67.7856
1691.15	63.2765
1692.68	58.9936
1694.2	55.5311
1695.72	52.6194
1697.25	49.3628
1698.77	46.1565
1700.29	43.9352
1701.81	40.7875
1703.33	38.2637
1704.86	35.2173
1706.38	33.4347
1707.9	31.4825
1709.42	29.2411
1710.94	27.4486
1712.46	25.7801
1713.98	24.2543
1715.5	22.5739
1717.02	21.6873
1718.54	21.5956
1720.06	20.601
1721.57	20.0337
1723.09	19.3736
1724.61	19.5384
1726.13	19.1738
1727.64	18.8861
1729.16	18.2256
1730.68	18.0929
1732.19	18.3035
1733.71	18.0314
1735.23	17.734
1736.74	18.0113
1738.26	17.5392
1739.77	17.7214
1741.29	17.3835
1742.8	17.2974
1744.31	16.6917
1745.83	16.7783
1747.34	16.3911
1748.85	15.7482
1750.37	15.108
1751.88	14.1903
1753.39	13.9949
1754.91	13.5035
1756.42	12.656
1757.93	12.6161
1759.44	11.7847
1760.95	11.3897
1762.46	10.36
1763.97	9.31729
1765.48	8.95388
1766.99	7.8721
1768.5	6.6438
1770.01	6.3055
1771.52	6.07174
1773.03	5.65678
1774.54	5.2569
1776.04	4.61101
1777.55	3.60726
1779.06	3.07906
1780.57	2.68671
1782.07	2.96487
1783.58	2.01735
1785.09	2.02581
1786.59	1.72389
1788.1	2.27124
1789.6	2.18737
1791.11	1.57097
1792.61	1.74137
1794.12	1.47535
1795.62	1.00476
1797.13	1.51653
1798.63	1.99404
1800.13	2.83239
1801.64	2.66434
1803.14	2.74655
1804.64	2.89656
1806.15	2.82854
1807.65	3.27569
1809.15	3.13424
1810.65	3.53306
1812.15	3.98619
1813.65	4.251
1815.16	4.20274
1816.66	3.62353
1818.15	3.30232
1819.66	2.92846
1821.16	2.81989
1822.65	3.04502
1824.15	2.73782
1825.65	2.64093
1827.15	2.62182
1828.65	2.52148
1830.15	2.15322
1831.64	2.75394
1833.14	2.86815
1834.64	2.563
1836.14	2.33152
1837.63	1.63716
1839.13	1.27569
1840.62	0.983727
1842.12	0.109595
1843.62	-0.534089
1845.11	-0.152061
1846.61	-0.185884
1848.1	-0.348582
1849.6	-0.124592
1851.09	-0.189462
1852.58	-0.155902
1854.08	-0.0563051
1855.57	0.0706419
1857.06	0.0407087
1858.55	0.321158
1860.05	1.12483
1861.54	1.33556
1863.03	1.83668
1864.52	2.03207
1866.01	2.0861
1867.5	2.55322
1869	3.12851
1870.49	3.62301
1871.98	4.66844
1873.47	5.3231
1874.96	5.31749
1876.44	4.95203
1877.93	5.15741
1879.42	5.45095
1880.91	5.76493
1882.4	6.57703
1882.47	6.77162
1883.96	7.62086
1885.46	7.40328
1886.95	7.39977
1888.44	7.75577
1889.94	7.9223
1891.43	7.65041
1892.93	8.28348
1894.42	8.81151
1895.91	8.77598
1897.4	8.91409
1898.89	8.49643
1900.39	7.91555
1901.88	7.73747
1903.37	7.10492
1904.86	6.68981
1906.35	5.40483
1907.84	5.39877
1909.33	4.48235
1910.82	3.99959
1912.31	3.553
1913.8	3.08585
1915.29	2.39615
1916.77	2.30429
1918.26	2.21651
1919.75	2.28749
1921.24	2.43541
1922.73	1.60396
1924.21	0.818819
1925.7	0.341684
1927.19	0.416604
1928.67	0.423742
1930.16	0.779893
1931.64	1.15849
1933.13	1.50173
1934.61	1.20211
1936.1	0.91376
1937.58	0.721187
1939.07	0.581877
1940.55	0.595896
1942.04	0.936206
1943.52	1.59045
1945	1.88789
1946.49	1.9663
1947.97	1.84557
1949.45	2.23139
1950.93	3.1482
1952.42	3.85558
1953.9	4.23383
1955.38	4.58061
1956.86	4.62322
1958.34	4.21914
1959.82	4.32788
1961.3	4.64088
1962.78	5.08048
1964.26	4.98779
1965.74	4.70581
1967.22	5.04829
1968.7	4.91255
1970.18	4.56233
1971.65	4.55731
1973.13	3.95305
1974.61	3.84999
1976.09	4.44792
1977.57	4.24113
1979.04	5.07724
1980.52	5.11889
1982	5.0454
1983.47	5.48941
1984.95	5.29337
1986.42	4.96052
1987.9	5.34738
1989.37	4.59108
1990.85	4.3862
1992.32	4.07634
1993.8	4.9702
1995.27	3.9646
1996.75	3.16945
1998.22	3.24329
1999.69	3.13993
2001.17	2.8352
2002.64	2.85185
2004.11	2.58875
2005.58	2.42643
2007.05	2.69549
2008.53	1.52088
2010	1.43311
2011.47	1.65944
2012.94	2.18401
2014.41	2.42003
2015.88	3.16661
2017.35	3.55934
2018.82	3.41956
2020.29	4.19335
2021.76	4.87393
2023.23	4.95271
2024.7	5.64116
2026.16	5.46698
2027.63	5.5907
2029.1	5.76108
2030.57	5.85429
2032.03	6.01742
2033.5	6.8925
2034.97	7.78267
2036.44	8.31336
2037.9	8.50652
2039.37	8.67379
2040.83	10.183
2042.3	10.9514
2043.76	11.4672
2045.23	12.3443
2046.69	13.1157
2048.16	13.7044
2049.62	14.4934
2051.08	14.8929
2052.55	15.6127
2054.01	15.3181
2055.47	15.4722
2056.94	16.2839
2058.4	15.7236
2059.86	16.211
2061.32	17.0466
2062.79	16.8747
2064.25	17.7554
2065.71	18.4975
2067.17	19.3218
2068.63	18.3521
2070.09	19.0872
2071.55	19.6997
2073.01	19.6121
2074.47	20.605
2075.93	21.2042
2077.39	21.6444
2078.85	22.898
2080.31	23.9484
2081.76	24.4631
2083.22	26.0458
2084.68	26.9253
2086.13	28.3577
2087.59	29.4112
2089.05	30.9684
2090.51	32.0468
2091.96	33.3495
2093.42	34.7542
2094.87	35.8807
2096.33	37.217
2097.78	39.0586
2099.24	40.2055
2100.69	41.7068
2102.15	43.4953
2103.6	45.8921
2105.06	47.7946
2106.51	49.9565
2107.96	52.5484
2109.42	54.173
2110.87	56.5921
2112.32	59.1106
2113.77	62.0386
2115.23	63.4956
2116.68	65.6335
2118.13	68.2092
2119.58	70.6655
2121.03	72.4261
2122.48	75.1539
2123.93	77.3183
2125.38	79.9443
2126.83	82.3723
2128.28	85.5229
2129.73	88.2084
2131.18	90.7038
2132.63	93.0225
2134.08	95.8778
2135.53	99.0092
