#Acq. time (s)=	45
#Accumulations=	2
#Range (cm-¹)=	200...3150
#Windows=	2
#Auto scanning=	Off
#Autofocus=	Off
#Macrospot=	Off
#AutoExposure=	Off
#Spike filter=	Multiple accum.
#Delay time (s)=	0
#Binning=	1
#Readout mode=	Signal
#DeNoise=	Off
#ICS correction=	On
#Dark correction=	Off
#Inst. Process=	Off
#Detector Gain=	Best Dynamic Range
#Detector ADC=	20 kHz       
#Detector temperature (°C)=	-70.08
#Instrument=	LabRAM HR Evol
#Detector=	Synapse
#Objective=	x100
#Grating=	600 gr/mm
#ND Filter=	100%
#Laser (nm)=	532 
#Hole=	100.021
#Range=	Auto
#Laser Pol.=	No
#Raman. Pol.=	No
#Laser Pol. (°)=	-0.0007625
#Raman Pol. (°)=	89.9995
#Collection=	Microscope
#StageXY=	Marzhauser
#StageZ=	Marzhauser
#X (µm)=	-2534.3
#Y (µm)=	-115
#Z (µm)=	-10.55
#Full time(mm:ss)=	3:19
#Project=	
#Sample=	
#Site=	
#Title=	Mb_40_24_19_2x_45s_532 nm_x100_100%_600 gr_mm
#Remark=	
#Date=	14.07.2022 12:04
#Acquired=	14.07.2022 12:04:09
#Base:Fit=	10.08.2022 10:47:00
#Base:Sub=	10.08.2022 10:47:12
#Filter:Polynom=	16.08.2022 10:11:48
#AxisType[0]=Intens
#AxisUnit[0]=Cnt
#AxisType[1]=Spectr
#AxisUnit[1]=1/cm
200.554	57.9594
202.369	57.9897
204.183	57.6498
205.999	54.976
207.813	51.6028
209.626	48.1896
211.439	44.8271
213.253	42.7352
215.065	40.6997
216.877	39.8462
218.688	38.1623
220.5	36.9319
222.312	35.3599
224.123	32.4395
225.933	29.7432
227.742	29.5896
229.552	28.4
231.361	27.3525
233.171	26.7795
234.98	26.8611
236.787	25.594
238.595	25.015
240.402	23.4863
242.209	21.4279
244.015	19.5387
245.822	18.7404
247.627	17.7029
249.435	16.4378
251.24	14.9556
253.045	13.9748
254.849	12.6236
256.653	10.5448
258.457	11.0907
260.26	10.7063
262.063	12.5734
263.866	11.635
265.668	11.9919
267.47	11.4458
269.271	10.3725
271.073	9.35433
272.873	9.50655
274.674	8.98079
276.474	8.77218
278.274	8.29173
280.073	6.17665
281.872	5.62311
283.671	3.86704
285.47	3.42149
287.268	2.39986
289.065	1.70448
290.863	-0.635584
292.66	0.74743
294.456	0.366547
296.253	0.0580758
298.049	0.0598219
299.844	-0.289109
301.637	1.57346
303.432	2.48644
305.227	2.48368
307.021	2.49976
308.815	1.44925
310.609	1.95856
312.402	3.09243
314.195	3.75127
315.987	5.00682
317.777	7.127
319.569	7.08749
321.36	7.77385
323.151	8.28331
324.942	9.26281
326.733	8.70031
328.521	9.05052
330.31	9.16141
332.1	9.03754
333.889	9.73421
335.677	10.3766
337.464	10.4705
339.252	9.92991
341.039	9.72575
342.826	9.49963
344.611	8.88367
346.398	9.65529
348.184	10.4109
349.97	10.2211
351.754	10.8239
353.539	9.02117
355.324	9.8536
357.106	10.5495
358.89	8.66615
360.674	8.63523
362.455	8.56124
364.239	7.09026
366.021	4.31689
367.804	3.94227
369.584	3.83931
371.366	4.41344
373.145	4.54723
374.926	5.68691
376.707	5.36931
378.485	5.24614
380.265	4.57122
382.045	5.09154
383.822	2.93426
385.601	1.70099
387.378	1.36507
389.156	2.70708
390.934	3.9077
392.71	3.04759
394.487	2.46344
396.262	2.48967
398.038	3.06228
399.813	4.65465
401.588	4.96032
403.362	4.68201
405.137	4.4117
406.912	5.07101
408.685	5.27109
410.459	5.53604
412.23	6.73793
414.004	6.77618
415.775	7.42445
417.548	7.55415
419.318	8.29717
421.089	7.41159
422.86	8.35112
424.63	8.10858
426.401	8.85226
428.17	9.65088
429.94	9.59529
431.708	10.3713
433.478	12.3696
435.245	13.6587
437.012	14.8094
438.781	15.5375
440.547	16.3976
442.315	17.3514
444.081	18.9616
445.846	17.653
447.613	17.7255
449.378	18.492
451.142	17.7885
452.908	18.4825
454.672	18.952
456.435	21.0972
458.2	21.9858
459.963	21.5051
461.725	21.5169
463.489	21.3925
465.251	20.6904
467.012	20.5579
468.775	20.8065
470.536	22.0406
472.296	21.7271
474.056	21.9433
475.817	22.3914
477.576	23.9791
479.335	23.5321
481.094	22.7815
482.854	23.7147
484.612	25.3036
486.37	25.9279
488.127	26.5502
489.886	27.144
491.642	28.647
493.398	29.205
495.154	30.6435
496.91	30.6593
498.667	31.4057
500.422	33.1738
502.176	33.4497
503.93	35.8125
505.684	36.6941
507.438	38.7803
509.191	39.0517
510.946	40.8057
512.698	41.4855
514.45	43.6857
516.202	45.5482
517.954	45.5505
519.705	48.6835
521.456	50.215
523.206	50.9156
524.956	53.1483
526.706	52.6387
528.456	54.183
530.207	54.4307
531.956	52.6489
533.704	52.314
535.452	52.4876
537.2	52.1275
538.947	51.9714
540.694	52.177
542.441	52.4579
544.188	52.3789
545.934	51.1027
547.68	49.4704
549.425	48.8258
551.17	47.2326
552.915	45.8032
554.659	45.3056
556.403	45.3361
558.145	43.8247
559.889	42.6005
561.632	41.0909
563.375	40.9539
565.117	39.8541
566.859	38.5639
568.601	37.5016
570.342	37.0016
572.083	35.4174
573.824	33.4755
575.565	32.0079
577.303	31.0283
579.043	29.3054
580.782	27.3904
582.521	26.329
584.26	24.6219
585.998	24.681
587.734	23.9105
589.472	22.7672
591.21	22.0349
592.947	21.2576
594.684	22.4546
596.418	22.5737
598.154	23.4388
599.89	23.9625
601.626	24.6361
603.361	23.64
605.094	24.6818
606.828	26.262
608.562	26.3163
610.296	26.2728
612.027	26.966
613.761	27.0593
615.493	27.6496
617.224	26.8915
618.956	26.6891
620.688	28.0616
622.419	28.717
624.149	29.6238
625.879	29.8325
627.61	30.4244
629.338	31.6064
631.068	30.206
632.797	28.7892
634.525	29.5268
636.254	29.9888
637.98	29.5052
639.708	29.613
641.436	30.1037
643.162	30.7461
644.889	30.0636
646.614	30.1364
648.34	28.2422
650.067	26.4551
651.791	24.5233
653.516	23.1176
655.239	21.0414
656.964	19.7115
658.687	17.642
660.411	16.2543
662.133	15.2046
663.857	13.4055
665.58	12.0247
667.301	10.7148
669.024	10.1327
670.744	9.0518
672.464	8.23555
674.186	9.30789
675.905	9.66199
677.626	8.81681
679.345	9.41157
681.065	10.4268
682.783	8.93044
684.503	8.37239
686.22	8.88752
687.939	8.74253
689.656	8.96438
691.372	11.1954
693.09	10.7486
694.806	11.7115
696.523	11.6366
698.239	12.4008
699.953	13.1758
701.67	13.2135
703.384	15.4246
705.098	16.0594
706.813	17.993
708.526	19.6497
710.239	20.933
711.954	22.2556
713.666	23.0382
715.378	23.5343
717.091	23.4196
718.802	25.0522
720.513	26.9945
722.226	27.4943
723.936	28.7567
725.646	28.7692
727.355	29.103
729.067	29.5456
730.776	27.8399
732.484	27.4128
734.192	27.3781
735.902	28.2699
737.61	29.6062
739.317	29.4233
741.024	30.6146
742.731	32.0116
744.439	33.2062
746.145	35.0864
747.851	36.54
749.556	37.3273
751.262	40.2088
752.966	41.8713
754.673	44.372
756.377	45.5438
758.081	47.5842
759.784	50.1497
761.487	49.8988
763.19	49.3743
764.892	50.5387
766.594	52.0716
768.296	53.8888
770	55.6437
771.701	58.2235
773.402	59.3236
775.102	59.2188
776.803	59.6919
778.503	61.5519
780.202	63
781.901	64.2529
783.6	66.0367
785.299	66.3009
786.997	66.3359
788.695	67.2266
790.393	67.7274
792.09	68.1416
793.787	68.6346
795.484	67.3998
797.18	67.2009
798.877	67.252
800.572	67.2359
802.268	66.3873
803.963	65.8105
805.658	65.3907
807.35	64.4274
809.044	62.7446
810.738	60.3808
812.432	59.0694
814.125	58.9264
815.818	57.8218
817.51	57.9572
819.202	59.0069
820.894	59.0667
822.584	59.7188
824.275	61.3581
825.966	64.2874
827.657	65.8219
829.347	67.9436
831.037	71.0961
832.725	73.8132
834.414	76.7661
836.103	78.9563
837.792	80.954
839.481	84.1073
841.167	85.9884
842.854	87.5268
844.542	89.69
846.229	90.259
847.914	91.2505
849.6	94.0896
851.287	96.4922
852.973	98.7126
854.656	100.139
856.341	101.186
858.026	100.899
859.711	99.9402
861.393	101.964
863.077	102.706
864.761	100.269
866.442	99.2629
868.125	96.9788
869.808	94.6173
871.489	94.7543
873.171	94.8757
874.85	93.4777
876.532	90.5279
878.213	89.7054
879.892	86.3985
881.572	84.2099
883.251	81.7093
884.931	79.4919
886.61	74.3233
888.287	71.664
889.966	68.9576
891.643	64.9111
893.321	63.1004
894.997	62.3143
896.675	59.5196
898.352	59.2113
900.028	58.2173
901.704	58.9716
903.379	58.5108
905.055	57.0127
906.729	57.1846
908.404	57.2407
910.077	56.686
911.75	56.7611
913.425	57.5052
915.097	59.325
916.771	58.9729
918.443	59.6184
920.116	59.6018
921.787	60.9255
923.46	60.8517
925.13	61.7238
926.8	61.8429
928.472	63.0854
930.141	62.1996
931.813	62.862
933.481	63.7437
935.15	63.8326
936.82	62.6349
938.488	60.8337
940.156	58.7735
941.825	57.6376
943.492	56.453
945.158	55.8326
946.827	54.0879
948.493	51.7153
950.158	51.9239
951.824	51.5832
953.491	51.5985
955.156	51.8047
956.82	49.9924
958.486	47.5236
960.15	45.3575
961.814	44.4188
963.477	43.651
965.142	43.372
966.804	44.2623
968.467	44.9218
970.129	44.1338
971.79	46.173
973.454	47.8463
975.115	48.6848
976.776	48.9414
978.436	49.3606
980.096	48.1966
981.756	48.9938
983.417	48.7914
985.077	47.457
986.736	45.3292
988.394	44.9162
990.052	45.1582
991.71	44.8438
993.368	44.5583
995.025	43.8026
996.682	43.6086
998.341	42.7835
999.998	41.0767
1001.65	40.8457
1003.31	39.7984
1004.97	39.5719
1006.62	40.239
1008.28	42.5982
1009.93	43.0958
1011.58	45.8011
1013.24	49.064
1014.89	54.3243
1016.54	56.863
1018.2	59.9995
1019.85	62.4325
1021.5	66.5878
1023.16	71.7022
1024.81	76.4142
1026.46	79.7126
1028.11	83.7844
1029.76	87.9878
1031.41	90.268
1033.06	94.7599
1034.71	97.8679
1036.36	100.175
1038.01	101.747
1039.66	103.275
1041.31	106.56
1042.95	108.897
1044.6	112.14
1046.25	115.54
1047.9	117.108
1049.54	118.358
1051.19	119.155
1052.84	118.538
1054.48	118.318
1056.13	118.333
1057.77	115.816
1059.42	113.63
1061.06	111.585
1062.71	107.929
1064.35	105.278
1066	101.894
1067.64	97.3994
1069.28	94.1459
1070.93	90.2205
1072.57	86.5953
1074.21	81.5581
1075.85	76.6018
1077.49	70.7392
1079.13	66.486
1080.78	60.9893
1082.42	57.0785
1084.06	53.3531
1085.7	50.4149
1087.34	49.2275
1088.97	48.143
1090.61	48.1247
1092.25	47.8122
1093.89	48.0756
1095.53	47.8639
1097.17	47.1256
1098.8	45.7907
1100.44	45.9037
1102.08	44.9749
1103.71	44.719
1105.35	45.9267
1106.99	45.2842
1108.62	44.1617
1110.26	44.4369
1111.89	43.4113
1113.52	41.8672
1115.16	41.4455
1116.79	40.3938
1118.43	39.2043
1120.06	39.0738
1121.69	39.5155
1123.32	39.6717
1124.96	38.4152
1126.59	39.1975
1128.22	38.8089
1129.85	36.8726
1131.48	35.6547
1133.11	36.4971
1134.75	35.7541
1136.37	34.9654
1138	33.335
1139.63	31.4377
1141.26	30.5643
1142.89	28.9191
1144.52	27.2224
1146.15	25.2881
1147.78	24.2377
1149.4	23.1823
1151.03	21.2783
1152.66	19.4141
1154.28	18.384
1155.91	15.7704
1157.54	14.3553
1159.16	12.8502
1160.79	12.0654
1162.41	10.298
1164.04	8.37947
1165.66	8.56106
1167.29	8.60378
1168.91	8.12336
1170.53	7.46041
1172.16	6.87116
1173.78	7.38632
1175.4	6.63959
1177.02	6.3401
1178.65	7.2264
1180.27	8.50842
1181.89	7.65975
1183.51	8.32619
1185.13	8.55459
1186.75	10.292
1188.37	10.642
1189.99	11.6833
1191.61	14.2976
1193.23	16.0373
1194.85	16.9648
1196.47	18.4239
1198.08	20.913
1199.7	23.8732
1201.32	27.2669
1202.94	29.7374
1204.55	31.0761
1206.17	32.8959
1207.79	35.9783
1209.4	36.7984
1211.02	38.783
1212.63	41.0513
1214.25	43.3075
1215.86	45.0369
1217.48	47.0259
1219.09	48.8724
1220.71	51.4893
1222.32	53.8872
1223.93	55.7281
1225.54	57.7209
1227.16	61.0448
1228.77	64.2613
1230.38	65.9129
1231.99	66.7634
1233.6	69.3756
1235.22	71.6985
1236.83	72.8295
1238.44	75.6169
1240.05	77.7605
1241.66	78.5567
1243.26	80.3443
1244.87	82.4105
1246.48	85.5785
1248.09	85.9459
1249.7	86.7223
1251.31	89.1351
1252.92	90.8215
1254.52	92.7775
1256.13	92.6633
1257.74	95.2012
1259.34	98.1802
1260.95	99.9252
1262.55	101.334
1264.16	104.472
1265.76	107.132
1267.37	110.449
1268.97	113.147
1270.58	117.392
1272.18	121.573
1273.78	123.344
1275.39	127.723
1276.99	132.212
1278.59	136.626
1280.2	139.726
1281.8	141.985
1283.4	144.588
1285	147.041
1286.6	150.022
1288.2	153.262
1289.8	154.798
1291.4	156.386
1293	158
1294.6	159.747
1296.2	161.229
1297.8	163.121
1299.4	163.61
1301	164.174
1302.6	165.184
1304.19	165.079
1305.79	164.764
1307.39	163.781
1308.99	163.036
1310.58	160.424
1312.18	158.913
1313.77	158.96
1315.37	156.742
1316.96	155.787
1318.56	154.616
1320.15	152.313
1321.75	149.388
1323.34	148.442
1324.94	146.024
1326.53	144.372
1328.12	141.28
1329.72	139.282
1331.31	137.205
1332.9	136.267
1334.49	133.72
1336.08	133.4
1337.67	134.216
1339.27	134.252
1340.86	132.834
1342.45	131.877
1344.04	131.967
1345.63	131.679
1347.22	131.669
1348.8	132.781
1350.39	133.629
1351.98	133.632
1353.57	132.159
1355.16	133.479
1356.75	131.557
1358.33	131.791
1359.92	131.326
1361.51	131.184
1363.09	131.885
1364.68	131.3
1366.27	130.691
1367.85	131.187
1369.44	130.068
1371.02	130.609
1372.61	131.223
1374.19	130.976
1375.77	131.911
1377.36	133.432
1378.94	133.285
1380.52	135.496
1382.11	136.878
1383.69	136.05
1385.27	136.738
1386.85	137.487
1388.43	138.125
1390.02	138.812
1391.6	141.366
1393.18	142.445
1394.76	143.079
1396.34	145.341
1397.92	146.556
1399.5	149.823
1401.08	153.074
1402.65	157.418
1404.23	160.936
1405.81	167.299
1407.39	172.837
1408.97	178.455
1410.54	183.91
1412.12	191.343
1413.7	198.416
1415.27	205.64
1416.85	211.503
1418.43	217.772
1420	224.326
1421.58	231.892
1423.15	238.039
1424.73	244.69
1426.3	251.752
1427.87	258.58
1429.45	266.28
1431.02	273.051
1432.6	278.989
1434.17	285.697
1435.74	290.41
1437.31	296.076
1438.89	299.446
1440.46	302.905
1442.03	305.134
1443.6	306.855
1445.17	308.541
1446.74	308.555
1448.31	307.697
1449.88	305.784
1451.45	302.766
1453.02	299.609
1454.59	295.455
1456.16	291.097
1457.72	284.481
1459.29	278.12
1460.86	270.204
1462.43	262.035
1463.99	254.798
1465.56	247.149
1467.13	237.652
1468.69	229.849
1470.26	220.712
1471.83	210.56
1473.39	200.268
1474.95	190.224
1476.52	181.894
1478.08	173.235
1479.65	164.636
1481.21	156.807
1482.78	147.654
1484.34	139.464
1485.9	129.686
1487.47	120.347
1489.03	113.675
1490.59	107.617
1492.15	100.846
1493.71	93.4451
1495.27	87.3725
1496.84	81.9442
1498.39	78.0174
1499.96	74.0586
1501.52	70.2293
1503.07	68.4486
1504.64	65.3183
1506.19	64.0742
1507.75	62.0777
1509.31	58.997
1510.87	57.8687
1512.43	55.2997
1513.98	54.1025
1515.54	52.5811
1517.1	51.4157
1518.65	50.2677
1520.21	49.0372
1521.77	49.2279
1523.32	49.6671
1524.88	49.436
1526.44	51.279
1527.99	51.9008
1529.54	53.0883
1531.1	53.569
1532.65	55.7636
1534.21	59.0813
1535.76	60.5162
1537.31	63.515
1538.87	65.8407
1540.42	67.5136
1541.97	70.2982
1543.52	73.0811
1545.07	75.7951
1546.63	78.751
1548.18	81.0191
1549.73	82.4666
1551.28	84.7238
1552.83	87.3402
1554.38	90.6901
1555.93	92.6466
1557.48	95.4212
1559.03	96.9708
1560.57	98.9043
1562.12	100.898
1563.67	103.003
1565.22	105.599
1566.77	107.553
1568.31	110.69
1569.86	113.264
1571.41	117.477
1572.95	120.881
1574.5	124.38
1576.05	129.796
1577.59	133.05
1579.14	136.637
1580.68	139.208
1582.23	142.256
1583.77	145.955
1585.31	147.784
1586.86	149.838
1588.4	152.587
1589.95	153.324
1591.49	154.497
1593.03	155.969
1594.57	158.359
1596.11	159.65
1597.66	161.613
1599.2	164.064
1600.74	165.799
1602.28	165.595
1603.82	166.173
1605.36	166.036
1606.9	166.701
1608.44	167.125
1609.98	168.586
1611.52	168.012
1613.06	167.859
1614.6	168.81
1616.13	169.819
1617.67	170.089
1619.21	172.231
1620.75	172.635
1622.28	173.31
1623.82	172.751
1625.36	173.132
1626.89	173.446
1628.43	173.812
1629.96	173.943
1631.5	174.531
1633.04	174.834
1634.57	175.295
1636.11	175.099
1637.64	175.705
1639.17	175.159
1640.71	176.243
1642.24	176.95
1643.77	177.047
1645.31	179.438
1646.84	180.189
1648.37	180.854
1649.9	179.902
1651.43	178.737
1652.96	178.703
1654.5	175.693
1656.03	172.967
1657.56	170.185
1659.09	168.272
1660.62	164.947
1662.15	161.661
1663.67	157.752
1665.2	154.182
1666.73	150.228
1668.26	146.628
1669.79	143.261
1671.32	137.985
1672.84	133.304
1674.37	128.875
1675.9	124.858
1677.43	118.916
1678.95	114.217
1680.48	110.088
1682	106.819
1683.53	103.522
1685.05	98.9301
1686.58	95.2813
1688.1	91.1512
1689.63	88.307
1691.15	84.1407
1692.68	81.6363
1694.2	78.2753
1695.72	75.8303
1697.25	71.8938
1698.77	68.5746
1700.29	66.0251
1701.81	64.9424
1703.33	63.0676
1704.86	61.1754
1706.38	59.3617
1707.9	58.0731
1709.42	56.7601
1710.94	56.028
1712.46	54.1023
1713.98	53.3538
1715.5	51.5658
1717.02	50.579
1718.54	49.0681
1720.06	47.6938
1721.57	46.9078
1723.09	45.4669
1724.61	44.0031
1726.13	42.976
1727.64	42.0428
1729.16	41.1525
1730.68	39.1497
1732.19	38.8375
1733.71	38.634
1735.23	37.2799
1736.74	36.1829
1738.26	35.5239
1739.77	34.527
1741.29	33.2988
1742.8	32.9744
1744.31	31.358
1745.83	30.0229
1747.34	29.5274
1748.85	28.9858
1750.37	27.2947
1751.88	26.6309
1753.39	25.3103
1754.91	24.774
1756.42	23.6899
1757.93	23.1734
1759.44	21.4637
1760.95	19.0898
1762.46	17.9188
1763.97	17.0437
1765.48	16.6028
1766.99	16.0784
1768.5	16.3627
1770.01	15.006
1771.52	14.2523
1773.03	13.8902
1774.54	14.3667
1776.04	14.655
1777.55	15.0174
1779.06	14.1846
1780.57	14.2745
1782.07	13.9404
1783.58	13.6845
1785.09	12.9224
1786.59	11.9809
1788.1	10.6584
1789.6	10.061
1791.11	9.40504
1792.61	9.19803
1794.12	8.65331
1795.62	8.2027
1797.13	7.98866
1798.63	8.14741
1800.13	8.34042
1801.64	7.78041
1803.14	7.64279
1804.64	7.05656
1806.15	6.01853
1807.65	5.54549
1809.15	5.22187
1810.65	4.70091
1812.15	4.19811
1813.65	4.02178
1815.16	4.3684
1816.66	4.48673
1818.15	5.12559
1819.66	4.77515
1821.16	4.9344
1822.65	5.09306
1824.15	4.86099
1825.65	4.90515
1827.15	5.01523
1828.65	4.60637
1830.15	4.10829
1831.64	3.85023
1833.14	3.82081
1834.64	3.3875
1836.14	3.22842
1837.63	3.96538
1839.13	3.92257
1840.62	3.84426
1842.12	3.96497
1843.62	4.21773
1845.11	4.74624
1846.61	5.41753
1848.1	6.22261
1849.6	5.90603
1851.09	5.51835
1852.58	6.67227
1854.08	6.25679
1855.57	6.14688
1857.06	5.92908
1858.55	6.82864
1860.05	7.22918
1861.54	6.57607
1863.03	7.96686
1864.52	8.46102
1866.01	8.73596
1867.5	9.65845
1869	9.37313
1870.49	9.82473
1871.98	10.2254
1873.47	10.6223
1874.96	11.1037
1876.44	10.9526
1877.93	11.4078
1879.42	11.2683
1880.91	10.7977
1882.4	11.3793
1882.47	11.9607
1883.96	12.4574
1885.46	12.3545
1886.95	13.1471
1888.44	13.4069
1889.94	13.443
1891.43	13.3075
1892.93	12.7838
1894.42	12.9457
1895.91	13.8821
1897.4	13.3594
1898.89	13.0303
1900.39	11.4037
1901.88	10.6878
1903.37	11.2432
1904.86	10.5544
1906.35	10.476
1907.84	10.365
1909.33	10.5729
1910.82	10.9725
1912.31	10.146
1913.8	10.2569
1915.29	11.2212
1916.77	11.7709
1918.26	11.677
1919.75	12.1031
1921.24	11.4131
1922.73	11.3395
1924.21	11.6907
1925.7	11.5809
1927.19	9.7568
1928.67	9.67427
1930.16	8.77815
1931.64	9.05556
1933.13	8.22871
1934.61	7.16711
1936.1	7.66785
1937.58	7.23987
1939.07	6.50062
1940.55	7.32088
1942.04	6.43483
1943.52	7.50391
1945	7.66337
1946.49	7.62911
1947.97	7.94075
1949.45	7.74137
1950.93	8.8333
1952.42	8.14913
1953.9	8.45893
1955.38	9.1056
1956.86	8.77007
1958.34	8.54448
1959.82	7.81597
1961.3	9.21743
1962.78	9.4194
1964.26	9.25116
1965.74	9.81932
1967.22	10.1717
1968.7	10.8463
1970.18	11.5721
1971.65	11.3601
1973.13	11.408
1974.61	10.7765
1976.09	12.0125
1977.57	12.4937
1979.04	11.1911
1980.52	11.8283
1982	12.0644
1983.47	11.6637
1984.95	11.3403
1986.42	10.4127
1987.9	10.8705
1989.37	10.2442
1990.85	8.95696
1992.32	7.96028
1993.8	7.55488
1995.27	5.92988
1996.75	5.80175
1998.22	4.65032
1999.69	4.05735
2001.17	3.31508
2002.64	3.00523
2004.11	2.58111
2005.58	3.83183
2007.05	3.63032
2008.53	3.1185
2010	3.32352
2011.47	3.69553
2012.94	3.66411
2014.41	4.56522
2015.88	4.04487
2017.35	5.35328
2018.82	5.41614
2020.29	6.14853
2021.76	6.60383
2023.23	6.54347
2024.7	6.74726
2026.16	6.78761
2027.63	8.03222
2029.1	7.93614
2030.57	8.43925
2032.03	9.02775
2033.5	9.81352
2034.97	10.8805
2036.44	11.0012
2037.9	12.2316
2039.37	13.5325
2040.83	13.8265
2042.3	14.7082
2043.76	16.3883
2045.23	17.3992
2046.69	18.5127
2048.16	19.4106
2049.62	20.3458
2051.08	20.2816
2052.55	19.9622
2054.01	21.2404
2055.47	21.4767
2056.94	21.7861
2058.4	21.4218
2059.86	20.7016
2061.32	20.5153
2062.79	19.9475
2064.25	20.505
2065.71	21.4818
2067.17	21.8771
2068.63	22.193
2070.09	23.5995
2071.55	24.9629
2073.01	24.9519
2074.47	24.4163
2075.93	24.326
2077.39	24.5492
2078.85	24.9008
2080.31	24.4582
2081.76	24.255
2083.22	24.8906
2084.68	25.0231
2086.13	25.3416
2087.59	25.4347
2089.05	25.3171
2090.51	25.7255
2091.96	26.2979
2093.42	26.2287
2094.87	26.3901
2096.33	27.1061
2097.78	27.6962
2099.24	29.4901
2100.69	31.0753
2102.15	32.2225
2103.6	34.0045
2105.06	35.3758
2106.51	37.0775
2107.96	38.671
2109.42	40.6336
2110.87	42.5194
2112.32	44.168
2113.77	47.2859
2115.23	50.017
2116.68	53.0233
2118.13	54.7409
2119.58	56.8663
2121.03	58.2715
2122.48	59.9298
2123.93	62.4921
2125.38	64.749
2126.83	67.4002
2128.28	69.3709
2129.73	71.1539
2131.18	73.1245
2132.63	75.6573
2134.08	78.4463
2135.53	81.7775
2136.97	84.7662
2138.42	87.8988
2139.87	90.1124
