#Acq. time (s)=	45
#Accumulations=	2
#Range (cm-¹)=	200...3150
#Windows=	2
#Auto scanning=	Off
#Autofocus=	Off
#Macrospot=	Off
#AutoExposure=	Off
#Spike filter=	Multiple accum.
#Delay time (s)=	0
#Binning=	1
#Readout mode=	Signal
#DeNoise=	Off
#ICS correction=	On
#Dark correction=	Off
#Inst. Process=	Off
#Detector Gain=	Best Dynamic Range
#Detector ADC=	20 kHz       
#Detector temperature (°C)=	-70.08
#Instrument=	LabRAM HR Evol
#Detector=	Synapse
#Objective=	x100
#Grating=	600 gr/mm
#ND Filter=	100%
#Laser (nm)=	532 
#Hole=	100.021
#Range=	Auto
#Laser Pol.=	No
#Raman. Pol.=	No
#Laser Pol. (°)=	-0.0007625
#Raman Pol. (°)=	89.9995
#Collection=	Microscope
#StageXY=	Marzhauser
#StageZ=	Marzhauser
#X (µm)=	-2541.1
#Y (µm)=	-60.7
#Z (µm)=	-10.7
#Full time(mm:ss)=	3:18
#Project=	
#Sample=	
#Site=	
#Title=	Mb_40_24_10_2x_45s_532 nm_x100_100%_600 gr_mm
#Remark=	
#Date=	14.07.2022 11:26
#Acquired=	14.07.2022 11:26:23
#Base:Fit=	10.08.2022 10:47:00
#Base:Sub=	10.08.2022 10:47:12
#Filter:Polynom=	16.08.2022 10:11:48
#AxisType[0]=Intens
#AxisUnit[0]=Cnt
#AxisType[1]=Spectr
#AxisUnit[1]=1/cm
200.554	42.2619
202.369	37.4708
204.183	34.9451
205.999	32.1028
207.813	29.6893
209.626	28.2628
211.439	26.6989
213.253	25.0214
215.065	23.645
216.877	20.9448
218.688	19.7052
220.5	18.3976
222.312	18.6546
224.123	17.2055
225.933	15.5779
227.742	14.7992
229.552	13.6212
231.361	13.2415
233.171	12.2433
234.98	11.2071
236.787	10.8258
238.595	10.3838
240.402	10.6753
242.209	9.78679
244.015	10.4986
245.822	11.2469
247.627	12.1392
249.435	11.8016
251.24	12.0204
253.045	12.8756
254.849	13.9759
256.653	14.605
258.457	15.3258
260.26	16.3377
262.063	18.6897
263.866	19.4041
265.668	19.2111
267.47	18.4989
269.271	17.9538
271.073	17.3325
272.873	16.9585
274.674	16.0951
276.474	15.9805
278.274	14.5899
280.073	13.8821
281.872	13.6088
283.671	14.6722
285.47	14.0035
287.268	13.5728
289.065	12.882
290.863	12.5264
292.66	13.071
294.456	12.7859
296.253	12.5074
298.049	12.9192
299.844	12.2161
301.637	11.0049
303.432	10.9686
305.227	12.2289
307.021	11.6364
308.815	12.4645
310.609	12.0015
312.402	12.0155
314.195	10.5424
315.987	10.3353
317.777	10.4667
319.569	10.7227
321.36	11.4858
323.151	10.7496
324.942	11.2246
326.733	11.334
328.521	11.4
330.31	12.864
332.1	13.0241
333.889	15.2895
335.677	15.6706
337.464	15.9194
339.252	15.2989
341.039	16.0204
342.826	16.5446
344.611	16.5144
346.398	16.2734
348.184	16.4724
349.97	16.9588
351.754	16.0564
353.539	15.583
355.324	15.247
357.106	15.2247
358.89	14.424
360.674	14.5295
362.455	14.3719
364.239	13.3083
366.021	12.8793
367.804	12.85
369.584	12.5544
371.366	12.2781
373.145	11.7137
374.926	11.1975
376.707	11.3505
378.485	11.9969
380.265	11.7813
382.045	12.3546
383.822	12.3991
385.601	11.9268
387.378	12.3953
389.156	12.4754
390.934	12.0315
392.71	12.0794
394.487	13.1817
396.262	12.0213
398.038	12.2402
399.813	11.5892
401.588	11.7591
403.362	11.3525
405.137	11.5367
406.912	11.0879
408.685	11.0933
410.459	9.84725
412.23	9.79158
414.004	10.015
415.775	9.52334
417.548	10.1323
419.318	9.89186
421.089	8.95536
422.86	8.94866
424.63	8.28836
426.401	7.30317
428.17	7.0195
429.94	6.59585
431.708	6.56902
433.478	6.14867
435.245	6.25345
437.012	6.27827
438.781	5.28981
440.547	4.58594
442.315	4.75726
444.081	4.01998
445.846	3.96732
447.613	4.01364
449.378	4.58909
451.142	4.62038
452.908	4.71966
454.672	5.78188
456.435	6.94384
458.2	6.74537
459.963	6.80446
461.725	7.71807
463.489	8.07712
465.251	8.80633
467.012	9.24768
468.775	9.79537
470.536	11.9296
472.296	12.7891
474.056	13.2427
475.817	14.3121
477.576	15.2585
479.335	16.7995
481.094	18.5705
482.854	19.5528
484.612	18.8037
486.37	20.0111
488.127	20.1257
489.886	20.9696
491.642	21.1033
493.398	22.0951
495.154	22.9754
496.91	24.3016
498.667	24.4462
500.422	25.3
502.176	24.8737
503.93	24.4654
505.684	24.6444
507.438	23.4204
509.191	23.0406
510.946	23.2373
512.698	23.0032
514.45	22.0733
516.202	22.089
517.954	20.8884
519.705	20.4817
521.456	19.7646
523.206	18.5446
524.956	18.8519
526.706	18.1553
528.456	17.6282
530.207	17.5001
531.956	17.2371
533.704	17.3288
535.452	16.5568
537.2	15.5662
538.947	14.5708
540.694	14.513
542.441	13.1948
544.188	12.7952
545.934	11.8777
547.68	11.337
549.425	11.403
551.17	11.3189
552.915	12.0976
554.659	11.9466
556.403	11.9699
558.145	12.0004
559.889	10.6949
561.632	10.2292
563.375	10.1607
565.117	9.65166
566.859	10.0988
568.601	9.16148
570.342	7.69333
572.083	6.85953
573.824	7.34833
575.565	6.6079
577.303	6.81503
579.043	6.42674
580.782	6.40782
582.521	6.24634
584.26	5.77113
585.998	5.31126
587.734	5.32709
589.472	4.97731
591.21	4.66242
592.947	4.30231
594.684	3.49743
596.418	4.12036
598.154	4.71661
599.89	4.67717
601.626	3.95394
603.361	3.21376
605.094	3.18973
606.828	3.57776
608.562	3.78242
610.296	4.27065
612.027	4.74476
613.761	3.60837
615.493	2.69233
617.224	2.52561
618.956	3.16268
620.688	2.87552
622.419	2.64469
624.149	1.81388
625.879	2.02245
627.61	2.45609
629.338	1.98914
631.068	3.54432
632.797	3.09612
634.525	2.51822
636.254	3.37779
637.98	3.6043
639.708	3.74648
641.436	3.16273
643.162	2.823
644.889	2.75743
646.614	1.97174
648.34	2.57253
650.067	2.99353
651.791	2.81052
653.516	2.71765
655.239	1.35176
656.964	1.44413
658.687	2.29344
660.411	3.47962
662.133	4.12419
663.857	4.48792
665.58	4.99406
667.301	5.37328
669.024	6.35869
670.744	5.86387
672.464	6.28936
674.186	6.69311
675.905	7.50255
677.626	8.46757
679.345	8.81406
681.065	10.0317
682.783	11.5904
684.503	12.5628
686.22	13.4187
687.939	13.6749
689.656	14.6152
691.372	16.3399
693.09	17.2817
694.806	18.2717
696.523	18.854
698.239	19.7105
699.953	19.903
701.67	20.9198
703.384	21.9365
705.098	22.6647
706.813	22.4619
708.526	23.7522
710.239	24.377
711.954	25.3996
713.666	25.2792
715.378	25.8124
717.091	26.0956
718.802	26.4888
720.513	26.6926
722.226	27.4291
723.936	27.0859
725.646	27.3655
727.355	27.9478
729.067	28.0404
730.776	29.001
732.484	29.3325
734.192	30.1353
735.902	31.183
737.61	31.7533
739.317	32.3084
741.024	33.7002
742.731	35.4662
744.439	35.7858
746.145	35.8149
747.851	36.6071
749.556	38.0826
751.262	39.2976
752.966	39.2785
754.673	40.0365
756.377	40.6979
758.081	43.264
759.784	45.1123
761.487	46.5785
763.19	47.7857
764.892	50.0513
766.594	52.0874
768.296	53.8136
770	55.333
771.701	56.2361
773.402	57.887
775.102	58.9482
776.803	59.8313
778.503	60.1431
780.202	60.6246
781.901	60.8747
783.6	61.7076
785.299	61.9404
786.997	63.2976
788.695	63.2743
790.393	64.0163
792.09	65.6902
793.787	66.4105
795.484	65.3919
797.18	66.0016
798.877	65.6535
800.572	66.1601
802.268	65.3205
803.963	64.9647
805.658	64.8481
807.35	64.5408
809.044	64.34
810.738	64.4239
812.432	64.6413
814.125	63.6854
815.818	63.6673
817.51	62.8557
819.202	63.4357
820.894	63.5452
822.584	63.0779
824.275	63.0129
825.966	62.8232
827.657	62.3096
829.347	61.7666
831.037	62.0381
832.725	63.0668
834.414	63.5248
836.103	62.3462
837.792	61.0693
839.481	61.349
841.167	61.1979
842.854	61.4708
844.542	60.6236
846.229	60.6991
847.914	59.9685
849.6	60.4236
851.287	59.1788
852.973	58.9302
854.656	58.6028
856.341	57.496
858.026	57.2311
859.711	56.2837
861.393	56.2081
863.077	56.0279
864.761	55.3222
866.442	54.5549
868.125	54.5859
869.808	54.5651
871.489	54.161
873.171	53.4039
874.85	52.9531
876.532	52.891
878.213	52.0524
879.892	50.9856
881.572	50.0233
883.251	48.6163
884.931	48.2823
886.61	47.06
888.287	46.8708
889.966	46.9739
891.643	45.934
893.321	45.0727
894.997	44.8028
896.675	45.1665
898.352	45.0297
900.028	45.7636
901.704	45.2765
903.379	45.9057
905.055	45.945
906.729	46.2347
908.404	46.3695
910.077	45.8343
911.75	45.0424
913.425	44.368
915.097	44.5138
916.771	44.2651
918.443	43.7587
920.116	42.8764
921.787	42.6945
923.46	41.9742
925.13	41.9483
926.8	42.2607
928.472	41.8632
930.141	41.7395
931.813	40.3743
933.481	40.7291
935.15	40.3471
936.82	40.8633
938.488	40.1763
940.156	39.0109
941.825	38.567
943.492	38.1085
945.158	37.622
946.827	37.1408
948.493	36.7216
950.158	36.6267
951.824	36.3529
953.491	36.9609
955.156	36.7679
956.82	36.5054
958.486	36.2063
960.15	36.2972
961.814	36.3771
963.477	35.3751
965.142	35.1141
966.804	36.2874
968.467	37.3245
970.129	37.1406
971.79	37.4061
973.454	38.4543
975.115	39.3429
976.776	38.7583
978.436	39.2142
980.096	40.0918
981.756	39.4706
983.417	39.6215
985.077	38.4353
986.736	38.7466
988.394	38.0703
990.052	37.1001
991.71	36.2103
993.368	35.3584
995.025	35.0093
996.682	35.0336
998.341	35.017
999.998	35.2989
1001.65	34.8237
1003.31	34.0512
1004.97	33.777
1006.62	32.3951
1008.28	33.2885
1009.93	32.7113
1011.58	31.7221
1013.24	31.8177
1014.89	31.9695
1016.54	32.5586
1018.2	33.2586
1019.85	33.3037
1021.5	32.9228
1023.16	33.7496
1024.81	35.5016
1026.46	36.4654
1028.11	37.9939
1029.76	38.6396
1031.41	38.8211
1033.06	39.6321
1034.71	40.1489
1036.36	41.295
1038.01	41.2772
1039.66	42.568
1041.31	43.746
1042.95	44.2737
1044.6	45.2199
1046.25	44.441
1047.9	44.4997
1049.54	44.4524
1051.19	44.39
1052.84	43.7831
1054.48	43.5698
1056.13	43.3467
1057.77	42.8521
1059.42	41.0882
1061.06	41.3345
1062.71	41.1143
1064.35	39.8809
1066	39.2414
1067.64	37.9966
1069.28	37.3241
1070.93	36.3779
1072.57	35.4822
1074.21	34.2315
1075.85	33.6632
1077.49	32.559
1079.13	31.9932
1080.78	31.4769
1082.42	30.7795
1084.06	28.9856
1085.7	28.7797
1087.34	28.2801
1088.97	26.8293
1090.61	27.0249
1092.25	26.6133
1093.89	26.0006
1095.53	26.418
1097.17	26.3637
1098.8	25.9389
1100.44	26.2989
1102.08	26.0194
1103.71	26.1836
1105.35	25.8048
1106.99	25.0805
1108.62	24.528
1110.26	25.143
1111.89	24.4058
1113.52	23.9034
1115.16	24.058
1116.79	22.9966
1118.43	22.7785
1120.06	22.3499
1121.69	21.6034
1123.32	19.9304
1124.96	18.741
1126.59	17.776
1128.22	15.5655
1129.85	15.3446
1131.48	14.3358
1133.11	13.2333
1134.75	12.5229
1136.37	10.9973
1138	10.1458
1139.63	9.8603
1141.26	9.24324
1142.89	8.81889
1144.52	8.80283
1146.15	8.36416
1147.78	7.73054
1149.4	7.66557
1151.03	7.15556
1152.66	6.96464
1154.28	6.24412
1155.91	6.18634
1157.54	6.63005
1159.16	6.22184
1160.79	6.56008
1162.41	6.35224
1164.04	6.01051
1165.66	6.1088
1167.29	6.54922
1168.91	5.7791
1170.53	5.84054
1172.16	6.22102
1173.78	6.79335
1175.4	6.72473
1177.02	7.9514
1178.65	7.94588
1180.27	7.04228
1181.89	7.39211
1183.51	8.09052
1185.13	8.39212
1186.75	8.84822
1188.37	9.0621
1189.99	9.7351
1191.61	10.5158
1193.23	9.88149
1194.85	9.92863
1196.47	10.4091
1198.08	11.0902
1199.7	12.0694
1201.32	12.6253
1202.94	12.7689
1204.55	12.8523
1206.17	13.2812
1207.79	13.6393
1209.4	13.6385
1211.02	14.2032
1212.63	14.2996
1214.25	15.1357
1215.86	16.4005
1217.48	17.5817
1219.09	19.1745
1220.71	20.4594
1222.32	21.6564
1223.93	22.784
1225.54	24.4512
1227.16	25.008
1228.77	26.1271
1230.38	27.4938
1231.99	28.4948
1233.6	29.6859
1235.22	30.6676
1236.83	32.0176
1238.44	32.7086
1240.05	34.255
1241.66	37.5054
1243.26	38.7502
1244.87	39.7222
1246.48	41.2361
1248.09	41.8322
1249.7	42.3194
1251.31	43.8491
1252.92	44.931
1254.52	45.1344
1256.13	45.5788
1257.74	46.6552
1259.34	46.4158
1260.95	47.3008
1262.55	49.2155
1264.16	50.0471
1265.76	50.6592
1267.37	51.7723
1268.97	52.3566
1270.58	54.3082
1272.18	55.5533
1273.78	56.816
1275.39	58.4036
1276.99	59.9353
1278.59	61.01
1280.2	60.7771
1281.8	61.3029
1283.4	61.494
1285	62.6462
1286.6	63.4767
1288.2	64.3181
1289.8	64.52
1291.4	65.3348
1293	66.6477
1294.6	67.4701
1296.2	67.008
1297.8	66.4217
1299.4	65.6216
1301	64.5694
1302.6	64.5793
1304.19	64.3738
1305.79	63.1685
1307.39	63.0847
1308.99	62.965
1310.58	62.247
1312.18	61.3881
1313.77	60.6273
1315.37	60.5929
1316.96	60.3172
1318.56	59.8083
1320.15	59.5288
1321.75	58.5235
1323.34	56.058
1324.94	54.4622
1326.53	53.8529
1328.12	52.6849
1329.72	51.5395
1331.31	51.1293
1332.9	49.8652
1334.49	48.8614
1336.08	49.0395
1337.67	48.7886
1339.27	48.2126
1340.86	48.1422
1342.45	47.2399
1344.04	46.6705
1345.63	46.985
1347.22	46.494
1348.8	45.7752
1350.39	45.4629
1351.98	44.379
1353.57	43.5379
1355.16	42.3858
1356.75	41.966
1358.33	41.0335
1359.92	40.6772
1361.51	40.834
1363.09	39.5821
1364.68	38.9482
1366.27	38.1481
1367.85	37.6392
1369.44	38.0155
1371.02	37.785
1372.61	36.8837
1374.19	35.3346
1375.77	33.7573
1377.36	33.9269
1378.94	34.4923
1380.52	34.4897
1382.11	34.9614
1383.69	34.257
1385.27	34.3467
1386.85	34.4906
1388.43	34.0401
1390.02	33.5181
1391.6	33.6928
1393.18	34.3416
1394.76	34.317
1396.34	33.3654
1397.92	33.4658
1399.5	34.113
1401.08	35.228
1402.65	35.739
1404.23	36.7994
1405.81	37.4689
1407.39	38.6529
1408.97	39.7921
1410.54	42.0429
1412.12	44.4863
1413.7	46.8339
1415.27	48.4996
1416.85	50.3501
1418.43	52.4377
1420	53.9264
1421.58	55.2147
1423.15	57.0735
1424.73	58.6643
1426.3	60.6356
1427.87	62.8243
1429.45	64.5789
1431.02	65.6531
1432.6	67.601
1434.17	69.4582
1435.74	70.9077
1437.31	71.4843
1438.89	72.5181
1440.46	72.8855
1442.03	73.1889
1443.6	74.9495
1445.17	76.6659
1446.74	76.3455
1448.31	77.3647
1449.88	77.2762
1451.45	77.1151
1453.02	77.9602
1454.59	77.115
1456.16	76.4222
1457.72	75.1898
1459.29	73.3664
1460.86	71.3643
1462.43	69.1867
1463.99	67.1242
1465.56	64.5085
1467.13	62.4715
1468.69	60.1753
1470.26	57.2745
1471.83	54.7223
1473.39	51.7203
1474.95	48.9768
1476.52	47.1819
1478.08	44.7421
1479.65	41.3324
1481.21	38.3541
1482.78	36.0837
1484.34	33.308
1485.9	32.0333
1487.47	29.9984
1489.03	28.4542
1490.59	26.4209
1492.15	23.9225
1493.71	21.4837
1495.27	21.1001
1496.84	20.0169
1498.39	18.0899
1499.96	17.3779
1501.52	15.7273
1503.07	15.1689
1504.64	14.5408
1506.19	13.5402
1507.75	12.5348
1509.31	11.4317
1510.87	10.9277
1512.43	9.45336
1513.98	8.54032
1515.54	8.44058
1517.1	8.21648
1518.65	7.60796
1520.21	8.06869
1521.77	9.1435
1523.32	9.51774
1524.88	9.7442
1526.44	10.9702
1527.99	11.715
1529.54	11.6137
1531.1	12.3464
1532.65	11.8221
1534.21	12.7327
1535.76	13.043
1537.31	13.8138
1538.87	14.0064
1540.42	15.2685
1541.97	16.2063
1543.52	18.1847
1545.07	19.3802
1546.63	20.0483
1548.18	19.8787
1549.73	20.9822
1551.28	22.1941
1552.83	23.2415
1554.38	24.114
1555.93	24.276
1557.48	23.8075
1559.03	25.0687
1560.57	25.6823
1562.12	26.228
1563.67	26.9554
1565.22	28.0048
1566.77	29.0309
1568.31	29.8296
1569.86	30.4011
1571.41	32.2143
1572.95	34.0346
1574.5	34.0927
1576.05	34.7402
1577.59	35.6103
1579.14	36.9489
1580.68	39.1884
1582.23	40.0884
1583.77	40.5736
1585.31	41.1765
1586.86	40.7173
1588.4	41.2663
1589.95	40.8585
1591.49	41.3707
1593.03	42.1193
1594.57	42.179
1596.11	42.6196
1597.66	43.5347
1599.2	43.4149
1600.74	43.7345
1602.28	42.93
1603.82	42.3871
1605.36	42.7541
1606.9	42.0877
1608.44	42.2055
1609.98	41.9483
1611.52	41.9254
1613.06	42.711
1614.6	43.1952
1616.13	42.8738
1617.67	44.1296
1619.21	43.6499
1620.75	44.2589
1622.28	44.265
1623.82	44.3917
1625.36	45.1186
1626.89	45.5109
1628.43	47.4701
1629.96	48.0681
1631.5	48.055
1633.04	48.5971
1634.57	49.7744
1636.11	51.2693
1637.64	52.0797
1639.17	52.8874
1640.71	54.6638
1642.24	56.3461
1643.77	56.9544
1645.31	57.8913
1646.84	59.0627
1648.37	60.459
1649.9	61.6319
1651.43	63.4329
1652.96	64.9895
1654.5	66.1296
1656.03	67.1178
1657.56	66.2075
1659.09	65.5736
1660.62	65.7126
1662.15	65.3446
1663.67	64.2464
1665.2	63.8301
1666.73	62.4044
1668.26	61.1252
1669.79	59.9605
1671.32	57.7841
1672.84	56.6445
1674.37	55.122
1675.9	52.3543
1677.43	51.5174
1678.95	49.5034
1680.48	48.3397
1682	47.0806
1683.53	44.5864
1685.05	42.5768
1686.58	41.3945
1688.1	39.3757
1689.63	38.0628
1691.15	35.249
1692.68	33.5326
1694.2	32.2548
1695.72	29.7594
1697.25	28.4122
1698.77	26.0765
1700.29	25.1438
1701.81	23.677
1703.33	21.8133
1704.86	21.7087
1706.38	19.053
1707.9	17.1149
1709.42	16.1239
1710.94	14.6286
1712.46	13.1765
1713.98	11.7122
1715.5	11.0087
1717.02	9.69762
1718.54	8.13482
1720.06	7.35144
1721.57	7.07025
1723.09	6.65033
1724.61	6.07408
1726.13	5.72291
1727.64	5.51682
1729.16	4.79016
1730.68	4.1772
1732.19	3.27277
1733.71	2.85401
1735.23	2.95085
1736.74	2.39782
1738.26	1.43756
1739.77	0.901929
1741.29	0.748679
1742.8	0.27202
1744.31	0.139584
1745.83	0.319512
1747.34	0.445558
1748.85	1.2901
1750.37	0.84832
1751.88	0.79054
1753.39	1.89973
1754.91	1.68905
1756.42	1.50609
1757.93	1.59526
1759.44	1.57136
1760.95	2.13655
1762.46	2.27379
1763.97	1.65473
1765.48	1.99606
1766.99	1.64307
1768.5	2.07567
1770.01	2.36484
1771.52	1.89185
1773.03	2.26865
1774.54	2.12934
1776.04	3.30089
1777.55	2.16807
1779.06	2.04955
1780.57	2.03658
1782.07	1.09147
1783.58	1.04634
1785.09	0.873465
1786.59	0.945307
1788.1	1.06585
1789.6	0.881913
1791.11	0.919543
1792.61	0.487159
1794.12	1.12056
1795.62	1.63126
1797.13	1.26364
1798.63	1.18557
1800.13	1.10937
1801.64	0.808728
1803.14	1.55795
1804.64	1.24617
1806.15	1.17841
1807.65	0.70026
1809.15	0.823269
1810.65	0.560709
1812.15	0.905088
1813.65	1.28378
1815.16	1.90122
1816.66	1.94726
1818.15	2.02187
1819.66	1.42915
1821.16	1.69933
1822.65	2.07421
1824.15	2.16044
1825.65	2.42113
1827.15	2.29283
1828.65	3.05608
1830.15	3.10779
1831.64	3.60621
1833.14	4.33026
1834.64	4.85633
1836.14	4.72331
1837.63	4.55055
1839.13	4.84307
1840.62	5.14111
1842.12	5.12869
1843.62	5.25901
1845.11	5.51823
1846.61	5.52619
1848.1	5.98432
1849.6	5.38363
1851.09	4.94694
1852.58	4.78667
1854.08	5.17081
1855.57	4.67101
1857.06	3.8811
1858.55	3.65648
1860.05	2.8495
1861.54	2.89127
1863.03	2.19169
1864.52	2.05765
1866.01	1.80533
1867.5	1.82773
1869	2.11968
1870.49	2.2004
1871.98	1.48887
1873.47	1.54571
1874.96	1.2198
1876.44	1.13058
1877.93	1.64683
1879.42	1.35896
1880.91	1.35772
1882.4	1.3314
1882.47	1.87438
1883.96	2.08515
1885.46	2.33124
1886.95	1.83196
1888.44	2.16787
1889.94	1.94771
1891.43	2.55488
1892.93	2.76458
1894.42	3.34865
1895.91	3.68089
1897.4	4.0583
1898.89	4.43822
1900.39	4.48527
1901.88	5.06352
1903.37	4.20858
1904.86	4.40355
1906.35	4.4934
1907.84	4.39261
1909.33	4.7893
1910.82	5.06792
1912.31	5.14145
1913.8	4.90415
1915.29	4.58001
1916.77	5.02294
1918.26	5.60763
1919.75	5.23577
1921.24	4.9581
1922.73	4.68906
1924.21	4.56444
1925.7	5.13516
1927.19	4.02327
1928.67	3.76048
1930.16	3.53786
1931.64	3.30693
1933.13	3.19535
1934.61	3.43607
1936.1	3.26605
1937.58	3.32293
1939.07	3.45168
1940.55	4.01812
1942.04	4.01033
1943.52	3.49339
1945	3.19167
1946.49	3.71445
1947.97	3.45047
1949.45	3.84916
1950.93	3.83762
1952.42	3.84966
1953.9	4.09811
1955.38	4.69366
1956.86	5.43447
1958.34	5.03518
1959.82	5.01345
1961.3	4.5471
1962.78	4.88247
1964.26	4.83194
1965.74	4.83459
1967.22	4.05766
1968.7	3.95849
1970.18	3.72069
1971.65	3.48946
1973.13	3.12556
1974.61	3.24094
1976.09	2.80211
1977.57	2.98704
1979.04	3.60353
1980.52	3.77296
1982	3.88947
1983.47	4.39348
1984.95	4.51318
1986.42	4.98054
1987.9	5.25726
1989.37	6.07984
1990.85	6.71546
1992.32	6.93583
1993.8	7.26364
1995.27	7.51297
1996.75	7.71182
1998.22	6.98782
1999.69	7.7044
2001.17	7.42681
2002.64	8.46049
2004.11	8.06941
2005.58	8.22514
2007.05	8.78999
2008.53	9.08453
2010	9.30983
2011.47	9.71018
2012.94	9.95875
2014.41	10.022
2015.88	10.343
2017.35	11.027
2018.82	11.5952
2020.29	12.6437
2021.76	12.8594
2023.23	13.5349
2024.7	13.8969
2026.16	14.7302
2027.63	14.8612
2029.1	14.9358
2030.57	15.0082
2032.03	14.1593
2033.5	14.3873
2034.97	13.8867
2036.44	14.1173
2037.9	14.3354
2039.37	13.5649
2040.83	13.8923
2042.3	14.7989
2043.76	14.5782
2045.23	15.7005
2046.69	16.3617
2048.16	16.4833
2049.62	16.2463
2051.08	16.7244
2052.55	16.4713
2054.01	16.3491
2055.47	16.4955
2056.94	16.2672
2058.4	16.6494
2059.86	16.5402
2061.32	16.74
2062.79	17.2076
2064.25	17.1608
2065.71	17.0998
2067.17	17.9344
2068.63	17.8814
2070.09	18.0594
2071.55	18.3761
2073.01	19.735
2074.47	20.0571
2075.93	20.8111
2077.39	20.87
2078.85	21.4129
2080.31	21.3848
2081.76	21.2529
2083.22	21.582
2084.68	22.5176
2086.13	23.7011
2087.59	25.262
2089.05	26.6746
2090.51	27.3101
2091.96	27.8446
2093.42	29.2772
2094.87	29.6926
2096.33	30.539
2097.78	31.3763
2099.24	32.1177
2100.69	32.1966
2102.15	32.843
2103.6	33.8267
2105.06	33.9514
2106.51	34.3259
2107.96	35.1522
2109.42	36.0808
2110.87	36.9206
2112.32	37.8408
2113.77	39.9636
2115.23	41.4454
2116.68	42.2491
2118.13	43.0196
2119.58	43.1656
2121.03	43.9731
2122.48	45.0541
2123.93	45.892
2125.38	46.5041
2126.83	47.6594
2128.28	49.0186
2129.73	50.5176
2131.18	52.7331
2132.63	54.2095
2134.08	56.2478
2135.53	57.2003
2136.97	58.8034
2138.42	60.4045
2139.87	62.1179
