#Acq. time (s)=	45
#Accumulations=	2
#Range (cm-¹)=	200...3150
#Windows=	2
#Auto scanning=	Off
#Autofocus=	Off
#Macrospot=	Off
#AutoExposure=	Off
#Spike filter=	Multiple accum.
#Delay time (s)=	0
#Binning=	1
#Readout mode=	Signal
#DeNoise=	Off
#ICS correction=	On
#Dark correction=	Off
#Inst. Process=	Off
#Detector Gain=	Best Dynamic Range
#Detector ADC=	20 kHz       
#Detector temperature (°C)=	-69.85
#Instrument=	LabRAM HR Evol
#Detector=	Synapse
#Objective=	x100
#Grating=	600 gr/mm
#ND Filter=	100%
#Laser (nm)=	532 
#Hole=	100.021
#Range=	Auto
#Laser Pol.=	No
#Raman. Pol.=	No
#Laser Pol. (°)=	-0.0007625
#Raman Pol. (°)=	89.9995
#Collection=	Microscope
#StageXY=	Marzhauser
#StageZ=	Marzhauser
#X (µm)=	-1110.8
#Y (µm)=	584.4
#Z (µm)=	584.15
#Full time(mm:ss)=	3:18
#Project=	
#Sample=	
#Site=	
#Title=	Mb_40_y_34_2x_45s_532 nm_x100_100%_600 gr_mm
#Remark=	
#Date=	19.07.2022 12:11
#Acquired=	19.07.2022 12:11:53
#Base:Fit=	10.08.2022 10:52:48
#Base:Sub=	10.08.2022 10:52:53
#Filter:Polynom=	16.08.2022 10:09:04
#AxisType[0]=Intens
#AxisUnit[0]=Cnt
#AxisType[1]=Spectr
#AxisUnit[1]=1/cm
200.423	16.8008
202.238	13.4454
204.052	11.4075
205.868	9.29066
207.682	7.84251
209.495	6.82958
211.308	5.92887
213.12	4.65853
214.935	3.11638
216.746	2.07445
218.558	0.651423
220.369	1.19127
222.18	1.34668
223.992	2.08451
225.802	2.85228
227.612	2.24092
229.421	2.93225
231.23	3.44376
233.039	4.53841
234.849	5.50719
236.657	6.61761
238.465	6.83819
240.272	7.23431
242.079	7.01795
243.885	8.59056
245.691	8.42289
247.497	8.10911
249.305	9.66197
251.11	10.2935
252.915	11.1728
254.719	11.7685
256.523	11.9802
258.327	13.1156
260.13	14.1725
261.933	14.7409
263.736	15.8949
265.538	16.985
267.34	17.0184
269.141	16.9933
270.943	17.5587
272.744	17.8312
274.544	18.6072
276.344	18.8327
278.144	18.095
279.944	17.5902
281.743	18.4263
283.542	18.5945
285.34	18.4283
287.138	18.2257
288.936	18.1937
290.733	17.8469
292.53	17.247
294.327	16.8358
296.123	16.9318
297.919	16.7767
299.715	16.3442
301.508	16.4096
303.303	15.8079
305.098	16.3542
306.892	17.4367
308.686	17.7093
310.479	18.9445
312.273	19.5894
314.065	19.7606
315.858	19.8423
317.648	19.8121
319.44	20.4869
321.231	20.2438
323.022	20.1408
324.813	20.3482
326.604	20.5034
328.392	19.896
330.181	19.995
331.971	19.7796
333.76	20.5811
335.548	19.5586
337.335	20.42
339.123	21.7931
340.91	20.8069
342.698	20.9964
344.483	21.3768
346.269	22.1901
348.055	22.5398
349.841	22.5909
351.625	23.3214
353.41	23.4582
355.195	22.7725
356.977	21.4047
358.762	20.8078
360.545	20.0777
362.329	20.3805
364.11	19.6094
365.893	18.3242
367.675	18.049
369.455	18.5328
371.237	19.3553
373.017	18.3053
374.798	18.1115
376.578	17.5874
378.357	16.229
380.137	15.859
381.917	15.8661
383.694	15.6404
385.473	16.5835
387.249	15.7831
389.028	15.1001
390.806	14.1946
392.581	13.4729
394.359	13.6511
396.134	13.5024
397.91	13.048
399.684	13.1665
401.46	13.0267
403.234	11.7512
405.009	12.0514
406.784	10.5214
408.557	10.086
410.331	9.3882
412.103	8.9604
413.876	9.20364
415.647	8.73122
417.42	7.57656
419.191	7.76166
420.961	7.6196
422.733	7.55481
424.502	7.44848
426.273	6.99978
428.042	6.48313
429.812	6.33671
431.58	6.62863
433.35	5.61388
435.118	5.0613
436.885	4.64574
438.653	3.94303
440.42	3.9984
442.188	3.33925
443.954	3.73408
445.719	4.08251
447.486	4.9423
449.251	5.8942
451.015	6.1565
452.781	6.30925
454.545	7.21113
456.308	8.28842
458.073	9.5069
459.836	9.71551
461.598	9.67829
463.362	9.69763
465.124	8.88665
466.885	8.92511
468.648	8.80039
470.408	9.23483
472.169	9.50923
473.929	10.4132
475.69	9.23828
477.45	10.3087
479.208	10.7471
480.967	12.3654
482.727	13.1817
484.485	13.2417
486.243	14.3771
488	14.2336
489.759	14.4914
491.515	14.7952
493.272	15.4275
495.028	14.3404
496.783	14.9927
498.54	15.4923
500.295	15.9746
502.05	15.9668
503.804	16.4076
505.558	15.6774
507.311	16.4922
509.064	16.4997
510.819	16.1933
512.572	15.3055
514.324	14.4252
516.076	13.9637
517.827	13.496
519.578	11.8464
521.329	10.3033
523.08	10.9221
524.83	10.7967
526.58	11.8533
528.329	12.5371
530.08	12.8704
531.829	12.6339
533.578	12.2332
535.326	12.3617
537.074	11.5057
538.821	10.6123
540.568	10.0033
542.315	9.10274
544.062	8.69598
545.808	7.61038
547.554	7.11606
549.299	6.00311
551.044	5.25373
552.789	4.66083
554.533	4.47454
556.278	3.57312
558.019	3.69306
559.763	3.07633
561.506	3.66771
563.249	3.56399
564.991	4.91759
566.733	4.4584
568.475	4.73734
570.217	3.57508
571.958	3.49133
573.699	3.97275
575.439	3.42535
577.177	4.06575
578.917	4.3211
580.656	4.48646
582.396	4.58083
584.134	5.37449
585.873	5.66038
587.609	5.53665
589.347	5.37954
591.084	6.14104
592.822	5.79099
594.558	6.20522
596.295	5.33519
598.029	4.5323
599.765	3.91312
601.5	4.2188
603.235	4.4805
604.968	4.16467
606.703	3.40629
608.437	4.50782
610.171	5.49873
611.902	5.04091
613.635	5.8237
615.368	4.39497
617.099	5.06687
618.831	4.59334
620.563	4.76917
622.294	5.24742
624.024	5.23372
625.755	5.22213
627.485	5.78465
629.213	5.82025
630.943	5.87076
632.673	5.06091
634.4	5.49944
636.129	5.40243
637.855	5.63831
639.584	5.03061
641.312	4.74171
643.037	4.98469
644.764	5.23289
646.491	4.49102
648.216	4.83938
649.942	4.78691
651.666	5.14664
653.392	4.15712
655.115	3.92326
656.84	3.9978
658.563	4.58611
660.287	4.5071
662.011	4.75878
663.732	4.48754
665.456	4.58857
667.177	4.391
668.899	4.88552
670.62	5.05139
672.342	6.37264
674.061	7.67182
675.781	8.26409
677.502	8.88366
679.22	9.10709
680.941	9.69116
682.659	11.131
684.379	11.9583
686.096	12.276
687.815	12.4947
689.532	13.1916
691.248	13.4805
692.966	14.1072
694.682	15.454
696.4	15.7136
698.115	16.1775
699.829	18.3132
701.546	19.0192
703.26	20.9299
704.974	21.6334
706.689	23.2335
708.402	24.6476
710.115	25.047
711.83	25.5132
713.542	25.6458
715.254	25.3773
716.967	26.4038
718.679	27.3289
720.39	29.0017
722.102	30.207
723.812	30.1048
725.522	29.7097
727.232	29.9915
728.943	31.0494
730.652	31.468
732.361	31.6762
734.069	32.4207
735.779	32.9428
737.487	33.8015
739.194	34.6547
740.901	35.8342
742.608	36.5939
744.316	36.4631
746.022	37.5279
747.728	38.9442
749.433	40.4406
751.138	41.9059
752.843	44.0771
754.549	46.3902
756.254	47.7887
757.957	50.0635
759.661	50.8963
761.364	51.5037
763.067	52.4579
764.769	53.6931
766.471	54.6743
768.175	55.2772
769.877	55.5636
771.578	56.1507
773.279	57.2155
774.98	58.8645
776.68	58.8996
778.38	60.1508
780.079	61.5636
781.779	62.1088
783.478	62.8352
785.176	64.675
786.875	65.8916
788.573	66.4545
790.27	67.2791
791.968	67.8597
793.665	68.8576
795.361	68.9935
797.058	69.2222
798.754	69.6418
800.45	70.6585
802.145	71.2289
803.84	71.8507
805.535	71.7007
807.23	71.3019
808.922	70.2952
810.616	69.8707
812.309	69.9083
814.002	69.3913
815.695	69.9089
817.388	70.1
819.08	69.8812
820.772	69.6366
822.464	69.5064
824.153	68.8428
825.844	67.325
827.535	66.3085
829.225	66.4271
830.915	67.52
832.605	66.5803
834.292	66.1783
835.981	65.1386
837.67	64.2247
839.359	63.2452
841.047	61.9019
842.732	60.4291
844.42	59.1407
846.107	57.1693
847.794	56.3479
849.479	55.342
851.165	53.8755
852.851	52.804
854.534	51.5249
856.22	50.2445
857.905	50.0081
859.589	49.3079
861.272	48.1057
862.956	47.2189
864.639	46.1539
866.321	45.5018
868.004	46.3046
869.687	46.3729
871.367	45.5086
873.049	43.6719
874.731	43.6869
876.41	42.8368
878.092	41.6286
879.771	40.8215
881.451	41.2563
883.131	40.8128
884.809	39.9687
886.489	39.5882
888.166	39.6608
889.845	38.8199
891.522	38.6815
893.2	37.6456
894.878	37.4593
896.554	37.3185
898.231	37.0034
899.906	37.1385
901.583	36.7933
903.258	35.9747
904.934	35.8262
906.608	37.4735
908.283	38.4877
909.956	39.2037
911.631	40.6494
913.304	41.5144
914.976	42.2593
916.65	42.3898
918.322	42.9847
919.995	43.1275
921.666	43.6414
923.339	43.1846
925.009	42.1915
926.679	41.979
928.351	42.7041
930.021	41.7679
931.692	42.0957
933.361	40.8925
935.029	40.085
936.699	40.5485
938.367	40.6258
940.035	40.7983
941.704	40.2015
943.371	39.5077
945.038	39.3565
946.706	38.247
948.372	38.357
950.038	37.3893
951.705	36.8588
953.37	34.9297
955.035	33.3438
956.7	33.0281
958.366	31.747
960.03	30.1922
961.693	29.7033
963.357	30.1154
965.021	29.3664
966.684	26.9783
968.346	25.7896
970.008	24.7003
971.67	23.721
973.334	21.8579
974.995	21.1303
976.655	19.3277
978.316	19.2015
979.976	18.6624
981.638	18.6669
983.297	18.7142
984.957	18.7281
986.616	18.2607
988.274	18.5889
989.932	18.2911
991.59	17.7966
993.248	16.3801
994.907	15.767
996.565	14.9559
998.221	13.3374
999.878	11.5766
1001.53	9.99251
1003.19	8.75678
1004.85	7.70795
1006.5	6.98831
1008.16	8.99649
1009.81	10.7206
1011.46	13.6383
1013.12	16.5845
1014.77	20.2189
1016.43	24.0708
1018.08	28.5607
1019.73	33.0605
1021.38	37.2793
1023.04	41.8951
1024.69	46.2143
1026.34	51.0554
1027.99	54.7461
1029.64	56.9391
1031.29	59.8519
1032.94	62.6075
1034.59	65.8252
1036.24	68.1987
1037.89	69.8305
1039.54	71.7759
1041.19	72.5815
1042.84	74.1812
1044.48	74.5967
1046.13	74.9226
1047.78	73.893
1049.42	73.1882
1051.07	72.4503
1052.72	71.8347
1054.36	70.54
1056.01	68.8974
1057.66	66.1319
1059.3	63.1541
1060.94	60.4615
1062.59	57.0532
1064.23	54.0055
1065.88	48.919
1067.52	45.0189
1069.16	41.4326
1070.81	36.6322
1072.45	32.0401
1074.09	28.2073
1075.73	23.2567
1077.38	19.3537
1079.02	14.2083
1080.66	8.87695
1082.3	4.93144
1083.94	2.63196
1085.58	2.30081
1087.22	2.98447
1088.86	4.28866
1090.5	6.16206
1092.13	7.2372
1093.77	9.26656
1095.41	10.7226
1097.05	11.6985
1098.68	13.1538
1100.32	14.5807
1101.96	16.9771
1103.6	17.9863
1105.23	18.1442
1106.87	17.9901
1108.5	18.4817
1110.14	18.0211
1111.77	17.8549
1113.41	19.2607
1115.04	19.7877
1116.67	20.4322
1118.31	21.0059
1119.94	20.4295
1121.58	20.6609
1123.21	21.2514
1124.84	20.8652
1126.47	20.683
1128.1	21.63
1129.73	20.8739
1131.37	20.5782
1133	19.8504
1134.63	19.692
1136.26	18.7293
1137.89	17.4545
1139.52	15.7923
1141.14	15.1052
1142.77	13.8295
1144.4	14.2554
1146.03	13.333
1147.66	11.3872
1149.29	11.5867
1150.91	10.5208
1152.54	8.70696
1154.17	7.47458
1155.79	5.80399
1157.42	3.68068
1159.04	2.45551
1160.67	1.54876
1162.3	1.20153
1163.92	2.27624
1165.55	3.21076
1167.17	4.08507
1168.79	4.35054
1170.42	3.68355
1172.04	4.33242
1173.66	4.58616
1175.28	4.20912
1176.91	4.07944
1178.53	3.43921
1180.15	3.96766
1181.77	4.63377
1183.39	4.16872
1185.01	3.04426
1186.63	2.63515
1188.25	3.29589
1189.87	3.7917
1191.49	4.08654
1193.11	5.46804
1194.73	6.68315
1196.35	6.93324
1197.97	8.0735
1199.59	8.21111
1201.2	9.01001
1202.82	10.0572
1204.44	10.873
1206.05	11.1318
1207.67	11.886
1209.29	12.1441
1210.9	12.472
1212.52	14.0214
1214.13	15.1056
1215.75	15.6077
1217.36	15.8221
1218.97	15.8506
1220.59	16.5507
1222.2	16.839
1223.82	18.223
1225.43	18.52
1227.04	17.1342
1228.65	16.4515
1230.26	17.8853
1231.88	17.9066
1233.49	18.4409
1235.1	19.2619
1236.71	19.6632
1238.32	20.085
1239.93	21.376
1241.54	22.2474
1243.15	22.7217
1244.76	23.3886
1246.37	23.7291
1247.97	24.9737
1249.58	25.7968
1251.19	26.3413
1252.8	27.7504
1254.41	27.0995
1256.01	27.4175
1257.62	28.0764
1259.23	28.699
1260.83	30.2542
1262.44	30.6091
1264.04	30.6478
1265.65	30.617
1267.25	31.1139
1268.86	32.0417
1270.46	32.1621
1272.07	32.6895
1273.67	33.1079
1275.27	33.4508
1276.88	33.673
1278.48	34.4424
1280.08	34.8681
1281.68	35.7788
1283.28	35.6508
1284.89	36.4773
1286.49	37.1364
1288.09	37.34
1289.69	37.6834
1291.29	38.5764
1292.89	39.2044
1294.49	38.9599
1296.09	39.1195
1297.69	40.3382
1299.29	41.3497
1300.88	42.0015
1302.48	41.9405
1304.08	42.1007
1305.68	41.7028
1307.27	42.1802
1308.87	43.3279
1310.47	44.7382
1312.06	44.7119
1313.66	45.1273
1315.25	44.7585
1316.85	44.4414
1318.44	44.6411
1320.04	45.9877
1321.63	45.9116
1323.23	45.8226
1324.82	45.9125
1326.41	46.1883
1328.01	46.0509
1329.6	44.1896
1331.19	42.3534
1332.78	41.0724
1334.38	41.0368
1335.97	42.3488
1337.56	42.7675
1339.15	43.2184
1340.74	43.5122
1342.33	43.5237
1343.92	42.6568
1345.51	41.9547
1347.1	42.0199
1348.69	41.5303
1350.28	41.1151
1351.87	41.3543
1353.46	41.1923
1355.04	41.3724
1356.63	40.2825
1358.22	40.411
1359.81	39.3723
1361.39	38.9674
1362.98	38.2656
1364.57	37.3515
1366.15	36.6539
1367.74	36.1559
1369.32	35.5444
1370.91	34.9473
1372.49	34.7582
1374.07	34.271
1375.66	34.3038
1377.24	34.5883
1378.83	34.2925
1380.41	32.6892
1381.99	31.595
1383.57	30.4226
1385.16	29.6267
1386.74	28.1441
1388.32	28.3115
1389.9	27.8334
1391.48	27.5967
1393.06	27.6492
1394.64	27.061
1396.22	26.7957
1397.8	27.4693
1399.38	27.6654
1400.96	26.5865
1402.54	27.1293
1404.12	26.7128
1405.7	26.2424
1407.28	25.3475
1408.85	24.7132
1410.43	26.4496
1412.01	29.0691
1413.58	31.6291
1415.16	32.4194
1416.74	33.7303
1418.31	34.1088
1419.89	35.3746
1421.46	35.7491
1423.04	36.2545
1424.61	37.9874
1426.19	39.5462
1427.76	40.851
1429.33	42.7734
1430.91	44.219
1432.48	44.9904
1434.05	46.2851
1435.63	46.8889
1437.2	48.3838
1438.77	48.5188
1440.34	49.8951
1441.91	49.6626
1443.49	50.0905
1445.05	50.4686
1446.63	50.2606
1448.2	50.327
1449.77	50.639
1451.34	50.0178
1452.91	49.3525
1454.47	49.0881
1456.04	48.0403
1457.61	47.3827
1459.18	45.8495
1460.75	45.0499
1462.31	45.2075
1463.88	44.9364
1465.45	44.5926
1467.01	44.9388
1468.58	44.3
1470.15	43.4547
1471.71	42.6371
1473.28	42.111
1474.84	41.5472
1476.41	40.6809
1477.97	39.0979
1479.54	37.9429
1481.1	37.412
1482.66	36.1185
1484.23	35.1073
1485.79	34.0118
1487.35	33.2573
1488.91	32.2922
1490.48	31.2795
1492.04	30.3938
1493.6	29.4775
1495.16	29.114
1496.72	28.9554
1498.28	28.5144
1499.84	27.9119
1501.4	28.5001
1502.96	29.1567
1504.52	28.8877
1506.08	28.4317
1507.64	27.336
1509.2	25.81
1510.76	25.0173
1512.31	24.7248
1513.87	23.5921
1515.43	23.1314
1516.99	22.288
1518.54	21.9346
1520.1	20.7115
1521.66	20.18
1523.21	19.6343
1524.77	18.5804
1526.32	18.5983
1527.88	17.3156
1529.43	16.6931
1530.99	15.9275
1532.54	16.3844
1534.09	16.0349
1535.65	15.8414
1537.2	15.4917
1538.75	15.2283
1540.31	15.7491
1541.86	15.2359
1543.41	15.8956
1544.96	16.2184
1546.51	16.7924
1548.06	17.0521
1549.62	17.7938
1551.17	18.1479
1552.72	18.1202
1554.27	18.4223
1555.82	18.8252
1557.36	18.9652
1558.91	19.2385
1560.46	19.7363
1562.01	20.4525
1563.56	21.6177
1565.11	22.0617
1566.66	22.7196
1568.2	22.8092
1569.75	22.9128
1571.3	23.4016
1572.84	23.6568
1574.39	25.0287
1575.93	25.2038
1577.48	26.2758
1579.02	27.3133
1580.57	28.3744
1582.11	26.8426
1583.66	26.5262
1585.2	26.5467
1586.75	27.1008
1588.29	28.1947
1589.83	28.8061
1591.38	28.6983
1592.92	29.4057
1594.46	29.3869
1596	29.8956
1597.54	30.0962
1599.09	30.6345
1600.63	30.8749
1602.17	30.3498
1603.71	30.8757
1605.25	29.7211
1606.79	30.1172
1608.33	30.007
1609.87	30.6264
1611.41	29.7792
1612.95	29.8852
1614.48	30.2333
1616.02	30.553
1617.56	31.1103
1619.1	31.9407
1620.64	32.5502
1622.17	33.0408
1623.71	34.1539
1625.25	34.3833
1626.78	34.6149
1628.32	34.8539
1629.86	35.6019
1631.39	36.0747
1632.92	36.3329
1634.46	36.8348
1635.99	37.3963
1637.53	38.0762
1639.06	37.7024
1640.59	37.78
1642.13	37.3262
1643.66	37.4045
1645.19	37.4904
1646.73	38.5824
1648.26	39.5694
1649.79	40.6985
1651.32	41.7509
1652.85	41.8322
1654.38	41.7185
1655.92	41.7845
1657.45	41.5132
1658.98	40.0969
1660.51	40.8249
1662.04	40.9661
1663.57	40.082
1665.09	40.2144
1666.62	39.69
1668.15	39.3998
1669.68	38.9392
1671.21	37.891
1672.73	37.0172
1674.26	35.5811
1675.79	33.9946
1677.31	32.1819
1678.84	30.4693
1680.37	29.3658
1681.89	27.8602
1683.42	26.8567
1684.94	24.802
1686.47	22.935
1687.99	21.1565
1689.52	19.7975
1691.04	18.8552
1692.57	17.5098
1694.09	16.2092
1695.61	15.6157
1697.14	14.5584
1698.66	13.9529
1700.18	12.9214
1701.7	12.0227
1703.22	10.9072
1704.75	9.44002
1706.27	8.43216
1707.79	7.65286
1709.31	6.4741
1710.83	5.57039
1712.35	4.77117
1713.87	4.1877
1715.39	4.16037
1716.91	4.24706
1718.43	4.05518
1719.95	3.63068
1721.46	3.96713
1722.98	3.82904
1724.5	4.13254
1726.02	4.51821
1727.53	3.7839
1729.05	3.48289
1730.57	3.64385
1732.08	4.05431
1733.6	3.81833
1735.12	3.99974
1736.63	4.49775
1738.15	4.85676
1739.66	4.94851
1741.18	5.67769
1742.69	5.67591
1744.21	5.46266
1745.72	4.82356
1747.23	4.46604
1748.74	4.4675
1750.26	4.30317
1751.77	4.31152
1753.28	4.58015
1754.8	4.66974
1756.31	4.1106
1757.82	3.56013
1759.33	3.1846
1760.84	3.02899
1762.35	2.91167
1763.86	2.61239
1765.37	2.23763
1766.88	2.97205
1768.39	2.26205
1769.9	2.41454
1771.41	2.91594
1772.92	2.41779
1774.43	2.18082
1775.93	1.69721
1777.44	1.45028
1778.95	0.479125
1780.46	0.751604
1781.96	1.04024
1783.47	0.910707
1784.98	0.431521
1786.48	0.445283
1787.99	0.591657
1789.49	0.946857
1791	0.828658
1792.5	0.130276
1794.01	0.290346
1795.51	0.184587
1797.02	0.599772
1798.52	0.683608
1800.03	0.728142
1801.53	0.0348087
1803.03	-0.262314
1804.53	0.126484
1806.04	0.460537
1807.54	0.612584
1809.04	0.804217
1810.54	1.38141
1812.04	1.21691
1813.54	1.31173
1815.05	1.37681
1816.55	1.38508
1818.05	1.47695
1819.55	1.23463
1821.05	1.31948
1822.55	1.5608
1824.05	1.90158
1825.54	1.94062
1827.04	2.13123
1828.54	2.3031
1830.04	2.22751
1831.54	1.74276
1833.03	2.14701
1834.53	2.43052
1836.03	2.50379
1837.52	2.5594
1839.02	2.80679
1840.52	2.8946
1842.01	3.58364
1843.51	3.11276
1845	3.20201
1846.5	3.32305
1847.99	2.80684
1849.49	2.96536
1850.98	3.04926
1852.47	3.52146
1853.97	3.56176
1855.46	3.31749
1856.95	2.71825
1858.45	2.84036
1859.94	2.53648
1861.43	2.44271
1862.92	2.38741
1864.41	2.57561
1865.91	2.40728
1867.4	2.82964
1868.89	3.10464
1870.38	3.16365
1871.87	2.99478
1873.36	2.88438
1874.85	2.34281
1876.34	2.23338
1877.83	2.31532
1879.31	1.89206
1880.8	1.89411
1882.29	1.27038
1882.56	0.840722
1884.05	0.501742
1885.54	0.26955
1887.04	0.451186
1888.53	0.308161
1890.03	0.0683849
1891.52	0.384181
1893.01	0.605388
1894.5	1.52398
1895.99	1.5331
1897.49	1.55028
1898.98	1.83097
1900.47	1.75451
1901.96	1.9782
1903.45	1.84924
1904.94	2.42784
1906.43	2.77726
1907.92	2.76907
1909.41	3.23417
1910.9	3.44948
1912.39	3.91808
1913.88	3.8024
1915.37	3.814
1916.86	3.63314
1918.35	3.07876
1919.84	3.02736
1921.32	2.73698
1922.81	2.59644
1924.3	3.03257
1925.78	3.28468
1927.27	3.3986
1928.76	2.81036
1930.24	3.16241
1931.73	3.97959
1933.21	3.63051
1934.7	3.80585
1936.18	3.9496
1937.67	4.11859
1939.15	3.85091
1940.64	3.5161
1942.12	3.62862
1943.6	3.34548
1945.09	2.88688
1946.57	2.52756
1948.05	3.09037
1949.54	3.1486
1951.02	2.42938
1952.5	2.08871
1953.98	2.29028
1955.46	1.65736
1956.94	2.01066
1958.42	3.03816
1959.91	3.62639
1961.39	4.33665
1962.87	4.2992
1964.34	4.62691
1965.82	5.11031
1967.3	5.23303
1968.78	5.48469
1970.26	5.16642
1971.74	5.35681
1973.22	5.96662
1974.7	6.15048
1976.17	6.49723
1977.65	6.68152
1979.13	7.04306
1980.6	7.51726
1982.08	7.42103
1983.56	7.91125
1985.03	7.69417
1986.51	7.91356
1987.98	7.68952
1989.46	8.4874
1990.93	8.17909
1992.41	8.27143
1993.88	8.30181
1995.36	7.84563
1996.83	8.17107
1998.3	8.31987
1999.78	8.50307
2001.25	8.20168
2002.72	8.10551
2004.2	8.53979
2005.67	8.44858
2007.14	8.12278
2008.61	7.62555
2010.08	7.11623
2011.55	6.38999
2013.02	6.41146
2014.49	6.80862
2015.97	6.51398
2017.43	6.0849
2018.9	6.38217
2020.37	6.2269
2021.84	6.33679
2023.31	5.63449
2024.78	5.17084
2026.25	5.96146
2027.72	6.71284
2029.19	6.68437
2030.65	7.15189
2032.12	7.26355
2033.59	7.0009
2035.05	7.05103
2036.52	6.75844
2037.98	6.91973
2039.45	7.2237
2040.92	7.68209
2042.38	7.94399
2043.85	7.87462
2045.31	8.3773
2046.78	8.90041
2048.24	8.6946
2049.71	9.01737
2051.17	8.9585
2052.63	9.16753
2054.1	9.40417
2055.56	9.49811
2057.02	10.1312
2058.48	10.3905
2059.95	10.8233
2061.41	11.0744
2062.87	11.3335
2064.33	10.3343
2065.79	10.7104
2067.25	10.7882
2068.71	11.794
2070.17	12.7411
2071.63	13.2644
2073.09	13.6666
2074.55	14.0039
2076.01	14.6629
2077.47	14.7293
2078.93	14.7493
2080.39	15.0705
2081.85	14.9598
2083.3	15.1497
2084.76	15.8227
2086.22	16.5212
2087.68	16.9453
2089.13	17.4192
2090.59	18.609
2092.05	18.9199
2093.5	18.9763
2094.96	19.5187
2096.41	20.0306
2097.87	20.6747
2099.32	21.3868
2100.78	21.9648
2102.23	22.4114
2103.69	23.3161
2105.14	23.67
2106.59	24.2147
2108.05	24.6096
2109.5	24.7954
2110.95	24.9497
2112.41	25.5681
2113.86	26.7742
2115.31	27.4123
2116.76	28.1092
2118.21	29.0679
2119.67	29.7354
2121.12	30.7519
2122.57	31.4414
2124.02	31.6669
2125.47	32.5807
2126.92	33.262
2128.37	34.4012
2129.82	35.3435
2131.27	36.4956
2132.71	37.3861
2134.16	38.3459
