#Acq. time (s)=	45
#Accumulations=	2
#Range (cm-¹)=	200...3150
#Windows=	2
#Auto scanning=	Off
#Autofocus=	Off
#Macrospot=	Off
#AutoExposure=	Off
#Spike filter=	Multiple accum.
#Delay time (s)=	0
#Binning=	1
#Readout mode=	Signal
#DeNoise=	Off
#ICS correction=	On
#Dark correction=	Off
#Inst. Process=	Off
#Detector Gain=	Best Dynamic Range
#Detector ADC=	20 kHz       
#Detector temperature (°C)=	-70.08
#Instrument=	LabRAM HR Evol
#Detector=	Synapse
#Objective=	x100
#Grating=	600 gr/mm
#ND Filter=	100%
#Laser (nm)=	532 
#Hole=	100.021
#Range=	Auto
#Laser Pol.=	No
#Raman. Pol.=	No
#Laser Pol. (°)=	-0.0007625
#Raman Pol. (°)=	89.9995
#Collection=	Microscope
#StageXY=	Marzhauser
#StageZ=	Marzhauser
#X (µm)=	-2521.1
#Y (µm)=	-104.7
#Z (µm)=	-10.7
#Full time(mm:ss)=	3:19
#Project=	
#Sample=	
#Site=	
#Title=	Mb_40_24_22_2x_45s_532 nm_x100_100%_600 gr_mm
#Remark=	
#Date=	14.07.2022 12:19
#Acquired=	14.07.2022 12:19:37
#Base:Fit=	10.08.2022 10:47:00
#Base:Sub=	10.08.2022 10:47:12
#Filter:Polynom=	16.08.2022 10:11:48
#AxisType[0]=Intens
#AxisUnit[0]=Cnt
#AxisType[1]=Spectr
#AxisUnit[1]=1/cm
200.554	21.5262
202.369	19.2968
204.183	16.7417
205.999	14.3826
207.813	11.9625
209.626	10.009
211.439	8.53726
213.253	7.36116
215.065	6.41974
216.877	4.40328
218.688	5.74868
220.5	6.20467
222.312	6.9241
224.123	7.56492
225.933	9.27552
227.742	11.3186
229.552	10.6578
231.361	9.63317
233.171	10.0639
234.98	9.80564
236.787	9.57243
238.595	8.98747
240.402	8.0552
242.209	8.48512
244.015	7.84241
245.822	8.40257
247.627	9.781
249.435	11.1118
251.24	11.3946
253.045	11.3347
254.849	12.0371
256.653	14.4426
258.457	14.251
260.26	14.658
262.063	15.4721
263.866	15.6691
265.668	17.0174
267.47	17.2798
269.271	17.8388
271.073	17.2885
272.873	16.122
274.674	17.285
276.474	17.8785
278.274	17.1914
280.073	17.3046
281.872	18.6929
283.671	18.9597
285.47	18.8673
287.268	18.7999
289.065	17.9945
290.863	18.2621
292.66	20.7533
294.456	21.9135
296.253	21.5632
298.049	23.3741
299.844	24.3036
301.637	24.9455
303.432	25.8707
305.227	26.0823
307.021	27.543
308.815	30.3004
310.609	30.6402
312.402	31.5486
314.195	32.9045
315.987	33.6982
317.777	33.0946
319.569	31.8414
321.36	32.1277
323.151	32.6579
324.942	32.5825
326.733	32.3613
328.521	32.9594
330.31	32.1996
332.1	33.112
333.889	33.1544
335.677	33.102
337.464	33.3615
339.252	32.8982
341.039	31.5773
342.826	33.2366
344.611	33.3577
346.398	33.9804
348.184	33.539
349.97	33.6929
351.754	33.1086
353.539	32.5591
355.324	32.2049
357.106	31.5142
358.89	32.2029
360.674	30.8341
362.455	30.6422
364.239	31.7943
366.021	31.5399
367.804	30.3525
369.584	29.2581
371.366	29.2046
373.145	28.3989
374.926	27.7824
376.707	27.8704
378.485	27.8809
380.265	27.3453
382.045	27.5632
383.822	25.8405
385.601	24.909
387.378	26.1662
389.156	25.371
390.934	25.2355
392.71	25.0092
394.487	25.4267
396.262	24.9192
398.038	24.5898
399.813	25.1202
401.588	24.9784
403.362	25.3895
405.137	25.419
406.912	25.8277
408.685	25.5099
410.459	25.3501
412.23	24.9586
414.004	25.233
415.775	25.1772
417.548	25.4391
419.318	23.4522
421.089	23.7091
422.86	22.8729
424.63	22.4929
426.401	23.2379
428.17	21.094
429.94	21.4728
431.708	21.9076
433.478	21.2353
435.245	22.2573
437.012	21.886
438.781	21.6478
440.547	21.4978
442.315	21.7172
444.081	21.5327
445.846	21.6033
447.613	20.0281
449.378	18.9249
451.142	18.8004
452.908	18.0631
454.672	17.9465
456.435	17.5592
458.2	17.7909
459.963	17.7478
461.725	17.8123
463.489	18.7934
465.251	19.7888
467.012	20.1516
468.775	19.5289
470.536	21.9938
472.296	22.7722
474.056	22.9866
475.817	23.7444
477.576	23.5072
479.335	23.9572
481.094	23.4663
482.854	24.5748
484.612	24.6079
486.37	26.5918
488.127	27.5325
489.886	27.6891
491.642	28.8216
493.398	29.5373
495.154	29.7454
496.91	29.9051
498.667	30.8695
500.422	31.2707
502.176	31.6557
503.93	31.6989
505.684	30.9843
507.438	29.2149
509.191	29.4572
510.946	28.3817
512.698	27.6962
514.45	26.4557
516.202	25.0225
517.954	26.2876
519.705	24.4847
521.456	25.5323
523.206	24.934
524.956	25.1733
526.706	24.1091
528.456	22.8952
530.207	22.5884
531.956	20.5604
533.704	19.8261
535.452	19.385
537.2	19.6348
538.947	20.0772
540.694	20.4028
542.441	21.5109
544.188	21.5685
545.934	21.142
547.68	19.8592
549.425	20.6825
551.17	20.7743
552.915	20.9763
554.659	19.7508
556.403	19.5048
558.145	20.0996
559.889	18.2027
561.632	17.2625
563.375	16.4739
565.117	15.3686
566.859	15.3348
568.601	14.3171
570.342	13.2804
572.083	11.7009
573.824	10.2154
575.565	10.9769
577.303	11.0678
579.043	11.2464
580.782	10.5025
582.521	10.4206
584.26	9.65105
585.998	9.55707
587.734	9.28382
589.472	8.93105
591.21	7.56741
592.947	6.57485
594.684	6.2941
596.418	5.97206
598.154	5.2867
599.89	5.15401
601.626	5.41107
603.361	5.7577
605.094	6.16267
606.828	6.39662
608.562	7.77886
610.296	6.89735
612.027	7.77316
613.761	6.75019
615.493	8.42492
617.224	9.44996
618.956	8.95932
620.688	10.3485
622.419	11.2127
624.149	11.052
625.879	11.7817
627.61	12.0955
629.338	13.2849
631.068	12.3553
632.797	11.6807
634.525	13.025
636.254	14.1029
637.98	14.9787
639.708	14.7967
641.436	14.4404
643.162	14.6027
644.889	14.1233
646.614	14.377
648.34	14.5326
650.067	14.1928
651.791	13.912
653.516	13.7407
655.239	13.917
656.964	14.2011
658.687	15.8967
660.411	17.5737
662.133	18.5379
663.857	18.403
665.58	19.4584
667.301	20.4916
669.024	21.697
670.744	22.5399
672.464	24.1259
674.186	24.8828
675.905	25.8259
677.626	25.6944
679.345	27.3282
681.065	28.0723
682.783	27.2676
684.503	29.1314
686.22	29.5833
687.939	30.7248
689.656	30.8352
691.372	30.2126
693.09	30.5966
694.806	30.3215
696.523	31.3475
698.239	32.067
699.953	32.0815
701.67	33.0461
703.384	33.2715
705.098	34.4789
706.813	35.2403
708.526	34.9643
710.239	35.1138
711.954	36.1267
713.666	36.8591
715.378	37.1618
717.091	37.6147
718.802	38.708
720.513	39.0504
722.226	38.309
723.936	38.6941
725.646	36.991
727.355	38.1851
729.067	38.6083
730.776	39.19
732.484	39.3925
734.192	38.3172
735.902	38.4073
737.61	37.7746
739.317	37.6876
741.024	38.9771
742.731	40.429
744.439	41.4075
746.145	42.5793
747.851	43.9019
749.556	45.6199
751.262	46.2657
752.966	47.9734
754.673	48.9394
756.377	50.4426
758.081	51.8935
759.784	53.2517
761.487	53.7461
763.19	54.8722
764.892	56.9437
766.594	58.4484
768.296	59.6616
770	62.3482
771.701	63.0482
773.402	64.1822
775.102	64.2619
776.803	64.6369
778.503	65.7468
780.202	66.8054
781.901	69.781
783.6	70.4907
785.299	71.2681
786.997	72.5469
788.695	74.1665
790.393	75.0906
792.09	74.9972
793.787	75.0955
795.484	75.5467
797.18	75.6095
798.877	75.3773
800.572	75.0908
802.268	75.1202
803.963	73.2264
805.658	72.5988
807.35	72.2839
809.044	71.8845
810.738	71.0242
812.432	70.4635
814.125	69.9447
815.818	68.546
817.51	66.5063
819.202	65.3751
820.894	64.6783
822.584	63.6592
824.275	64.3686
825.966	65.029
827.657	64.5947
829.347	63.895
831.037	64.3706
832.725	63.5725
834.414	62.9446
836.103	62.7944
837.792	64.1195
839.481	63.3164
841.167	63.5911
842.854	64.4331
844.542	63.9272
846.229	63.8135
847.914	64.7275
849.6	64.7641
851.287	64.958
852.973	64.0452
854.656	63.8278
856.341	62.6924
858.026	60.7737
859.711	60.5015
861.393	60.132
863.077	60.9754
864.761	60.2831
866.442	59.5372
868.125	57.7356
869.808	56.6639
871.489	56.3238
873.171	56.3902
874.85	56.494
876.532	55.8692
878.213	55.0321
879.892	54.2622
881.572	53.7093
883.251	53.1626
884.931	52.1355
886.61	51.6419
888.287	50.7408
889.966	49.6816
891.643	49.2812
893.321	48.1258
894.997	47.4206
896.675	46.986
898.352	46.9726
900.028	45.4576
901.704	44.4707
903.379	44.8214
905.055	43.5711
906.729	42.989
908.404	42.0314
910.077	41.2534
911.75	41.5446
913.425	41.4836
915.097	40.7996
916.771	41.3328
918.443	40.971
920.116	40.5539
921.787	41.3628
923.46	40.446
925.13	38.9054
926.8	38.8618
928.472	37.5069
930.141	37.0976
931.813	36.997
933.481	36.4836
935.15	35.1162
936.82	32.6126
938.488	31.6224
940.156	30.8317
941.825	29.3598
943.492	29.8632
945.158	27.5527
946.827	26.6669
948.493	25.2598
950.158	25.9118
951.824	27.1913
953.491	27.2398
955.156	26.9553
956.82	26.7899
958.486	26.0368
960.15	25.0375
961.814	25.2617
963.477	25.4949
965.142	25.5617
966.804	25.9834
968.467	26.4643
970.129	27.1821
971.79	26.6284
973.454	26.2439
975.115	27.3407
976.776	26.1509
978.436	27.2562
980.096	28.3408
981.756	28.7943
983.417	28.7765
985.077	29.322
986.736	29.8196
988.394	27.9255
990.052	27.7686
991.71	28.082
993.368	28.4884
995.025	27.2884
996.682	25.8485
998.341	24.5788
999.998	25.185
1001.65	23.0239
1003.31	22.978
1004.97	21.6675
1006.62	20.0465
1008.28	18.0903
1009.93	19.4096
1011.58	18.4945
1013.24	17.1401
1014.89	17.2407
1016.54	16.9841
1018.2	16.282
1019.85	15.8596
1021.5	16.4785
1023.16	16.8484
1024.81	17.2246
1026.46	18.3826
1028.11	18.2482
1029.76	19.9091
1031.41	19.4275
1033.06	20.3029
1034.71	21.3672
1036.36	20.0994
1038.01	20.9758
1039.66	20.5763
1041.31	20.8355
1042.95	21.4082
1044.6	21.7333
1046.25	23.2613
1047.9	23.8149
1049.54	24.2588
1051.19	24.1985
1052.84	24.5829
1054.48	24.8611
1056.13	24.9908
1057.77	24.6348
1059.42	25.3857
1061.06	26.713
1062.71	26.6333
1064.35	24.9484
1066	23.3355
1067.64	22.9276
1069.28	21.7988
1070.93	20.1174
1072.57	20.1319
1074.21	18.8699
1075.85	17.9437
1077.49	16.5677
1079.13	15.3543
1080.78	15.5136
1082.42	16.2754
1084.06	14.8926
1085.7	14.3363
1087.34	12.7685
1088.97	12.6426
1090.61	12.5378
1092.25	13.1382
1093.89	13.6596
1095.53	12.8418
1097.17	13.8571
1098.8	13.4686
1100.44	13.2611
1102.08	13.8616
1103.71	13.8064
1105.35	15.2257
1106.99	15.513
1108.62	14.4732
1110.26	14.3987
1111.89	14.3309
1113.52	13.1228
1115.16	14.4138
1116.79	13.9831
1118.43	12.7069
1120.06	13.2178
1121.69	11.9243
1123.32	12.5035
1124.96	12.7721
1126.59	12.7773
1128.22	13.0541
1129.85	11.8501
1131.48	11.4339
1133.11	10.6327
1134.75	10.3613
1136.37	9.87316
1138	9.11718
1139.63	9.55706
1141.26	10.1563
1142.89	9.80245
1144.52	9.33872
1146.15	9.28342
1147.78	8.87244
1149.4	9.47384
1151.03	8.93397
1152.66	7.85806
1154.28	7.47332
1155.91	6.0548
1157.54	5.32492
1159.16	4.10692
1160.79	4.17894
1162.41	4.29781
1164.04	4.14935
1165.66	3.13778
1167.29	3.83853
1168.91	4.00001
1170.53	5.37926
1172.16	6.00038
1173.78	5.88621
1175.4	7.06774
1177.02	7.0601
1178.65	8.56409
1180.27	9.60788
1181.89	9.99931
1183.51	11.625
1185.13	11.9722
1186.75	13.0305
1188.37	12.9676
1189.99	14.3224
1191.61	15.5182
1193.23	16.5056
1194.85	16.5053
1196.47	18.2388
1198.08	18.0812
1199.7	17.9598
1201.32	18.4138
1202.94	18.2172
1204.55	18.4312
1206.17	19.1463
1207.79	18.4747
1209.4	18.0892
1211.02	18.1217
1212.63	18.8523
1214.25	19.2516
1215.86	20.5011
1217.48	21.6882
1219.09	22.7119
1220.71	23.1388
1222.32	22.3855
1223.93	21.9693
1225.54	20.9372
1227.16	21.5865
1228.77	21.0871
1230.38	21.7252
1231.99	21.7966
1233.6	22.2633
1235.22	22.9062
1236.83	22.9191
1238.44	24.2112
1240.05	26.479
1241.66	27.6872
1243.26	27.9636
1244.87	28.639
1246.48	28.6984
1248.09	30.4643
1249.7	30.5808
1251.31	31.9185
1252.92	31.5789
1254.52	32.1777
1256.13	33.6589
1257.74	34.0655
1259.34	34.5113
1260.95	35.1004
1262.55	35.3219
1264.16	37.5121
1265.76	37.9599
1267.37	38.9945
1268.97	40.3695
1270.58	41.256
1272.18	41.2646
1273.78	42.047
1275.39	42.2053
1276.99	43.2155
1278.59	42.9333
1280.2	44.7053
1281.8	46.5993
1283.4	47.937
1285	50.7145
1286.6	52.6363
1288.2	53.2224
1289.8	55.6453
1291.4	57.6585
1293	58.9411
1294.6	60.5177
1296.2	61.1979
1297.8	61.8846
1299.4	62.4501
1301	62.4399
1302.6	62.9901
1304.19	63.8222
1305.79	65.3357
1307.39	66.6713
1308.99	67.5472
1310.58	68.6546
1312.18	69.5199
1313.77	70.7964
1315.37	71.1895
1316.96	71.0358
1318.56	71.2316
1320.15	71.2437
1321.75	70.4797
1323.34	69.6041
1324.94	69.6637
1326.53	69.3465
1328.12	69.3608
1329.72	68.8176
1331.31	67.8452
1332.9	67.089
1334.49	66.3374
1336.08	65.3967
1337.67	64.4343
1339.27	63.3384
1340.86	62.4754
1342.45	61.1931
1344.04	61.3059
1345.63	60.3781
1347.22	59.3414
1348.8	57.7911
1350.39	57.7152
1351.98	57.1436
1353.57	57.4645
1355.16	57.3272
1356.75	57.5128
1358.33	58.0779
1359.92	59.1686
1361.51	58.2172
1363.09	58.5495
1364.68	59.6416
1366.27	59.3412
1367.85	59.0495
1369.44	59.4048
1371.02	58.7995
1372.61	58.5582
1374.19	58.4077
1375.77	57.1358
1377.36	58.2576
1378.94	58.867
1380.52	59.1748
1382.11	59.1463
1383.69	59.6954
1385.27	59.0199
1386.85	58.1852
1388.43	58.3594
1390.02	57.32
1391.6	57.1451
1393.18	56.8454
1394.76	56.4949
1396.34	56.9036
1397.92	57.5303
1399.5	58.7453
1401.08	59.7125
1402.65	59.8681
1404.23	61.4164
1405.81	61.2119
1407.39	62.1138
1408.97	63.4765
1410.54	64.4847
1412.12	65.9633
1413.7	66.1629
1415.27	66.9009
1416.85	67.5123
1418.43	68.1828
1420	70.7217
1421.58	72.9972
1423.15	75.3189
1424.73	77.4346
1426.3	79.8273
1427.87	82.2497
1429.45	85.7953
1431.02	88.5648
1432.6	90.8139
1434.17	92.8172
1435.74	94.9078
1437.31	97.2863
1438.89	98.7273
1440.46	99.7208
1442.03	101.659
1443.6	103.029
1445.17	104.065
1446.74	104.964
1448.31	106.007
1449.88	106.751
1451.45	107.697
1453.02	108.098
1454.59	108.835
1456.16	109.762
1457.72	109.99
1459.29	109
1460.86	107.974
1462.43	107.745
1463.99	107.289
1465.56	107.036
1467.13	105.909
1468.69	104.474
1470.26	104.582
1471.83	103.078
1473.39	102.862
1474.95	101.62
1476.52	100.373
1478.08	98.2875
1479.65	95.8457
1481.21	92.9705
1482.78	90.9203
1484.34	88.6667
1485.9	85.1757
1487.47	82.9202
1489.03	79.1636
1490.59	76.4644
1492.15	73.0947
1493.71	70.6104
1495.27	68.5792
1496.84	66.4171
1498.39	64.1749
1499.96	62.077
1501.52	59.8689
1503.07	58.2444
1504.64	56.0142
1506.19	53.4977
1507.75	51.27
1509.31	49.5323
1510.87	45.4954
1512.43	42.8271
1513.98	39.6321
1515.54	38.0546
1517.1	35.3792
1518.65	33.7381
1520.21	32.7878
1521.77	32.9841
1523.32	32.1215
1524.88	31.894
1526.44	31.4451
1527.99	31.3563
1529.54	31.4235
1531.1	31.4682
1532.65	31.6686
1534.21	31.9774
1535.76	32.9465
1537.31	33.5044
1538.87	34.3259
1540.42	36.1654
1541.97	37.1183
1543.52	36.6249
1545.07	37.4572
1546.63	38.5638
1548.18	40.7309
1549.73	41.9873
1551.28	42.7049
1552.83	43.2517
1554.38	44.6203
1555.93	44.3499
1557.48	45.0037
1559.03	46.3889
1560.57	47.568
1562.12	48.3526
1563.67	49.0344
1565.22	50.6649
1566.77	52.058
1568.31	53.7311
1569.86	54.5315
1571.41	56.5461
1572.95	57.9848
1574.5	60.1451
1576.05	63.1468
1577.59	65.4074
1579.14	66.6752
1580.68	68.373
1582.23	70.8844
1583.77	72.7592
1585.31	74.0453
1586.86	75.9781
1588.4	76.6814
1589.95	78.004
1591.49	79.4495
1593.03	80.9863
1594.57	81.6781
1596.11	82.8862
1597.66	83.7842
1599.2	83.5092
1600.74	82.4665
1602.28	82.735
1603.82	81.8692
1605.36	81.5804
1606.9	80.8322
1608.44	80.3879
1609.98	79.2818
1611.52	78.1205
1613.06	77.3549
1614.6	75.5928
1616.13	75.0918
1617.67	74.4073
1619.21	73.0999
1620.75	72.2827
1622.28	71.8754
1623.82	71.3026
1625.36	70.9734
1626.89	69.2509
1628.43	67.1198
1629.96	67.3632
1631.5	66.3491
1633.04	64.891
1634.57	64.628
1636.11	64.524
1637.64	63.2294
1639.17	63.5873
1640.71	63.8401
1642.24	62.9295
1643.77	64.0119
1645.31	64.2494
1646.84	64.9547
1648.37	65.533
1649.9	66.07
1651.43	65.7351
1652.96	65.3891
1654.5	64.1418
1656.03	64.7681
1657.56	65.675
1659.09	65.9285
1660.62	64.2314
1662.15	62.7934
1663.67	61.7859
1665.2	59.4812
1666.73	57.3131
1668.26	55.9243
1669.79	54.8039
1671.32	53.5751
1672.84	51.8269
1674.37	49.4666
1675.9	47.0577
1677.43	45.9309
1678.95	43.6417
1680.48	41.6882
1682	39.8734
1683.53	37.2519
1685.05	35.4377
1686.58	33.6447
1688.1	32.5308
1689.63	31.2893
1691.15	29.7777
1692.68	29.1543
1694.2	27.3885
1695.72	26.1395
1697.25	24.9017
1698.77	23.7195
1700.29	22.4142
1701.81	20.7136
1703.33	19.8439
1704.86	18.8013
1706.38	18.2352
1707.9	17.2086
1709.42	17.342
1710.94	17.3165
1712.46	16.8887
1713.98	16.9549
1715.5	17.7023
1717.02	17.6201
1718.54	17.5807
1720.06	18.5792
1721.57	17.967
1723.09	17.3536
1724.61	16.7399
1726.13	16.7502
1727.64	16.4366
1729.16	16.9913
1730.68	16.429
1732.19	16.4194
1733.71	14.885
1735.23	12.8274
1736.74	11.2051
1738.26	10.7992
1739.77	10.0191
1741.29	9.55757
1742.8	9.86042
1744.31	9.11085
1745.83	9.3826
1747.34	8.8656
1748.85	8.14759
1750.37	8.03697
1751.88	8.06508
1753.39	8.03454
1754.91	6.75798
1756.42	7.0043
1757.93	7.14737
1759.44	6.64067
1760.95	7.11872
1762.46	6.98114
1763.97	6.61056
1765.48	5.4408
1766.99	4.96361
1768.5	4.59455
1770.01	3.89303
1771.52	3.19688
1773.03	3.3144
1774.54	3.2758
1776.04	3.36536
1777.55	2.71808
1779.06	2.75657
1780.57	2.44368
1782.07	2.81609
1783.58	2.82264
1785.09	3.14132
1786.59	3.02089
1788.1	3.2147
1789.6	3.23085
1791.11	3.25551
1792.61	2.70512
1794.12	2.76663
1795.62	2.93206
1797.13	1.98436
1798.63	1.78601
1800.13	2.18867
1801.64	2.20877
1803.14	1.67669
1804.64	1.08845
1806.15	0.509071
1807.65	-0.474451
1809.15	-0.645057
1810.65	-0.532347
1812.15	0.341461
1813.65	0.64051
1815.16	0.851221
1816.66	0.934089
1818.15	0.828264
1819.66	0.719107
1821.16	1.20503
1822.65	1.40792
1824.15	1.58906
1825.65	1.96329
1827.15	1.33954
1828.65	1.77276
1830.15	1.60516
1831.64	2.25154
1833.14	2.4422
1834.64	2.01358
1836.14	2.1301
1837.63	2.10234
1839.13	2.55123
1840.62	2.43218
1842.12	2.39868
1843.62	2.45605
1845.11	2.59974
1846.61	2.91968
1848.1	3.26349
1849.6	3.40979
1851.09	3.22959
1852.58	2.95362
1854.08	3.24436
1855.57	3.4486
1857.06	3.8003
1858.55	3.21332
1860.05	3.36108
1861.54	3.68578
1863.03	3.98121
1864.52	3.44486
1866.01	4.09709
1867.5	3.79396
1869	4.16947
1870.49	4.351
1871.98	4.81678
1873.47	4.9681
1874.96	5.47864
1876.44	5.18924
1877.93	5.63726
1879.42	6.20668
1880.91	5.69245
1882.4	5.27372
1882.47	5.80228
1883.96	5.55518
1885.46	5.62876
1886.95	5.15814
1888.44	5.14117
1889.94	4.57618
1891.43	3.98899
1892.93	3.90297
1894.42	3.56114
1895.91	3.73073
1897.4	3.33984
1898.89	3.09466
1900.39	2.61456
1901.88	3.07694
1903.37	2.39463
1904.86	2.19138
1906.35	1.42027
1907.84	1.47336
1909.33	1.28251
1910.82	2.35083
1912.31	2.41319
1913.8	2.10345
1915.29	2.63
1916.77	3.09215
1918.26	2.53989
1919.75	2.43116
1921.24	2.45082
1922.73	2.45502
1924.21	2.49155
1925.7	2.14038
1927.19	1.95608
1928.67	2.7518
1930.16	2.72298
1931.64	2.92152
1933.13	3.16368
1934.61	2.9635
1936.1	2.915
1937.58	3.21894
1939.07	4.75237
1940.55	4.45519
1942.04	5.22067
1943.52	6.27892
1945	7.07669
1946.49	7.13449
1947.97	7.45577
1949.45	7.19019
1950.93	7.28609
1952.42	7.45234
1953.9	7.16521
1955.38	7.33946
1956.86	8.06799
1958.34	8.19094
1959.82	8.51781
1961.3	8.07559
1962.78	7.54581
1964.26	6.79246
1965.74	6.32728
1967.22	5.99262
1968.7	5.96636
1970.18	6.66114
1971.65	6.50168
1973.13	6.16685
1974.61	5.36342
1976.09	4.52205
1977.57	4.23969
1979.04	4.17893
1980.52	3.6716
1982	4.75135
1983.47	4.66906
1984.95	4.7014
1986.42	4.0903
1987.9	3.44963
1989.37	3.75871
1990.85	2.6088
1992.32	2.33082
1993.8	1.82092
1995.27	1.8124
1996.75	1.57885
1998.22	0.97199
1999.69	1.10215
2001.17	1.96498
2002.64	2.29436
2004.11	1.65157
2005.58	1.64217
2007.05	0.941832
2008.53	1.97112
2010	2.94748
2011.47	3.81076
2012.94	3.87477
2014.41	3.79486
2015.88	4.21252
2017.35	4.69851
2018.82	4.50824
2020.29	4.43588
2021.76	4.27026
2023.23	4.5171
2024.7	4.93249
2026.16	6.34361
2027.63	6.48712
2029.1	6.18356
2030.57	6.33978
2032.03	6.34698
2033.5	6.27697
2034.97	6.17356
2036.44	6.12187
2037.9	6.69729
2039.37	7.33554
2040.83	7.89159
2042.3	9.28142
2043.76	9.72969
2045.23	9.39888
2046.69	9.84637
2048.16	9.71375
2049.62	10.1887
2051.08	10.0485
2052.55	10.603
2054.01	11.3734
2055.47	12.2037
2056.94	11.3812
2058.4	11.6407
2059.86	12.4021
2061.32	13.1595
2062.79	14.058
2064.25	14.0467
2065.71	15.4145
2067.17	15.6101
2068.63	16.5328
2070.09	17.1328
2071.55	17.3411
2073.01	18.2866
2074.47	18.295
2075.93	18.7852
2077.39	19.432
2078.85	20.3682
2080.31	21.2303
2081.76	22.631
2083.22	22.6044
2084.68	22.8746
2086.13	22.8425
2087.59	23.7559
2089.05	23.5692
2090.51	23.9379
2091.96	23.9725
2093.42	24.8365
2094.87	25.2825
2096.33	25.72
2097.78	26.6012
2099.24	27.4573
2100.69	27.1614
2102.15	27.2235
2103.6	27.7045
2105.06	28.6167
2106.51	29.0563
2107.96	29.714
2109.42	30.8391
2110.87	31.7974
2112.32	32.0585
2113.77	32.5052
2115.23	32.488
2116.68	32.6204
2118.13	33.182
2119.58	33.8034
2121.03	33.6485
2122.48	34.4219
2123.93	35.033
2125.38	37.0317
2126.83	37.4001
2128.28	37.5793
2129.73	38.3607
2131.18	40.132
2132.63	41.4175
2134.08	43.3447
2135.53	43.9935
2136.97	45.0944
2138.42	46.6091
