#Acq. time (s)=	45
#Accumulations=	2
#Range (cm-¹)=	200...3150
#Windows=	2
#Auto scanning=	Off
#Autofocus=	Off
#Macrospot=	Off
#AutoExposure=	Off
#Spike filter=	Multiple accum.
#Delay time (s)=	0
#Binning=	1
#Readout mode=	Signal
#DeNoise=	Off
#ICS correction=	On
#Dark correction=	Off
#Inst. Process=	Off
#Detector Gain=	Best Dynamic Range
#Detector ADC=	20 kHz       
#Detector temperature (°C)=	-70.08
#Instrument=	LabRAM HR Evol
#Detector=	Synapse
#Objective=	x100
#Grating=	600 gr/mm
#ND Filter=	100%
#Laser (nm)=	532 
#Hole=	100.021
#Range=	Auto
#Laser Pol.=	No
#Raman. Pol.=	No
#Laser Pol. (°)=	-0.0007625
#Raman Pol. (°)=	89.9995
#Collection=	Microscope
#StageXY=	Marzhauser
#StageZ=	Marzhauser
#X (µm)=	-2466.1
#Y (µm)=	-120.1
#Z (µm)=	-10.1
#Full time(mm:ss)=	3:20
#Project=	
#Sample=	
#Site=	
#Title=	Mb_40_24_29_2x_45s_532 nm_x100_100%_600 gr_mm
#Remark=	
#Date=	14.07.2022 12:50
#Acquired=	14.07.2022 12:50:36
#Base:Fit=	10.08.2022 10:47:00
#Base:Sub=	10.08.2022 10:47:12
#Filter:Polynom=	16.08.2022 10:11:48
#AxisType[0]=Intens
#AxisUnit[0]=Cnt
#AxisType[1]=Spectr
#AxisUnit[1]=1/cm
200.554	17.5484
202.369	13.6368
204.183	11.375
205.999	10.2273
207.813	11.047
209.626	13.5104
211.439	17.19
213.253	21.4248
215.065	26.0557
216.877	31.2353
218.688	37.0387
220.5	41.5594
222.312	46.6783
224.123	50.9355
225.933	55.9365
227.742	60.1444
229.552	65.0248
231.361	68.6685
233.171	74.7478
234.98	77.9244
236.787	81.3111
238.595	85.4428
240.402	87.6918
242.209	90.0553
244.015	95.5296
245.822	99.6971
247.627	102.699
249.435	107.226
251.24	111.039
253.045	117.004
254.849	121.281
256.653	125.289
258.457	131.482
260.26	135.857
262.063	138.864
263.866	142.219
265.668	145.424
267.47	148.376
269.271	148.98
271.073	149.77
272.873	152.578
274.674	154.447
276.474	156.92
278.274	159.864
280.073	163.252
281.872	163.242
283.671	165.726
285.47	167.625
287.268	172.207
289.065	177.277
290.863	184.06
292.66	190.672
294.456	198.174
296.253	203.488
298.049	209.141
299.844	214.573
301.637	221.329
303.432	225.643
305.227	230.242
307.021	235.112
308.815	238.819
310.609	242.643
312.402	246.632
314.195	250.133
315.987	252.962
317.777	254.17
319.569	256.073
321.36	256.863
323.151	257.229
324.942	255.941
326.733	255.773
328.521	256.119
330.31	254.275
332.1	253.274
333.889	252.511
335.677	247.594
337.464	243.419
339.252	242.586
341.039	238.839
342.826	236.733
344.611	232.416
346.398	227.914
348.184	225.07
349.97	218.359
351.754	211.385
353.539	204.473
355.324	195.58
357.106	187.631
358.89	180.069
360.674	173.232
362.455	167.314
364.239	157.899
366.021	151.164
367.804	143.457
369.584	136
371.366	130.525
373.145	126.101
374.926	122.582
376.707	120.049
378.485	115.758
380.265	113.893
382.045	110.993
383.822	109.475
385.601	105.915
387.378	105.946
389.156	105.743
390.934	106.103
392.71	105.96
394.487	106.396
396.262	108.068
398.038	108.404
399.813	109.434
401.588	108.975
403.362	108.505
405.137	109.979
406.912	110.219
408.685	111.302
410.459	112.2
412.23	112.561
414.004	114.121
415.775	113.318
417.548	114.278
419.318	113.557
421.089	113.067
422.86	112.903
424.63	112.712
426.401	112.736
428.17	112.264
429.94	109.611
431.708	108.766
433.478	106.243
435.245	104.767
437.012	101.031
438.781	96.7634
440.547	92.7064
442.315	89.5274
444.081	86.0329
445.846	82.5504
447.613	79.5493
449.378	75.2521
451.142	70.6782
452.908	64.6978
454.672	60.4954
456.435	55.7795
458.2	51.6859
459.963	48.1174
461.725	44.1908
463.489	42.9881
465.251	39.5054
467.012	37.897
468.775	37.0658
470.536	34.8246
472.296	34.4437
474.056	32.6936
475.817	33.0544
477.576	32.2871
479.335	33.0397
481.094	32.6639
482.854	31.0733
484.612	31.2894
486.37	29.9178
488.127	28.5403
489.886	28.3239
491.642	29.1066
493.398	30.0601
495.154	28.6593
496.91	27.8333
498.667	27.2618
500.422	27.0529
502.176	26.2475
503.93	25.9684
505.684	25.3241
507.438	23.1119
509.191	21.5455
510.946	21.365
512.698	20.5756
514.45	19.0825
516.202	17.6118
517.954	16.7484
519.705	14.5875
521.456	13.4672
523.206	13.4859
524.956	11.6913
526.706	10.6444
528.456	9.07704
530.207	8.37734
531.956	7.33908
533.704	7.03892
535.452	4.98516
537.2	3.36281
538.947	0.881293
540.694	0.848677
542.441	0.316266
544.188	0.769891
545.934	0.0108121
547.68	0.1464
549.425	-0.463442
551.17	-0.506756
552.915	-0.737424
554.659	0.317382
556.403	1.04815
558.145	2.43864
559.889	4.08829
561.632	4.98721
563.375	5.83439
565.117	7.25893
566.859	9.55888
568.601	9.49695
570.342	10.422
572.083	10.036
573.824	11.0613
575.565	10.6334
577.303	11.5089
579.043	12.1545
580.782	12.937
582.521	13.0593
584.26	12.0013
585.998	12.0378
587.734	12.4862
589.472	10.5175
591.21	11.1105
592.947	9.36148
594.684	9.95994
596.418	10.3217
598.154	11.1431
599.89	10.3319
601.626	10.4463
603.361	10.2981
605.094	8.51023
606.828	8.87727
608.562	9.45996
610.296	9.37356
612.027	7.40951
613.761	6.79966
615.493	5.86218
617.224	5.36855
618.956	6.07804
620.688	5.18564
622.419	3.13461
624.149	3.76049
625.879	2.96492
627.61	4.91064
629.338	5.76213
631.068	5.58691
632.797	5.8714
634.525	6.31885
636.254	6.67425
637.98	6.52899
639.708	8.06251
641.436	7.20225
643.162	7.24867
644.889	7.58582
646.614	8.39604
648.34	8.01831
650.067	8.65999
651.791	9.68393
653.516	9.77447
655.239	9.05187
656.964	9.08335
658.687	7.8765
660.411	9.27101
662.133	7.93195
663.857	7.28295
665.58	7.23214
667.301	7.76594
669.024	6.3784
670.744	5.88391
672.464	6.58556
674.186	9.54972
675.905	10.6522
677.626	12.002
679.345	11.6949
681.065	13.0785
682.783	13.3935
684.503	13.9401
686.22	13.996
687.939	15.4533
689.656	14.2593
691.372	13.9229
693.09	16.4725
694.806	15.2209
696.523	14.2881
698.239	13.1036
699.953	13.2314
701.67	13.4007
703.384	13.8151
705.098	14.115
706.813	13.5596
708.526	13.9906
710.239	14.4496
711.954	15.9762
713.666	16.5333
715.378	15.7668
717.091	14.6196
718.802	13.8305
720.513	13.016
722.226	11.4402
723.936	10.4128
725.646	11.0501
727.355	9.56545
729.067	10.1607
730.776	11.1889
732.484	11.4694
734.192	11.4578
735.902	12.1848
737.61	12.7972
739.317	13.5464
741.024	14.112
742.731	15.9722
744.439	16.8483
746.145	18.166
747.851	20.725
749.556	22.555
751.262	27.3022
752.966	29.3825
754.673	31.98
756.377	34.9702
758.081	39.5603
759.784	42.1476
761.487	42.412
763.19	42.1347
764.892	43.8076
766.594	46.0432
768.296	46.5314
770	48.8641
771.701	48.6036
773.402	49.9426
775.102	49.2941
776.803	49.9519
778.503	50.8964
780.202	51.0971
781.901	51.9751
783.6	53.7802
785.299	54.8575
786.997	56.788
788.695	57.079
790.393	57.4938
792.09	58.6161
793.787	57.404
795.484	56.4107
797.18	56.4109
798.877	54.9538
800.572	54.3336
802.268	52.645
803.963	51.8328
805.658	50.5608
807.35	49.2683
809.044	49.7429
810.738	49.1604
812.432	47.8022
814.125	48.7715
815.818	49.2594
817.51	49.4334
819.202	50.1262
820.894	50.5209
822.584	52.3213
824.275	53.2966
825.966	52.4278
827.657	52.091
829.347	52.3543
831.037	53.9657
832.725	54.6589
834.414	52.8967
836.103	52.3113
837.792	49.9308
839.481	49.8631
841.167	48.5709
842.854	48.1795
844.542	46.2973
846.229	45.9356
847.914	45.4584
849.6	45.9733
851.287	45.9346
852.973	43.9094
854.656	43.4613
856.341	40.9378
858.026	41.328
859.711	40.3628
861.393	40.0044
863.077	39.8129
864.761	40.026
866.442	39.8255
868.125	38.8836
869.808	38.4938
871.489	39.0797
873.171	38.6803
874.85	39.1437
876.532	40.0771
878.213	38.7424
879.892	38.3202
881.572	39.2835
883.251	39.6997
884.931	37.9101
886.61	36.6827
888.287	38.3572
889.966	36.7782
891.643	37.6345
893.321	37.3369
894.997	36.5839
896.675	37.1376
898.352	38.6242
900.028	39.0933
901.704	40.5639
903.379	41.6368
905.055	42.9641
906.729	44.2368
908.404	42.6663
910.077	41.8502
911.75	43.0064
913.425	43.3233
915.097	41.5377
916.771	39.5731
918.443	38.2517
920.116	37.3017
921.787	36.3661
923.46	37.0936
925.13	38.1923
926.8	37.7615
928.472	37.5945
930.141	36.5038
931.813	35.1178
933.481	34.0321
935.15	32.5873
936.82	29.9624
938.488	28.7935
940.156	27.0366
941.825	25.0482
943.492	23.2896
945.158	20.3911
946.827	19.0919
948.493	18.8376
950.158	18.8163
951.824	18.1974
953.491	18.6366
955.156	18.9006
956.82	17.3962
958.486	16.1659
960.15	15.375
961.814	14.4817
963.477	15.293
965.142	17.5429
966.804	18.7144
968.467	20.8563
970.129	23.8748
971.79	24.8337
973.454	26.5094
975.115	30.742
976.776	32.4543
978.436	34.834
980.096	37.3537
981.756	39.8489
983.417	42.5356
985.077	44.9227
986.736	45.7
988.394	46.3814
990.052	45.5262
991.71	44.9329
993.368	46.551
995.025	47.1691
996.682	46.4886
998.341	46.6444
999.998	47.7114
1001.65	47.6318
1003.31	48.3718
1004.97	50.0831
1006.62	51.5223
1008.28	50.4788
1009.93	48.6021
1011.58	48.8655
1013.24	49.5841
1014.89	50.2986
1016.54	52.1133
1018.2	52.6946
1019.85	52.9069
1021.5	53.4233
1023.16	54.2495
1024.81	52.9068
1026.46	52.2848
1028.11	52.2735
1029.76	54.1303
1031.41	54.7085
1033.06	55.8521
1034.71	54.4083
1036.36	54.7761
1038.01	55.8171
1039.66	56.921
1041.31	59.1876
1042.95	61.0786
1044.6	63.3893
1046.25	64.7437
1047.9	66.236
1049.54	68.8803
1051.19	68.0496
1052.84	67.16
1054.48	66.8804
1056.13	68.2535
1057.77	67.8573
1059.42	64.4394
1061.06	63.2257
1062.71	61.0302
1064.35	60.6087
1066	58.8404
1067.64	57.3736
1069.28	56.1656
1070.93	54.2783
1072.57	53.6019
1074.21	52.694
1075.85	52.3167
1077.49	50.8095
1079.13	49.3898
1080.78	50.5431
1082.42	50.2848
1084.06	50.1685
1085.7	50.0139
1087.34	49.982
1088.97	49.3587
1090.61	49.2442
1092.25	50.9593
1093.89	52.3122
1095.53	53.6001
1097.17	53.8457
1098.8	54.9612
1100.44	54.2125
1102.08	55.5428
1103.71	55.2496
1105.35	55.6565
1106.99	54.7617
1108.62	55.0682
1110.26	55.3438
1111.89	55.1021
1113.52	54.7834
1115.16	55.4498
1116.79	55.8869
1118.43	56.7859
1120.06	56.6672
1121.69	54.5693
1123.32	54.5745
1124.96	53.8161
1126.59	52.3324
1128.22	49.6262
1129.85	48.1376
1131.48	47.5434
1133.11	44.2188
1134.75	43.4669
1136.37	41.4718
1138	37.9893
1139.63	36.109
1141.26	32.3211
1142.89	30.9041
1144.52	29.8909
1146.15	29.2573
1147.78	26.705
1149.4	24.1056
1151.03	23.3815
1152.66	21.0504
1154.28	19.1441
1155.91	16.9707
1157.54	16.2125
1159.16	14.7463
1160.79	14.1683
1162.41	14.0772
1164.04	11.5272
1165.66	9.73102
1167.29	8.61993
1168.91	8.50708
1170.53	8.66798
1172.16	9.49324
1173.78	9.98937
1175.4	9.61176
1177.02	10.2993
1178.65	11.2304
1180.27	11.6243
1181.89	12.9835
1183.51	15.5554
1185.13	14.8405
1186.75	16.4635
1188.37	17.0923
1189.99	18.5902
1191.61	20.6016
1193.23	22.3241
1194.85	25.3805
1196.47	28.824
1198.08	32.1724
1199.7	34.3589
1201.32	35.9592
1202.94	37.3505
1204.55	41.7356
1206.17	43.4616
1207.79	44.5703
1209.4	47.6194
1211.02	51.0487
1212.63	55.8628
1214.25	59.6829
1215.86	63.5442
1217.48	66.8702
1219.09	69.6316
1220.71	74.8016
1222.32	77.3914
1223.93	81.6747
1225.54	86.4898
1227.16	91.5775
1228.77	94.9525
1230.38	99.0283
1231.99	103.316
1233.6	106.365
1235.22	111.42
1236.83	115.852
1238.44	120.789
1240.05	125.887
1241.66	131.123
1243.26	135.159
1244.87	140.441
1246.48	145.565
1248.09	151.492
1249.7	156.335
1251.31	161.269
1252.92	164.723
1254.52	168.593
1256.13	171.776
1257.74	175.856
1259.34	179.502
1260.95	184.253
1262.55	188.607
1264.16	192.563
1265.76	196.623
1267.37	200.76
1268.97	203.839
1270.58	207.541
1272.18	210.275
1273.78	213.063
1275.39	216.797
1276.99	220.405
1278.59	222.578
1280.2	222.947
1281.8	225.063
1283.4	228.22
1285	230.853
1286.6	231.105
1288.2	233.024
1289.8	235.338
1291.4	236.439
1293	238.183
1294.6	237.892
1296.2	238.331
1297.8	238.173
1299.4	238.1
1301	237.949
1302.6	238.584
1304.19	239.803
1305.79	241.14
1307.39	241.022
1308.99	239.392
1310.58	238.6
1312.18	237.607
1313.77	237.059
1315.37	236.753
1316.96	234.958
1318.56	235.005
1320.15	234.883
1321.75	233.595
1323.34	232.421
1324.94	230.885
1326.53	226.967
1328.12	225.772
1329.72	223.087
1331.31	221.284
1332.9	218.976
1334.49	217.6
1336.08	215.087
1337.67	212.671
1339.27	211.458
1340.86	209.715
1342.45	207.035
1344.04	203.373
1345.63	200.485
1347.22	196.426
1348.8	191.666
1350.39	189.034
1351.98	185.901
1353.57	183.805
1355.16	181.73
1356.75	177.832
1358.33	174.414
1359.92	171.583
1361.51	169.724
1363.09	165.604
1364.68	162.327
1366.27	160.505
1367.85	158.91
1369.44	156.455
1371.02	155.128
1372.61	152.363
1374.19	150.626
1375.77	150.204
1377.36	149.167
1378.94	148.088
1380.52	147.172
1382.11	147.318
1383.69	145.561
1385.27	144.747
1386.85	144.574
1388.43	144.014
1390.02	143.126
1391.6	142.188
1393.18	141.858
1394.76	142.488
1396.34	142.252
1397.92	143.493
1399.5	144.703
1401.08	145.251
1402.65	145.433
1404.23	146.711
1405.81	149.34
1407.39	153.285
1408.97	156.259
1410.54	160.89
1412.12	165.465
1413.7	169.198
1415.27	175.935
1416.85	181.955
1418.43	189.606
1420	195.63
1421.58	202.084
1423.15	208.309
1424.73	216.885
1426.3	224.586
1427.87	232.815
1429.45	241.842
1431.02	248.006
1432.6	254.95
1434.17	261.119
1435.74	266.427
1437.31	273.248
1438.89	278.805
1440.46	282.855
1442.03	286.51
1443.6	291.85
1445.17	293.679
1446.74	295.175
1448.31	296.984
1449.88	297.786
1451.45	296.149
1453.02	295.988
1454.59	295.442
1456.16	293.546
1457.72	289.8
1459.29	284.984
1460.86	280.657
1462.43	275.885
1463.99	270.878
1465.56	265.614
1467.13	258.418
1468.69	250.977
1470.26	242.883
1471.83	235.647
1473.39	226.705
1474.95	218.701
1476.52	211.569
1478.08	203.244
1479.65	194.946
1481.21	188.436
1482.78	182.673
1484.34	175.091
1485.9	168.317
1487.47	162.954
1489.03	158.07
1490.59	153.985
1492.15	148.667
1493.71	146.366
1495.27	141.235
1496.84	137.549
1498.39	133.857
1499.96	130.852
1501.52	127.139
1503.07	124.671
1504.64	122.48
1506.19	120.313
1507.75	117.217
1509.31	113.651
1510.87	112.008
1512.43	111.206
1513.98	110.325
1515.54	108.243
1517.1	106.053
1518.65	105.251
1520.21	105.463
1521.77	105.076
1523.32	103.779
1524.88	104.115
1526.44	104.33
1527.99	104.57
1529.54	104.091
1531.1	105.268
1532.65	107.635
1534.21	108.315
1535.76	109.703
1537.31	111.34
1538.87	114.004
1540.42	117.4
1541.97	120.288
1543.52	122.774
1545.07	124.418
1546.63	126.406
1548.18	129.249
1549.73	132.51
1551.28	136.578
1552.83	140.68
1554.38	143.927
1555.93	147.396
1557.48	150.801
1559.03	153.965
1560.57	156.05
1562.12	158.58
1563.67	161.967
1565.22	166.326
1566.77	171.341
1568.31	174.928
1569.86	178.779
1571.41	183.454
1572.95	188.398
1574.5	193.175
1576.05	198.006
1577.59	203.396
1579.14	207.827
1580.68	213.787
1582.23	217.188
1583.77	219.909
1585.31	222.873
1586.86	226.501
1588.4	231.489
1589.95	234.816
1591.49	236.851
1593.03	237.303
1594.57	239.264
1596.11	241.29
1597.66	240.273
1599.2	239.03
1600.74	238.164
1602.28	237.485
1603.82	237.406
1605.36	237.238
1606.9	236.292
1608.44	235.999
1609.98	234.903
1611.52	232.522
1613.06	232.025
1614.6	230.561
1616.13	231.291
1617.67	231.479
1619.21	229.747
1620.75	228.645
1622.28	228.543
1623.82	227.6
1625.36	227.843
1626.89	228.627
1628.43	229.66
1629.96	228.724
1631.5	229.043
1633.04	229.633
1634.57	229.264
1636.11	230.52
1637.64	232.549
1639.17	235.269
1640.71	238.063
1642.24	241.975
1643.77	245.532
1645.31	249.018
1646.84	252.183
1648.37	254.118
1649.9	255.845
1651.43	257.801
1652.96	259.407
1654.5	260.376
1656.03	259.828
1657.56	258.676
1659.09	257.14
1660.62	255.068
1662.15	254.482
1663.67	252.876
1665.2	249.08
1666.73	244.131
1668.26	239.191
1669.79	232.851
1671.32	226.963
1672.84	219.725
1674.37	212.138
1675.9	204.363
1677.43	197.606
1678.95	190.475
1680.48	181.895
1682	174.072
1683.53	165.217
1685.05	156.924
1686.58	148.753
1688.1	141.732
1689.63	135.293
1691.15	127.843
1692.68	122.288
1694.2	114.431
1695.72	107.445
1697.25	100.483
1698.77	94.1428
1700.29	87.3086
1701.81	83.0043
1703.33	78.1799
1704.86	73.7186
1706.38	68.2508
1707.9	64.0168
1709.42	59.865
1710.94	56.0342
1712.46	53.6183
1713.98	51.028
1715.5	49.5096
1717.02	46.8548
1718.54	44.2018
1720.06	41.799
1721.57	40.1656
1723.09	37.1287
1724.61	35.0485
1726.13	33.7305
1727.64	33.4667
1729.16	32.13
1730.68	30.954
1732.19	29.8739
1733.71	28.7072
1735.23	27.0615
1736.74	25.5976
1738.26	26.0014
1739.77	25.0828
1741.29	23.843
1742.8	22.5044
1744.31	20.4923
1745.83	19.6857
1747.34	18.9287
1748.85	18.0959
1750.37	17.4017
1751.88	17.0271
1753.39	16.9255
1754.91	16.19
1756.42	15.2835
1757.93	14.7713
1759.44	14.0045
1760.95	13.8491
1762.46	13.8722
1763.97	14.0295
1765.48	13.6796
1766.99	14.076
1768.5	14.06
1770.01	13.0476
1771.52	12.5043
1773.03	11.9488
1774.54	11.8399
1776.04	11.2023
1777.55	11.872
1779.06	11.6053
1780.57	11.9578
1782.07	10.937
1783.58	10.6801
1785.09	10.478
1786.59	10.7807
1788.1	10.5991
1789.6	10.4009
1791.11	10.8146
1792.61	10.0108
1794.12	9.66387
1795.62	9.12851
1797.13	8.57685
1798.63	8.39403
1800.13	8.51006
1801.64	8.32519
1803.14	7.61496
1804.64	7.20893
1806.15	6.27998
1807.65	5.41891
1809.15	4.51156
1810.65	4.23675
1812.15	3.75567
1813.65	3.06492
1815.16	2.55682
1816.66	2.36654
1818.15	1.28927
1819.66	0.571867
1821.16	0.878684
1822.65	0.488334
1824.15	0.647117
1825.65	1.031
1827.15	1.22822
1828.65	0.397527
1830.15	0.635355
1831.64	-0.0194894
1833.14	-0.687198
1834.64	0.252084
1836.14	0.192027
1837.63	1.67013
1839.13	2.333
1840.62	2.9519
1842.12	3.39183
1843.62	3.47656
1845.11	2.94613
1846.61	2.46346
1848.1	3.20012
1849.6	3.21147
1851.09	4.32075
1852.58	6.19493
1854.08	7.54623
1855.57	9.69462
1857.06	9.94644
1858.55	11.1232
1860.05	11.5656
1861.54	10.556
1863.03	11.1233
1864.52	11.6178
1866.01	12.1752
1867.5	11.7913
1869	11.277
1870.49	12.0135
1871.98	13.2515
1873.47	13.5512
1874.96	13.337
1876.44	12.7791
1877.93	13.1157
1879.42	12.8124
1880.91	12.867
1882.4	12.1663
1882.47	11.9546
1883.96	11.664
1885.46	10.0808
1886.95	10.1729
1888.44	10.159
1889.94	9.58997
1891.43	8.6301
1892.93	8.15732
1894.42	8.41695
1895.91	9.27408
1897.4	10.2024
1898.89	10.1361
1900.39	9.67192
1901.88	8.59189
1903.37	9.45446
1904.86	8.84241
1906.35	9.68315
1907.84	9.86852
1909.33	9.1485
1910.82	9.33656
1912.31	8.14032
1913.8	7.69813
1915.29	6.69831
1916.77	6.47733
1918.26	5.74953
1919.75	6.74106
1921.24	8.15252
1922.73	8.53476
1924.21	9.65066
1925.7	9.75054
1927.19	9.21777
1928.67	8.22317
1930.16	5.86985
1931.64	4.9869
1933.13	4.03502
1934.61	4.33534
1936.1	5.8029
1937.58	5.05555
1939.07	5.12696
1940.55	5.08588
1942.04	6.08098
1943.52	6.8532
1945	6.51266
1946.49	5.70488
1947.97	6.05024
1949.45	5.73796
1950.93	4.86237
1952.42	4.07914
1953.9	4.53943
1955.38	3.51482
1956.86	2.67589
1958.34	2.83115
1959.82	3.02055
1961.3	4.04205
1962.78	3.68524
1964.26	4.08063
1965.74	5.65255
1967.22	6.50813
1968.7	7.53304
1970.18	8.15059
1971.65	8.12313
1973.13	8.16992
1974.61	8.41442
1976.09	8.73974
1977.57	10.0778
1979.04	9.57658
1980.52	9.55135
1982	8.03545
1983.47	9.06464
1984.95	9.85994
1986.42	10.1971
1987.9	10.0929
1989.37	9.49967
1990.85	9.91505
1992.32	10.1278
1993.8	11.139
1995.27	12.1517
1996.75	12.2216
1998.22	12.8969
1999.69	11.7561
2001.17	12.327
2002.64	11.6328
2004.11	11.494
2005.58	11.9719
2007.05	11.8707
2008.53	13.3873
2010	12.1501
2011.47	11.3569
2012.94	12.2463
2014.41	11.9706
2015.88	12.7186
2017.35	11.3059
2018.82	11.3206
2020.29	10.8057
2021.76	10.9549
2023.23	10.105
2024.7	9.74511
2026.16	9.96078
2027.63	10.3937
2029.1	10.5355
2030.57	10.7991
2032.03	11.5448
2033.5	13.0337
2034.97	12.8196
2036.44	13.9558
2037.9	15.2677
2039.37	15.8288
2040.83	15.7768
2042.3	16.8469
2043.76	18.3256
2045.23	19.974
2046.69	21.4666
2048.16	22.9724
2049.62	24.5043
2051.08	25.6939
2052.55	26.1547
2054.01	27.2872
2055.47	28.37
2056.94	30.1205
2058.4	30.9431
2059.86	32.2461
2061.32	33.5281
2062.79	35.7025
2064.25	38.2791
2065.71	40.4693
2067.17	42.5253
2068.63	43.9094
2070.09	45.168
2071.55	47.5784
2073.01	48.7608
2074.47	50.7632
2075.93	51.8346
2077.39	53.7166
2078.85	55.0422
2080.31	57.8875
2081.76	61.1732
2083.22	61.1851
2084.68	63.6525
2086.13	65.8322
2087.59	67.0318
2089.05	69.2812
2090.51	70.6333
2091.96	72.9052
2093.42	74.901
2094.87	77.1118
2096.33	78.9328
2097.78	81.9208
2099.24	86.0874
2100.69	89.5168
2102.15	92.1503
2103.6	95.4223
2105.06	99.4896
2106.51	103.475
2107.96	106.766
2109.42	110.783
2110.87	113.276
2112.32	117.541
2113.77	121.408
2115.23	125.558
2116.68	129.935
2118.13	133.543
2119.58	137.732
2121.03	140.907
2122.48	145.012
2123.93	148.682
2125.38	152.449
2126.83	156.872
2128.28	162.833
2129.73	168.149
2131.18	173.616
2132.63	179.202
2134.08	183.527
2135.53	189.402
2136.97	193.776
2138.42	199.479
