#Acq. time (s)=	45
#Accumulations=	2
#Range (cm-¹)=	200...3150
#Windows=	2
#Auto scanning=	Off
#Autofocus=	Off
#Macrospot=	Off
#AutoExposure=	Off
#Spike filter=	Multiple accum.
#Delay time (s)=	0
#Binning=	1
#Readout mode=	Signal
#DeNoise=	Off
#ICS correction=	On
#Dark correction=	Off
#Inst. Process=	Off
#Detector Gain=	Best Dynamic Range
#Detector ADC=	20 kHz       
#Detector temperature (°C)=	-69.85
#Instrument=	LabRAM HR Evol
#Detector=	Synapse
#Objective=	x100
#Grating=	600 gr/mm
#ND Filter=	100%
#Laser (nm)=	532 
#Hole=	100.021
#Range=	Auto
#Laser Pol.=	No
#Raman. Pol.=	No
#Laser Pol. (°)=	-0.0007625
#Raman Pol. (°)=	89.9995
#Collection=	Microscope
#StageXY=	Marzhauser
#StageZ=	Marzhauser
#X (µm)=	-1081.3
#Y (µm)=	597.2
#Z (µm)=	584.85
#Full time(mm:ss)=	3:18
#Project=	
#Sample=	
#Site=	
#Title=	Mb_40_y_38_2x_45s_532 nm_x100_100%_600 gr_mm
#Remark=	
#Date=	19.07.2022 12:30
#Acquired=	19.07.2022 12:30:22
#Base:Fit=	10.08.2022 10:52:48
#Base:Sub=	10.08.2022 10:52:53
#Filter:Polynom=	16.08.2022 10:09:04
#AxisType[0]=Intens
#AxisUnit[0]=Cnt
#AxisType[1]=Spectr
#AxisUnit[1]=1/cm
200.423	36.7083
202.238	36.5402
204.052	36.3456
205.868	36.7072
207.682	35.5579
209.495	34.4612
211.308	33.4145
213.12	32.4113
214.935	30.5147
216.746	28.8607
218.558	27.0228
220.369	25.8887
222.18	23.9678
223.992	23.5148
225.802	22.87
227.612	22.1834
229.421	20.4882
231.23	20.2354
233.039	20.3982
234.849	20.178
236.657	19.5367
238.465	18.2225
240.272	17.0912
242.079	16.5285
243.885	15.2616
245.691	13.3315
247.497	12.0975
249.305	11.114
251.11	11.0628
252.915	8.97247
254.719	8.06938
256.523	7.20301
258.327	7.21945
260.13	5.97562
261.933	7.67361
263.736	7.18528
265.538	8.36538
267.34	7.11098
269.141	7.01214
270.943	7.22974
272.744	7.4104
274.544	6.65922
276.344	5.48354
278.144	5.57694
279.944	5.16298
281.743	3.88061
283.542	3.91643
285.34	4.30099
287.138	3.6626
288.936	4.67238
290.733	4.96775
292.53	5.26223
294.327	4.72578
296.123	4.82813
297.919	6.43482
299.715	7.26447
301.508	7.3805
303.303	7.70713
305.098	7.2619
306.892	8.71876
308.686	9.27808
310.479	9.82794
312.273	10.4152
314.065	10.3361
315.858	11.8773
317.648	12.3512
319.44	13.1179
321.231	13.0195
323.022	12.6427
324.813	13.0575
326.604	13.1316
328.392	13.5654
330.181	13.1809
331.971	13.5967
333.76	13.4879
335.548	14.5553
337.335	15.0668
339.123	14.2786
340.91	14.676
342.698	13.6585
344.483	14.2966
346.269	15.1656
348.055	15.1002
349.841	13.9764
351.625	12.6294
353.41	11.0976
355.195	10.0681
356.977	9.34662
358.762	9.66263
360.545	7.81222
362.329	6.59724
364.11	4.55677
365.893	3.97021
367.675	3.94127
369.455	4.23758
371.237	5.19375
373.017	5.24404
374.798	4.9408
376.578	5.09115
378.357	5.10598
380.137	4.60785
381.917	5.25936
383.694	4.54704
385.473	5.33467
387.249	6.08967
389.028	6.42512
390.806	7.39362
392.581	7.76236
394.359	8.64998
396.134	10.0328
397.91	11.2016
399.684	11.8069
401.46	12.8946
403.234	14.6699
405.009	17.132
406.784	15.9974
408.557	15.4406
410.331	15.5489
412.103	17.1309
413.876	18.7295
415.647	19.3552
417.42	20.3014
419.191	19.7654
420.961	21.1107
422.733	21.9278
424.502	22.7479
426.273	23.0808
428.042	24.8347
429.812	25.962
431.58	25.8691
433.35	25.8722
435.118	25.1299
436.885	25.1651
438.653	24.7799
440.42	24.1021
442.188	24.1735
443.954	24.4806
445.719	24.4278
447.486	23.2745
449.251	21.9245
451.015	22.3283
452.781	21.0065
454.545	21.2836
456.308	21.0734
458.073	20.5429
459.836	21.4317
461.598	20.5036
463.362	20.3141
465.124	20.1796
466.885	19.5435
468.648	18.3752
470.408	17.7464
472.169	16.3083
473.929	17.2247
475.69	17.7668
477.45	17.9591
479.208	17.2728
480.967	17.3396
482.727	16.2719
484.485	16.8295
486.243	16.2797
488	13.6452
489.759	12.3294
491.515	11.9328
493.272	10.1813
495.028	10.6216
496.783	10.7356
498.54	11.4147
500.295	11.4584
502.05	11.9531
503.804	12.5305
505.558	13.3725
507.311	13.4747
509.064	13.9576
510.819	14.4842
512.572	14.8332
514.324	15.3197
516.076	15.3839
517.827	14.8246
519.578	14.104
521.329	14.7581
523.08	14.7069
524.83	15.1088
526.58	13.6022
528.329	13.0279
530.08	13.0025
531.829	13.1038
533.578	12.1523
535.326	11.637
537.074	10.8405
538.821	10.4966
540.568	10.1582
542.315	9.70544
544.062	9.62719
545.808	9.27968
547.554	10.1804
549.299	8.64195
551.044	8.3565
552.789	7.81607
554.533	6.69132
556.278	5.58081
558.019	4.29456
559.763	4.36438
561.506	5.22847
563.249	4.56085
564.991	4.12805
566.733	3.97674
568.475	5.44941
570.217	3.31035
571.958	4.21549
573.699	2.88074
575.439	2.97917
577.177	3.68978
578.917	4.47545
580.656	4.67956
582.396	4.75187
584.134	3.71492
585.873	3.71487
587.609	3.46577
589.347	2.86387
591.084	3.33231
592.822	2.56731
594.558	2.38939
596.295	0.789531
598.029	0.955644
599.765	0.669019
601.5	1.92115
603.235	2.30561
604.968	2.45204
606.703	2.58598
608.437	3.82235
610.171	3.25664
611.902	2.53377
613.635	1.46264
615.368	2.45742
617.099	1.59194
618.831	0.309923
620.563	0.627922
622.294	0.885799
624.024	1.48017
625.755	2.56995
627.485	3.93689
629.213	4.45327
630.943	6.03262
632.673	6.66793
634.4	8.21382
636.129	7.67089
637.855	9.25176
639.584	10.0812
641.312	10.3156
643.037	11.1832
644.764	11.5284
646.491	13.5408
648.216	12.2824
649.942	12.6247
651.666	13.9885
653.392	14.4143
655.115	13.8217
656.84	12.8877
658.563	13.8413
660.287	12.9188
662.011	12.986
663.732	13.0399
665.456	13.1976
667.177	13.2143
668.899	13.9445
670.62	13.7909
672.342	13.1958
674.061	13.0287
675.781	14.2438
677.502	15.3121
679.22	15.445
680.941	16.7399
682.659	15.8682
684.379	18.1542
686.096	19.9064
687.815	21.7484
689.532	22.6344
691.248	22.5483
692.966	23.3217
694.682	24.0297
696.4	23.415
698.115	23.1811
699.829	24.8628
701.546	27.6717
703.26	27.9056
704.974	29.3548
706.689	31.3024
708.402	33.3144
710.115	35.6189
711.83	37.1347
713.542	37.9018
715.254	38.5214
716.967	38.2639
718.679	38.0472
720.39	37.5228
722.102	37.3794
723.812	37.6068
725.522	36.6983
727.232	36.0665
728.943	35.4859
730.652	35.07
732.361	34.5971
734.069	34.2663
735.779	35.6756
737.487	35.5593
739.194	35.5825
740.901	34.7041
742.608	35.4354
744.316	35.3087
746.022	35.7072
747.728	36.0061
749.433	35.9623
751.138	35.6381
752.843	36.3931
754.549	37.9415
756.254	37.5642
757.957	38
759.661	38.8811
761.364	40.1965
763.067	40.1881
764.769	40.9428
766.471	41.8567
768.175	42.0567
769.877	44.9452
771.578	44.886
773.279	44.6609
774.98	45.8874
776.68	44.8493
778.38	46.2346
780.079	47.2073
781.779	47.6013
783.478	50.1388
785.176	52.8976
786.875	53.0651
788.573	53.4855
790.27	53.3436
791.968	54.0315
793.665	55.4831
795.361	55.985
797.058	56.1593
798.754	55.996
800.45	56.5211
802.145	57.373
803.84	57.3477
805.535	56.975
807.23	57.2966
808.922	56.1458
810.616	56.2053
812.309	55.4655
814.002	54.4247
815.695	53.9191
817.388	53.1027
819.08	51.8698
820.772	51.4263
822.464	51.0731
824.153	51.3614
825.844	50.0758
827.535	49.619
829.225	48.609
830.915	48.2407
832.605	45.3579
834.292	43.9582
835.981	43.2387
837.67	40.4384
839.359	38.6114
841.047	35.4134
842.732	33.1523
844.42	30.7644
846.107	30.1564
847.794	28.5141
849.479	27.4152
851.165	25.8548
852.851	25.0599
854.534	24.1326
856.22	22.662
857.905	22.246
859.589	21.5453
861.272	19.1916
862.956	19.4604
864.639	18.8185
866.321	19.1202
868.004	18.7903
869.687	18.8017
871.367	17.6725
873.049	18.4225
874.731	18.4147
876.41	20.5011
878.092	21.7331
879.771	23.2226
881.451	24.1296
883.131	25.6598
884.809	25.916
886.489	25.0618
888.166	23.406
889.845	23.9169
891.522	22.9661
893.2	21.6981
894.878	22.1605
896.554	21.208
898.231	21.8085
899.906	22.0974
901.583	20.9738
903.258	20.6593
904.934	21.3765
906.608	19.9224
908.283	18.3201
909.956	17.0862
911.631	16.2049
913.304	15.7599
914.976	14.5894
916.65	12.7895
918.322	12.1056
919.995	11.6366
921.666	10.6729
923.339	11.5446
925.009	10.6473
926.679	9.837
928.351	8.78523
930.021	9.48386
931.692	7.35579
933.361	7.11658
935.029	7.25412
936.699	7.47974
938.367	6.44536
940.035	6.04302
941.704	5.02953
943.371	4.94164
945.038	4.46337
946.706	5.29755
948.372	6.1918
950.038	6.05837
951.705	5.19659
953.37	6.50375
955.035	6.86831
956.7	7.48464
958.366	8.33389
960.03	7.42304
961.693	6.54607
963.357	6.9307
965.021	7.11186
966.684	7.37454
968.346	6.21589
970.008	6.27819
971.67	6.45707
973.334	7.01995
974.995	5.50531
976.655	6.32365
978.316	6.94444
979.976	6.35784
981.638	6.07206
983.297	5.62238
984.957	4.83246
986.616	6.00453
988.274	4.30132
989.932	3.65332
991.59	3.39608
993.248	3.87515
994.907	2.55443
996.565	1.75774
998.221	-1.51934
999.878	-3.8343
1001.53	-3.97838
1003.19	-4.60487
1004.85	-4.91152
1006.5	-2.61639
1008.16	2.07447
1009.81	8.6445
1011.46	19.6852
1013.12	32.5952
1014.77	47.0838
1016.43	64.5847
1018.08	79.9784
1019.73	95.3235
1021.38	109.397
1023.04	124.562
1024.69	139.959
1026.34	155.048
1027.99	168.29
1029.64	182.02
1031.29	193.857
1032.94	204.462
1034.59	213.772
1036.24	222.323
1037.89	228.724
1039.54	233.838
1041.19	239.094
1042.84	242.714
1044.48	246.32
1046.13	249.748
1047.78	251.596
1049.42	252.134
1051.07	249.628
1052.72	246.815
1054.36	242.974
1056.01	237.504
1057.66	231.586
1059.3	224.836
1060.94	215.461
1062.59	205.077
1064.23	192.422
1065.88	181.942
1067.52	169.517
1069.16	156.294
1070.81	140.171
1072.45	126.213
1074.09	111.145
1075.73	97.0289
1077.38	82.9722
1079.02	71.0426
1080.66	59.5554
1082.3	50.4751
1083.94	44.4229
1085.58	37.7544
1087.22	35.5399
1088.86	38.5147
1090.5	41.8846
1092.13	45.8893
1093.77	53.0341
1095.41	58.0641
1097.05	62.2218
1098.68	66.5216
1100.32	68.9741
1101.96	72.2089
1103.6	75.6231
1105.23	79.9458
1106.87	84.1625
1108.5	88.1776
1110.14	90.6516
1111.77	93.102
1113.41	96.3788
1115.04	99.0794
1116.67	101.29
1118.31	106.452
1119.94	109.924
1121.58	112.809
1123.21	115.063
1124.84	117.829
1126.47	120.966
1128.1	125.309
1129.73	127.498
1131.37	129.287
1133	131.029
1134.63	131.308
1136.26	133.266
1137.89	135.49
1139.52	137.12
1141.14	139.142
1142.77	139.572
1144.4	140.709
1146.03	141.933
1147.66	143.811
1149.29	144.166
1150.91	143.936
1152.54	143.662
1154.17	145.294
1155.79	147.399
1157.42	148.99
1159.04	150.207
1160.67	153.172
1162.3	154.558
1163.92	155.011
1165.55	159.334
1167.17	160.779
1168.79	164.974
1170.42	168.7
1172.04	171.044
1173.66	172.539
1175.28	175.65
1176.91	176.543
1178.53	178.286
1180.15	181.237
1181.77	182.487
1183.39	185.814
1185.01	188.752
1186.63	193.051
1188.25	197.441
1189.87	202.388
1191.49	205.19
1193.11	209.198
1194.73	214.931
1196.35	216.039
1197.97	219.663
1199.59	223.524
1201.2	227.091
1202.82	229.686
1204.44	233.334
1206.05	238.104
1207.67	242.787
1209.29	246.616
1210.9	249.732
1212.52	253.61
1214.13	258.949
1215.75	262.814
1217.36	269.739
1218.97	274.69
1220.59	279.559
1222.2	284.698
1223.82	290.119
1225.43	296.81
1227.04	302.158
1228.65	307.647
1230.26	314.069
1231.88	319.519
1233.49	326.431
1235.1	333.091
1236.71	340.492
1238.32	346.113
1239.93	353.02
1241.54	360.537
1243.15	366.92
1244.76	373.113
1246.37	379.936
1247.97	384.062
1249.58	390.707
1251.19	395.909
1252.8	401.424
1254.41	408.314
1256.01	416.809
1257.62	425.771
1259.23	435.299
1260.83	443.338
1262.44	451.945
1264.04	461.255
1265.65	470.305
1267.25	478.975
1268.86	486.465
1270.46	495.004
1272.07	501.375
1273.67	510.03
1275.27	519.62
1276.88	526.969
1278.48	536.623
1280.08	545.757
1281.68	554.544
1283.28	562.691
1284.89	569.83
1286.49	577.408
1288.09	585.486
1289.69	594.033
1291.29	601.685
1292.89	610.589
1294.49	618.807
1296.09	626.361
1297.69	633.747
1299.29	640.553
1300.88	649.449
1302.48	655.571
1304.08	663.14
1305.68	669.083
1307.27	674.565
1308.87	680.875
1310.47	686.13
1312.06	691.618
1313.66	697.298
1315.25	703.074
1316.85	707.978
1318.44	712.149
1320.04	716.152
1321.63	719.91
1323.23	723.848
1324.82	725.128
1326.41	725.999
1328.01	728.699
1329.6	731.125
1331.19	733.711
1332.78	736.201
1334.38	739.295
1335.97	740.991
1337.56	742.659
1339.15	742.193
1340.74	741.544
1342.33	741.596
1343.92	740.898
1345.51	740.04
1347.1	738.06
1348.69	737.518
1350.28	736.766
1351.87	734.015
1353.46	732.085
1355.04	730.372
1356.63	725.666
1358.22	722.734
1359.81	719.786
1361.39	716.404
1362.98	712.289
1364.57	706.383
1366.15	703.698
1367.74	700.078
1369.32	695.713
1370.91	692.124
1372.49	687.862
1374.07	682.813
1375.66	678.094
1377.24	672.387
1378.83	668.236
1380.41	664.118
1381.99	658.707
1383.57	653.352
1385.16	648.394
1386.74	642.834
1388.32	636.375
1389.9	629.863
1391.48	625.785
1393.06	619.949
1394.64	614.598
1396.22	607.205
1397.8	603.324
1399.38	597.108
1400.96	592.323
1402.54	588.033
1404.12	583.035
1405.7	578.735
1407.28	576.084
1408.85	570.971
1410.43	568.096
1412.01	563.17
1413.58	559.755
1415.16	555.892
1416.74	552.8
1418.31	549.539
1419.89	546.744
1421.46	544.481
1423.04	542.631
1424.61	539.2
1426.19	537.443
1427.76	536.364
1429.33	535.022
1430.91	532.952
1432.48	532.5
1434.05	530.459
1435.63	528.059
1437.2	526.384
1438.77	524.58
1440.34	522.9
1441.91	520.077
1443.49	517.935
1445.05	514.642
1446.63	512.468
1448.2	509.331
1449.77	507.847
1451.34	503.064
1452.91	498.981
1454.47	494.332
1456.04	491.837
1457.61	488.023
1459.18	483.815
1460.75	479.577
1462.31	473.212
1463.88	468.771
1465.45	463.443
1467.01	458.204
1468.58	454.97
1470.15	451.574
1471.71	447.62
1473.28	443.796
1474.84	439.879
1476.41	437.405
1477.97	433.487
1479.54	431.449
1481.1	428.454
1482.66	425.526
1484.23	422.428
1485.79	419.52
1487.35	416.033
1488.91	413.596
1490.48	410.777
1492.04	409.328
1493.6	407.762
1495.16	407.176
1496.72	407.237
1498.28	406.431
1499.84	406.424
1501.4	405.925
1502.96	404.816
1504.52	406.918
1506.08	408.218
1507.64	406.861
1509.2	406.437
1510.76	406.294
1512.31	406.635
1513.87	406.772
1515.43	406.956
1516.99	408.769
1518.54	409.685
1520.1	411.554
1521.66	414.161
1523.21	417.433
1524.77	422.636
1526.32	424.684
1527.88	429.637
1529.43	431.942
1530.99	435.943
1532.54	441.379
1534.09	446.848
1535.65	452.595
1537.2	459.794
1538.75	465.734
1540.31	471.97
1541.86	480.769
1543.41	488.832
1544.96	496.832
1546.51	505.79
1548.06	514.866
1549.62	524.334
1551.17	532.906
1552.72	541.638
1554.27	551.726
1555.82	561.238
1557.36	571.364
1558.91	581.056
1560.46	591.994
1562.01	602.85
1563.56	613.062
1565.11	624.482
1566.66	636.443
1568.2	647.336
1569.75	659.001
1571.3	669.265
1572.84	681.009
1574.39	692.166
1575.93	701.41
1577.48	711.132
1579.02	720.052
1580.57	727.137
1582.11	734.113
1583.66	739.105
1585.2	742.922
1586.75	748.87
1588.29	752.381
1589.83	755.909
1591.38	755.129
1592.92	755.806
1594.46	755.848
1596	753.864
1597.54	750.4
1599.09	745.451
1600.63	739.605
1602.17	732.582
1603.71	723.441
1605.25	713.436
1606.79	700.804
1608.33	689.747
1609.87	677.565
1611.41	663.397
1612.95	650.342
1614.48	634.646
1616.02	617.059
1617.56	600.646
1619.1	583.593
1620.64	564.84
1622.17	548.117
1623.71	531.295
1625.25	514.043
1626.78	496.329
1628.32	478.677
1629.86	461.023
1631.39	445.326
1632.92	429.495
1634.46	414.695
1635.99	400.131
1637.53	385.76
1639.06	372.75
1640.59	358.713
1642.13	347.604
1643.66	335.794
1645.19	324.194
1646.73	314.101
1648.26	303.293
1649.79	295.385
1651.32	285.2
1652.85	275.48
1654.38	265.969
1655.92	257.709
1657.45	249.227
1658.98	240.994
1660.51	233.608
1662.04	226.521
1663.57	219.579
1665.09	210.621
1666.62	202.649
1668.15	194.189
1669.68	186.087
1671.21	178.408
1672.73	170.896
1674.26	163.856
1675.79	156.113
1677.31	150.032
1678.84	143.352
1680.37	134.592
1681.89	126.453
1683.42	119.458
1684.94	112.471
1686.47	104.634
1687.99	98.253
1689.52	91.1684
1691.04	84.2942
1692.57	77.9835
1694.09	72.9817
1695.61	67.8545
1697.14	62.4262
1698.66	58.2044
1700.18	52.0165
1701.7	47.5591
1703.22	43.4436
1704.75	39.2832
1706.27	36.008
1707.79	32.4896
1709.31	29.3381
1710.83	26.442
1712.35	23.6583
1713.87	20.7832
1715.39	19.5466
1716.91	17.2459
1718.43	16.6612
1719.95	14.8501
1721.46	12.4448
1722.98	10.9806
1724.5	10.1589
1726.02	8.97071
1727.53	7.16315
1729.05	5.9178
1730.57	4.31349
1732.08	3.88451
1733.6	2.24461
1735.12	0.813222
1736.63	0.996975
1738.15	-0.672365
1739.66	-2.0435
1741.18	-3.19386
1742.69	-2.71069
1744.21	-2.01699
1745.72	-3.19821
1747.23	-2.05212
1748.74	-1.90377
1750.26	-2.15853
1751.77	-2.04896
1753.28	-0.929176
1754.8	-1.80532
1756.31	-2.62766
1757.82	-2.5095
1759.33	-2.35633
1760.84	-1.70392
1762.35	-1.32896
1763.86	-0.456526
1765.37	-0.582727
1766.88	0.111253
1768.39	0.639463
1769.9	0.0832744
1771.41	0.367228
1772.92	0.168116
1774.43	0.412273
1775.93	0.466218
1777.44	-0.0336777
1778.95	0.574668
1780.46	0.615732
1781.96	0.981191
1783.47	0.569086
1784.98	1.59649
1786.48	2.54938
1787.99	2.81704
1789.49	3.01614
1791	3.85194
1792.5	4.20684
1794.01	4.95939
1795.51	5.26955
1797.02	5.55524
1798.52	6.54153
1800.03	5.68491
1801.53	4.89188
1803.03	4.63242
1804.53	4.6937
1806.04	5.24181
1807.54	6.44721
1809.04	6.7399
1810.54	6.69744
1812.04	6.8488
1813.54	6.83709
1815.05	6.39968
1816.55	7.02176
1818.05	7.80828
1819.55	7.8162
1821.05	7.40633
1822.55	7.50424
1824.05	7.14975
1825.54	7.00455
1827.04	7.41667
1828.54	8.90421
1830.04	9.59224
1831.54	10.5834
1833.03	11.0668
1834.53	12.3115
1836.03	12.4209
1837.52	12.6563
1839.02	13.1998
1840.52	12.4326
1842.01	11.8617
1843.51	12.5499
1845	11.1891
1846.5	10.7746
1847.99	10.3487
1849.49	9.97638
1850.98	11.0666
1852.47	11.4311
1853.97	12.2986
1855.46	11.2029
1856.95	10.0787
1858.45	10.4491
1859.94	11.2058
1861.43	11.5517
1862.92	11.3396
1864.41	10.5864
1865.91	11.4506
1867.4	13.7439
1868.89	13.6971
1870.38	13.896
1871.87	12.4869
1873.36	11.2519
1874.85	9.36222
1876.34	9.94638
1877.83	10.6064
1879.31	11.246
1880.8	12.0847
1882.29	12.5349
1882.56	11.4162
1884.05	10.2007
1885.54	10.6066
1887.04	9.8514
1888.53	8.30411
1890.03	9.22027
1891.52	9.98117
1893.01	8.6689
1894.5	8.67549
1895.99	8.60266
1897.49	8.05859
1898.98	8.98907
1900.47	10.5266
1901.96	9.06182
1903.45	8.17239
1904.94	6.29843
1906.43	5.23294
1907.92	6.41924
1909.41	5.45853
1910.9	5.59234
1912.39	5.23904
1913.88	3.9056
1915.37	4.68052
1916.86	5.82342
1918.35	4.61772
1919.84	4.5069
1921.32	6.66383
1922.81	6.55001
1924.3	8.21379
1925.78	6.93558
1927.27	5.97339
1928.76	5.6536
1930.24	7.13498
1931.73	9.50016
1933.21	10.0592
1934.7	10.0586
1936.18	10.6739
1937.67	10.6759
1939.15	11.5332
1940.64	13.5417
1942.12	12.1053
1943.6	10.6577
1945.09	9.42174
1946.57	10.3337
1948.05	10.7133
1949.54	11.2755
1951.02	10.882
1952.5	10.8886
1953.98	11.1978
1955.46	9.32912
1956.94	8.10191
1958.42	9.58246
1959.91	11.0035
1961.39	11.0575
1962.87	10.8622
1964.34	12.1979
1965.82	12.4074
1967.3	10.7623
1968.78	11.9954
1970.26	11.5504
1971.74	11.6614
1973.22	12.63
1974.7	11.5493
1976.17	10.3745
1977.65	12.9224
1979.13	14.4614
1980.6	16.3912
1982.08	18.8718
1983.56	19.5211
1985.03	20.6529
1986.51	20.9461
1987.98	21.9308
1989.46	23.4753
1990.93	24.1734
1992.41	23.8232
1993.88	25.8887
1995.36	28.1942
1996.83	28.0999
1998.3	29.8689
1999.78	28.5185
2001.25	30.239
2002.72	32.3223
2004.2	34.6374
2005.67	36.1506
2007.14	35.2764
2008.61	35.3638
2010.08	35.5296
2011.55	34.4338
2013.02	34.5863
2014.49	33.9313
2015.97	31.8886
2017.43	31.7018
2018.9	31.5028
2020.37	31.9506
2021.84	32.2874
2023.31	32.7656
2024.78	33.592
2026.25	35.1066
2027.72	35.845
2029.19	35.7729
2030.65	36.9983
2032.12	38.5183
2033.59	36.8139
2035.05	37.263
2036.52	36.6722
2037.98	38.2787
2039.45	39.3052
2040.92	38.7168
2042.38	39.4955
2043.85	39.7837
2045.31	41.2736
2046.78	41.9135
2048.24	43.1954
2049.71	44.0535
2051.17	46.2591
2052.63	45.1659
2054.1	44.0737
2055.56	44.8676
2057.02	44.1374
2058.48	43.3386
2059.95	42.8373
2061.41	43.1596
2062.87	43.2554
2064.33	44.3877
2065.79	44.7035
2067.25	46.2455
2068.71	46.2962
2070.17	45.1963
2071.63	46.0113
2073.09	47.939
2074.55	48.1603
2076.01	48.6487
2077.47	47.4532
2078.93	45.0809
2080.39	45.0084
2081.85	45.979
2083.3	47.0344
2084.76	47.022
2086.22	49.2399
2087.68	50.1229
2089.13	51.0588
2090.59	51.6678
2092.05	52.3462
2093.5	54.0353
2094.96	53.2424
2096.41	55.1848
2097.87	56.0075
2099.32	58.1042
2100.78	59.3372
2102.23	58.8229
2103.69	59.3571
2105.14	61.6405
2106.59	63.6284
2108.05	65.723
2109.5	65.4695
2110.95	67.7955
2112.41	68.1821
2113.86	68.0015
2115.31	70.0997
2116.76	72.1707
2118.21	73.4793
2119.67	74.6119
2121.12	74.5713
2122.57	74.4726
2124.02	76.519
2125.47	76.3766
2126.92	77.7929
2128.37	79.1134
2129.82	80.6892
2131.27	84.1942
