#Acq. time (s)=	45
#Accumulations=	2
#Range (cm-¹)=	200...3150
#Windows=	2
#Auto scanning=	Off
#Autofocus=	Off
#Macrospot=	Off
#AutoExposure=	Off
#Spike filter=	Multiple accum.
#Delay time (s)=	0
#Binning=	1
#Readout mode=	Signal
#DeNoise=	Off
#ICS correction=	On
#Dark correction=	Off
#Inst. Process=	Off
#Detector Gain=	Best Dynamic Range
#Detector ADC=	20 kHz       
#Detector temperature (°C)=	-69.85
#Instrument=	LabRAM HR Evol
#Detector=	Synapse
#Objective=	x100
#Grating=	600 gr/mm
#ND Filter=	100%
#Laser (nm)=	532 
#Hole=	100.021
#Range=	Auto
#Laser Pol.=	No
#Raman. Pol.=	No
#Laser Pol. (°)=	-0.0007625
#Raman Pol. (°)=	89.9995
#Collection=	Microscope
#StageXY=	Marzhauser
#StageZ=	Marzhauser
#X (µm)=	-1035.2
#Y (µm)=	687.8
#Z (µm)=	584.15
#Full time(mm:ss)=	3:19
#Project=	
#Sample=	
#Site=	
#Title=	Mb_40_y_08_2x_45s_532 nm_x100_100%_600 gr_mm
#Remark=	
#Date=	19.07.2022 09:29
#Acquired=	19.07.2022 09:29:13
#Base:Fit=	10.08.2022 10:52:48
#Base:Sub=	10.08.2022 10:52:53
#Filter:Polynom=	16.08.2022 10:09:04
#AxisType[0]=Intens
#AxisUnit[0]=Cnt
#AxisType[1]=Spectr
#AxisUnit[1]=1/cm
200.423	24.4771
202.238	24.4103
204.052	24.7947
205.868	24.0042
207.682	23.0716
209.495	21.8456
211.308	20.1724
213.12	18.7947
214.935	17.2157
216.746	14.1728
218.558	13.5268
220.369	12.2715
222.18	12.7884
223.992	11.641
225.802	10.2112
227.612	9.57872
229.421	8.75395
231.23	8.79137
233.039	8.55804
234.849	8.15595
236.657	7.89702
238.465	6.04014
240.272	6.16172
242.079	6.02148
243.885	4.88011
245.691	4.68177
247.497	4.03085
249.305	3.3839
251.11	2.83224
252.915	4.1128
254.719	4.5455
256.523	5.35015
258.327	5.92637
260.13	5.479
261.933	5.24114
263.736	5.74216
265.538	7.1834
267.34	8.4877
269.141	9.10063
270.943	9.32311
272.744	10.0945
274.544	11.0966
276.344	13.2753
278.144	13.0188
279.944	14.2141
281.743	14.2536
283.542	13.7598
285.34	14.0746
287.138	13.9633
288.936	14.2885
290.733	13.0804
292.53	13.2166
294.327	12.2352
296.123	11.5682
297.919	11.3744
299.715	11.883
301.508	11.7011
303.303	12.7226
305.098	12.1955
306.892	12.8046
308.686	14.1088
310.479	13.6312
312.273	14.2409
314.065	12.6267
315.858	12.5183
317.648	13.4143
319.44	13.2527
321.231	13.2653
323.022	11.9826
324.813	11.4161
326.604	10.8659
328.392	10.1031
330.181	10.2283
331.971	9.28817
333.76	8.56873
335.548	8.6483
337.335	8.60805
339.123	8.22936
340.91	6.03697
342.698	6.27234
344.483	5.49561
346.269	4.58943
348.055	4.33503
349.841	2.75256
351.625	2.128
353.41	2.67676
355.195	3.88728
356.977	4.90772
358.762	4.66509
360.545	5.0738
362.329	6.43274
364.11	6.43656
365.893	5.91607
367.675	4.11957
369.455	4.85099
371.237	4.07723
373.017	4.34074
374.798	3.816
376.578	4.41463
378.357	5.4625
380.137	5.52915
381.917	6.82112
383.694	7.52241
385.473	8.23176
387.249	9.49784
389.028	10.7393
390.806	11.5499
392.581	11.652
394.359	11.0768
396.134	12.2949
397.91	12.1378
399.684	12.3354
401.46	13.4031
403.234	12.9925
405.009	14.8301
406.784	15.796
408.557	15.5458
410.331	15.6332
412.103	15.3446
413.876	16.3795
415.647	16.3336
417.42	16.4234
419.191	15.4191
420.961	15.9396
422.733	16.3897
424.502	16.8293
426.273	16.982
428.042	15.8145
429.812	15.4411
431.58	18.0052
433.35	16.9037
435.118	16.5036
436.885	16.9545
438.653	16.7254
440.42	18.8299
442.188	19.6454
443.954	20.7935
445.719	21.6064
447.486	20.6203
449.251	20.9402
451.015	20.7169
452.781	19.2288
454.545	19.7401
456.308	20.8426
458.073	21.9873
459.836	21.1004
461.598	21.9398
463.362	21.9644
465.124	23.09
466.885	23.925
468.648	24.2058
470.408	23.6729
472.169	23.7388
473.929	23.7446
475.69	25.4437
477.45	26.3956
479.208	26.0232
480.967	26.2217
482.727	26.8061
484.485	28.5917
486.243	29.0216
488	29.6585
489.759	30.7348
491.515	31.0518
493.272	32.137
495.028	31.3886
496.783	31.6547
498.54	32.6499
500.295	32.804
502.05	32.6942
503.804	32.5428
505.558	32.2865
507.311	32.1727
509.064	32.9443
510.819	32.0421
512.572	31.8738
514.324	31.2242
516.076	30.5272
517.827	30.8539
519.578	31.3434
521.329	30.7762
523.08	30.0197
524.83	29.1742
526.58	30.2753
528.329	29.7545
530.08	29.7017
531.829	29.136
533.578	28.2417
535.326	27.5422
537.074	26.8733
538.821	26.131
540.568	24.6504
542.315	25.1707
544.062	23.6888
545.808	21.2013
547.554	20.5578
549.299	20.3371
551.044	18.8234
552.789	18.1929
554.533	16.6381
556.278	15.4726
558.019	13.8723
559.763	13.8904
561.506	14.0298
563.249	14.5161
564.991	13.0862
566.733	11.8572
568.475	12.0598
570.217	12.2233
571.958	12.0103
573.699	9.91891
575.439	9.79461
577.177	9.44659
578.917	8.78382
580.656	8.78897
582.396	8.37517
584.134	8.15723
585.873	8.4878
587.609	7.52951
589.347	7.06284
591.084	7.72959
592.822	7.32407
594.558	6.46035
596.295	6.54325
598.029	5.58204
599.765	7.12503
601.5	7.18256
603.235	7.3091
604.968	8.22111
606.703	8.78209
608.437	9.84737
610.171	9.59684
611.902	10.0377
613.635	11.1471
615.368	10.6217
617.099	11.2449
618.831	11.0304
620.563	10.074
622.294	10.1836
624.024	9.9614
625.755	10.7008
627.485	10.1862
629.213	10.5237
630.943	9.4766
632.673	8.95919
634.4	9.56948
636.129	7.96164
637.855	7.07936
639.584	7.01017
641.312	6.205
643.037	6.28498
644.764	5.96958
646.491	6.76318
648.216	7.6363
649.942	7.38199
651.666	6.8218
653.392	7.45072
655.115	7.983
656.84	7.76883
658.563	7.31039
660.287	7.93385
662.011	8.41128
663.732	7.85998
665.456	7.48173
667.177	8.72381
668.899	8.5628
670.62	9.82033
672.342	10.5362
674.061	9.59522
675.781	10.8838
677.502	11.2788
679.22	11.7262
680.941	12.1607
682.659	13.7224
684.379	14.8286
686.096	16.873
687.815	18.8014
689.532	21.033
691.248	22.4847
692.966	23.5821
694.682	25.8546
696.4	26.6573
698.115	27.7771
699.829	30.4532
701.546	32.075
703.26	33.2469
704.974	35.0508
706.689	36.7711
708.402	38.7459
710.115	40.5525
711.83	41.6828
713.542	41.0879
715.254	41.4824
716.967	41.9643
718.679	43.4846
720.39	43.4788
722.102	43.6695
723.812	45.0042
725.522	45.2184
727.232	45.8343
728.943	46.605
730.652	48.0301
732.361	48.7616
734.069	49.2422
735.779	49.1035
737.487	49.2711
739.194	49.607
740.901	49.3635
742.608	49.2188
744.316	48.7473
746.022	50.0144
747.728	49.2569
749.433	51.3983
751.138	51.2326
752.843	52.7517
754.549	52.3868
756.254	52.9377
757.957	52.8034
759.661	54.2773
761.364	56.0471
763.067	57.2465
764.769	58.5198
766.471	59.2983
768.175	60.9062
769.877	61.8091
771.578	63.0926
773.279	64.4253
774.98	64.8731
776.68	64.2306
778.38	64.4478
780.079	65.0165
781.779	65.6919
783.478	66.3128
785.176	67.5622
786.875	67.1149
788.573	66.416
790.27	68.3451
791.968	68.4484
793.665	67.2609
795.361	68.6018
797.058	68.9998
798.754	68.6588
800.45	69.7328
802.145	69.2162
803.84	70.209
805.535	70.2829
807.23	70.688
808.922	70.4853
810.616	70.0551
812.309	70.8952
814.002	69.7506
815.695	68.9247
817.388	67.3916
819.08	67.0947
820.772	65.2154
822.464	64.7624
824.153	64.8101
825.844	64.0684
827.535	63.6484
829.225	62.7967
830.915	63.3724
832.605	62.0506
834.292	61.7373
835.981	59.7826
837.67	59.5297
839.359	58.9191
841.047	58.6561
842.732	58.4959
844.42	57.4418
846.107	55.6095
847.794	54.8008
849.479	52.6513
851.165	51.1971
852.851	50.1447
854.534	48.4363
856.22	48.3926
857.905	46.5483
859.589	45.8698
861.272	44.5031
862.956	45.1311
864.639	44.5099
866.321	44.5443
868.004	43.9703
869.687	43.9041
871.367	42.9849
873.049	42.982
874.731	43.575
876.41	42.7569
878.092	42.1527
879.771	42.5842
881.451	42.1468
883.131	41.6786
884.809	42.0254
886.489	41.1221
888.166	42.0659
889.845	41.6847
891.522	40.658
893.2	39.5883
894.878	39.4851
896.554	38.5833
898.231	37.6039
899.906	38.5081
901.583	39.1828
903.258	39.8549
904.934	39.6433
906.608	40.5217
908.283	40.6006
909.956	40.3991
911.631	41.3199
913.304	41.4563
914.976	42.3413
916.65	41.5183
918.322	40.9352
919.995	40.4574
921.666	40.6343
923.339	41.619
925.009	40.5691
926.679	40.9019
928.351	40.566
930.021	39.9495
931.692	39.7603
933.361	39.2832
935.029	38.894
936.699	39.3883
938.367	39.5293
940.035	39.9896
941.704	39.2399
943.371	39.2127
945.038	38.4037
946.706	37.8287
948.372	37.4808
950.038	38.2531
951.705	37.9155
953.37	38.4057
955.035	38.298
956.7	39.1065
958.366	38.3153
960.03	38.3079
961.693	37.4808
963.357	38.0628
965.021	38.9564
966.684	40.0415
968.346	39.6767
970.008	38.673
971.67	38.9914
973.334	38.5795
974.995	39.8545
976.655	39.6908
978.316	41.0432
979.976	41.0656
981.638	42.6519
983.297	43.7025
984.957	43.0813
986.616	42.3439
988.274	41.0599
989.932	40.1478
991.59	39.3251
993.248	37.3506
994.907	34.4653
996.565	32.4042
998.221	29.6241
999.878	25.6289
1001.53	23.3537
1003.19	20.6836
1004.85	17.9464
1006.5	18.8188
1008.16	21.1337
1009.81	27.7677
1011.46	34.9082
1013.12	45.9009
1014.77	58.5199
1016.43	72.7088
1018.08	87.8688
1019.73	103.273
1021.38	117.893
1023.04	131.644
1024.69	144.578
1026.34	157.252
1027.99	169.726
1029.64	181.509
1031.29	192.567
1032.94	201.42
1034.59	209.793
1036.24	216.701
1037.89	222.892
1039.54	227.023
1041.19	230.849
1042.84	234.213
1044.48	235.824
1046.13	237.868
1047.78	237.643
1049.42	235.603
1051.07	231.95
1052.72	228.705
1054.36	224.322
1056.01	218.814
1057.66	212.965
1059.3	204.195
1060.94	194.43
1062.59	183.314
1064.23	172.351
1065.88	159.421
1067.52	144.583
1069.16	130.594
1070.81	116.725
1072.45	101.854
1074.09	85.352
1075.73	70.1726
1077.38	56.3455
1079.02	44.1263
1080.66	30.4054
1082.3	20.3437
1083.94	13.1615
1085.58	7.35244
1087.22	5.72894
1088.86	7.66633
1090.5	9.49061
1092.13	12.7439
1093.77	16.3763
1095.41	20.5117
1097.05	23.6405
1098.68	26.0552
1100.32	28.1706
1101.96	29.1514
1103.6	29.7224
1105.23	30.6349
1106.87	31.4278
1108.5	31.4966
1110.14	31.9378
1111.77	31.5519
1113.41	32.2286
1115.04	32.9047
1116.67	31.8285
1118.31	31.1359
1119.94	31.7856
1121.58	31.7939
1123.21	32.2464
1124.84	32.6993
1126.47	33.4462
1128.1	34.3222
1129.73	34.0654
1131.37	33.1266
1133	32.3977
1134.63	31.7174
1136.26	30.5143
1137.89	30.0772
1139.52	28.4495
1141.14	26.361
1142.77	24.7046
1144.4	24.3632
1146.03	24.4625
1147.66	24.863
1149.29	23.1069
1150.91	22.8613
1152.54	21.6236
1154.17	18.7052
1155.79	17.4325
1157.42	17.1944
1159.04	16.1936
1160.67	15.1937
1162.3	13.5596
1163.92	13.3434
1165.55	12.548
1167.17	11.779
1168.79	11.4902
1170.42	9.90247
1172.04	9.59097
1173.66	9.25354
1175.28	9.45676
1176.91	9.29994
1178.53	8.80851
1180.15	7.79901
1181.77	7.44645
1183.39	6.13018
1185.01	4.85543
1186.63	4.95373
1188.25	5.18983
1189.87	4.82293
1191.49	4.60525
1193.11	4.72625
1194.73	5.49079
1196.35	5.42594
1197.97	5.88881
1199.59	8.22642
1201.2	10.3539
1202.82	12.4391
1204.44	14.5841
1206.05	17.1648
1207.67	18.1794
1209.29	18.5046
1210.9	19.8894
1212.52	20.0003
1214.13	21.6415
1215.75	23.8076
1217.36	26.016
1218.97	28.7229
1220.59	29.8322
1222.2	32.7257
1223.82	34.9244
1225.43	36.1239
1227.04	38.9843
1228.65	40.2937
1230.26	40.6005
1231.88	43.5904
1233.49	45.6571
1235.1	48.5773
1236.71	51.2595
1238.32	53.9023
1239.93	56.9456
1241.54	59.4477
1243.15	61.2727
1244.76	64.0273
1246.37	66.4319
1247.97	69.0165
1249.58	70.8019
1251.19	71.1713
1252.8	72.5531
1254.41	74.1185
1256.01	74.5876
1257.62	76.1693
1259.23	76.6446
1260.83	77.2151
1262.44	77.8785
1264.04	78.3507
1265.65	81.0216
1267.25	83.7376
1268.86	84.5515
1270.46	85.232
1272.07	85.6268
1273.67	87.5676
1275.27	88.8277
1276.88	90.323
1278.48	91.3109
1280.08	92.5291
1281.68	94.0627
1283.28	95.3823
1284.89	95.4356
1286.49	94.7255
1288.09	94.2747
1289.69	95.0687
1291.29	96.5253
1292.89	96.7825
1294.49	98.723
1296.09	99.6102
1297.69	99.6865
1299.29	100.824
1300.88	100.558
1302.48	101.813
1304.08	101.825
1305.68	102.575
1307.27	103.333
1308.87	104.047
1310.47	105.634
1312.06	107.232
1313.66	107.897
1315.25	109.137
1316.85	109.058
1318.44	110.204
1320.04	110.088
1321.63	111.129
1323.23	109.931
1324.82	110.427
1326.41	110.612
1328.01	110.326
1329.6	108.696
1331.19	107.029
1332.78	106.542
1334.38	105.981
1335.97	104.011
1337.56	103.755
1339.15	102.597
1340.74	100.907
1342.33	100.18
1343.92	99.1374
1345.51	98.8464
1347.1	96.576
1348.69	94.8961
1350.28	94.1864
1351.87	92.2642
1353.46	91.3912
1355.04	88.7562
1356.63	87.5203
1358.22	85.5037
1359.81	83.6231
1361.39	82.0532
1362.98	79.8139
1364.57	77.1211
1366.15	75.4889
1367.74	73.7031
1369.32	72.339
1370.91	69.9251
1372.49	67.1805
1374.07	65.619
1375.66	63.7764
1377.24	62.9158
1378.83	61.6638
1380.41	59.203
1381.99	57.4524
1383.57	56.3973
1385.16	55.9719
1386.74	54.6968
1388.32	54.7323
1389.9	54.3352
1391.48	53.0052
1393.06	52.0733
1394.64	52.0464
1396.22	51.7174
1397.8	51.3984
1399.38	50.9335
1400.96	50.4187
1402.54	49.8127
1404.12	51.1885
1405.7	51.3298
1407.28	51.7182
1408.85	52.3717
1410.43	53.3859
1412.01	54.9862
1413.58	56.0929
1415.16	58.268
1416.74	60.8304
1418.31	62.9913
1419.89	65.1235
1421.46	69.0195
1423.04	72.3348
1424.61	76.1798
1426.19	79.8506
1427.76	83.5073
1429.33	86.873
1430.91	90.4931
1432.48	94.2478
1434.05	96.997
1435.63	100.874
1437.2	103.223
1438.77	105.157
1440.34	107.553
1441.91	108.765
1443.49	110.557
1445.05	111.568
1446.63	112.33
1448.2	112.596
1449.77	112.741
1451.34	112.943
1452.91	113.314
1454.47	113.667
1456.04	114.21
1457.61	112.211
1459.18	111.414
1460.75	110.167
1462.31	109.481
1463.88	107.525
1465.45	105.387
1467.01	103.597
1468.58	102.014
1470.15	99.4077
1471.71	97.7311
1473.28	95.9185
1474.84	94.5119
1476.41	92.1182
1477.97	89.4153
1479.54	87.2453
1481.1	85.2431
1482.66	81.8793
1484.23	79.1863
1485.79	76.1683
1487.35	73.5598
1488.91	71.2628
1490.48	68.3074
1492.04	65.5296
1493.6	63.0608
1495.16	60.8094
1496.72	58.7952
1498.28	57.6313
1499.84	55.6279
1501.4	52.8057
1502.96	51.7385
1504.52	49.6306
1506.08	47.5382
1507.64	46.9127
1509.2	45.1555
1510.76	43.1977
1512.31	40.8842
1513.87	39.6161
1515.43	37.0798
1516.99	35.1801
1518.54	34.1108
1520.1	33.3572
1521.66	33.4747
1523.21	32.8062
1524.77	32.7109
1526.32	31.2492
1527.88	31.1125
1529.43	31.2394
1530.99	31.5571
1532.54	32.4768
1534.09	33.0237
1535.65	32.9134
1537.2	34.4643
1538.75	34.8552
1540.31	36.4846
1541.86	37.7675
1543.41	39.2556
1544.96	41.0685
1546.51	42.855
1548.06	44.3957
1549.62	46.4513
1551.17	46.8837
1552.72	48.2369
1554.27	48.6141
1555.82	49.0657
1557.36	49.5995
1558.91	50.0673
1560.46	50.8669
1562.01	51.5263
1563.56	51.7859
1565.11	53.1958
1566.66	53.4904
1568.2	53.7891
1569.75	54.9167
1571.3	55.8072
1572.84	57.616
1574.39	58.5656
1575.93	59.3528
1577.48	59.7545
1579.02	61.0639
1580.57	63.8862
1582.11	64.2933
1583.66	65.4183
1585.2	66.0636
1586.75	66.146
1588.29	66.9736
1589.83	67.7848
1591.38	68.4744
1592.92	68.2579
1594.46	69.383
1596	70.0995
1597.54	70.7384
1599.09	70.6345
1600.63	71.5994
1602.17	72.2198
1603.71	71.6266
1605.25	71.2459
1606.79	71.539
1608.33	71.666
1609.87	71.8998
1611.41	72.8197
1612.95	73.0043
1614.48	73.0046
1616.02	73.4048
1617.56	73.9766
1619.1	74.3643
1620.64	74.5247
1622.17	75.8991
1623.71	75.6617
1625.25	76.5085
1626.78	77.4765
1628.32	77.9679
1629.86	81.2233
1631.39	82.9847
1632.92	84.2217
1634.46	86.5183
1635.99	88.4402
1637.53	89.5866
1639.06	91.1001
1640.59	94.1295
1642.13	96.9417
1643.66	98.0845
1645.19	99.5032
1646.73	101.421
1648.26	102.325
1649.79	103.868
1651.32	105.02
1652.85	105.443
1654.38	107.242
1655.92	107.927
1657.45	107.832
1658.98	106.521
1660.51	105.962
1662.04	105.226
1663.57	104.772
1665.09	103.103
1666.62	100.727
1668.15	98.946
1669.68	96.6655
1671.21	95.131
1672.73	92.7843
1674.26	90.1312
1675.79	87.795
1677.31	85.5561
1678.84	81.64
1680.37	76.7789
1681.89	73.1567
1683.42	70.0833
1684.94	66.8587
1686.47	62.7539
1687.99	59.528
1689.52	56.1176
1691.04	52.1548
1692.57	48.2977
1694.09	44.1231
1695.61	41.5226
1697.14	38.1185
1698.66	35.161
1700.18	32.5006
1701.7	31.1001
1703.22	29.2369
1704.75	26.8015
1706.27	25.8489
1707.79	23.4751
1709.31	21.8567
1710.83	20.6634
1712.35	18.7184
1713.87	17.1035
1715.39	16.2187
1716.91	14.7773
1718.43	12.8959
1719.95	10.7086
1721.46	9.91508
1722.98	10.2669
1724.5	10.2053
1726.02	10.1538
1727.53	8.87926
1729.05	8.05812
1730.57	7.73573
1732.08	6.19702
1733.6	6.12971
1735.12	6.17174
1736.63	5.76068
1738.15	5.90204
1739.66	5.82681
1741.18	5.68738
1742.69	5.57099
1744.21	6.53415
1745.72	6.72048
1747.23	6.79263
1748.74	6.97135
1750.26	7.39809
1751.77	7.73048
1753.28	7.50588
1754.8	7.75262
1756.31	7.56605
1757.82	8.17111
1759.33	7.91375
1760.84	8.12702
1762.35	7.66517
1763.86	8.83283
1765.37	7.91203
1766.88	7.16958
1768.39	6.64712
1769.9	6.99169
1771.41	7.28551
1772.92	6.12004
1774.43	5.83715
1775.93	6.97064
1777.44	6.86306
1778.95	7.24142
1780.46	6.98934
1781.96	7.48988
1783.47	6.80765
1784.98	7.28224
1786.48	6.62401
1787.99	5.76926
1789.49	5.11512
1791	4.87175
1792.5	4.0146
1794.01	4.56705
1795.51	4.5992
1797.02	5.06015
1798.52	5.20197
1800.03	4.01724
1801.53	3.09645
1803.03	2.30379
1804.53	3.02344
1806.04	3.36624
1807.54	3.53595
1809.04	4.16217
1810.54	3.59233
1812.04	3.83122
1813.54	4.51997
1815.05	5.0684
1816.55	4.7331
1818.05	5.14369
1819.55	5.31014
1821.05	5.36132
1822.55	5.46258
1824.05	6.35474
1825.54	5.86358
1827.04	5.65643
1828.54	5.4072
1830.04	4.96543
1831.54	4.5658
1833.03	4.0267
1834.53	3.90854
1836.03	4.08342
1837.52	3.93564
1839.02	4.0159
1840.52	3.14474
1842.01	3.95034
1843.51	3.52503
1845	3.89392
1846.5	3.42938
1847.99	3.51874
1849.49	3.98066
1850.98	4.42404
1852.47	4.14497
1853.97	4.71999
1855.46	3.81558
1856.95	3.64794
1858.45	3.35705
1859.94	3.85369
1861.43	3.54632
1862.92	3.95609
1864.41	4.51643
1865.91	4.96426
1867.4	5.33868
1868.89	6.76068
1870.38	6.63787
1871.87	7.24885
1873.36	7.99399
1874.85	7.88032
1876.34	8.22094
1877.83	8.61822
1879.31	9.41923
1880.8	9.65356
1882.29	9.38605
1882.56	9.30149
1884.05	9.54826
1885.54	9.87945
1887.04	10.6077
1888.53	10.5681
1890.03	10.3023
1891.52	10.4729
1893.01	10.2693
1894.5	10.0577
1895.99	9.94286
1897.49	9.56814
1898.98	8.82461
1900.47	9.24299
1901.96	9.03236
1903.45	8.70649
1904.94	9.48731
1906.43	8.88521
1907.92	9.53048
1909.41	10.2941
1910.9	10.4706
1912.39	9.88719
1913.88	9.55094
1915.37	9.7112
1916.86	8.36647
1918.35	7.66961
1919.84	7.39924
1921.32	6.95122
1922.81	6.09231
1924.3	5.35305
1925.78	5.70869
1927.27	5.05293
1928.76	3.69994
1930.24	3.50679
1931.73	3.59648
1933.21	4.04174
1934.7	4.33407
1936.18	4.80337
1937.67	4.40172
1939.15	4.40532
1940.64	4.41229
1942.12	3.99685
1943.6	3.40669
1945.09	3.22631
1946.57	2.73251
1948.05	1.77835
1949.54	1.56087
1951.02	2.1332
1952.5	1.49234
1953.98	-0.0748307
1955.46	-0.661564
1956.94	-0.321238
1958.42	1.38309
1959.91	2.47808
1961.39	3.84917
1962.87	3.97378
1964.34	3.91839
1965.82	5.05884
1967.3	6.15199
1968.78	7.01351
1970.26	8.70878
1971.74	9.95022
1973.22	10.9776
1974.7	12.1676
1976.17	12.3648
1977.65	13.0534
1979.13	13.5418
1980.6	13.651
1982.08	13.8752
1983.56	13.4607
1985.03	13.5336
1986.51	13.306
1987.98	13.6079
1989.46	13.9686
1990.93	12.6445
1992.41	12.8055
1993.88	13.1262
1995.36	13.1433
1996.83	14.3019
1998.3	15.2833
1999.78	15.2061
2001.25	14.4962
2002.72	14.5683
2004.2	14.9623
2005.67	15.4412
2007.14	15.9679
2008.61	16.0744
2010.08	14.8382
2011.55	14.001
2013.02	13.9255
2014.49	13.8955
2015.97	13.2918
2017.43	13.6713
2018.9	13.6173
2020.37	13.8516
2021.84	13.8196
2023.31	14.0075
2024.78	14.7025
2026.25	14.7715
2027.72	15.6622
2029.19	17.0529
2030.65	18.5372
2032.12	20.0869
2033.59	19.9512
2035.05	19.4058
2036.52	19.2954
2037.98	19.6146
2039.45	20.4973
2040.92	21.0196
2042.38	22.3116
2043.85	22.9798
2045.31	23.3783
2046.78	24.0831
2048.24	24.5611
2049.71	24.6772
2051.17	25.0011
2052.63	25.3079
2054.1	25.1967
2055.56	24.4754
2057.02	24.7752
2058.48	25.9526
2059.95	25.9456
2061.41	25.9905
2062.87	26.5551
2064.33	26.6605
2065.79	27.5761
2067.25	28.2009
2068.71	28.928
2070.17	29.7594
2071.63	29.8184
2073.09	29.1552
2074.55	29.9163
2076.01	31.0159
2077.47	32.3279
2078.93	33.3595
2080.39	33.8855
2081.85	34.6326
2083.3	35.7929
2084.76	38.0049
2086.22	39.1899
2087.68	40.5542
2089.13	41.2911
2090.59	42.6451
2092.05	43.8926
2093.5	44.7963
2094.96	45.907
2096.41	47.5572
2097.87	49.9417
2099.32	50.4357
2100.78	51.7997
2102.23	52.3714
2103.69	54.0303
2105.14	56.1859
2106.59	57.4213
2108.05	58.6678
2109.5	60.8487
2110.95	63.3552
2112.41	65.3302
2113.86	68.5152
2115.31	70.9061
2116.76	72.6369
2118.21	74.5469
2119.67	76.7583
2121.12	79.576
2122.57	81.76
2124.02	83.5693
2125.47	86.5423
2126.92	88.286
2128.37	91.1071
2129.82	94.4651
2131.27	98.0599
2132.71	99.732
2134.16	101.886
