#Acq. time (s)=	45
#Accumulations=	2
#Range (cm-¹)=	200...3150
#Windows=	2
#Auto scanning=	Off
#Autofocus=	Off
#Macrospot=	Off
#AutoExposure=	Off
#Spike filter=	Multiple accum.
#Delay time (s)=	0
#Binning=	1
#Readout mode=	Signal
#DeNoise=	Off
#ICS correction=	On
#Dark correction=	Off
#Inst. Process=	Off
#Detector Gain=	Best Dynamic Range
#Detector ADC=	20 kHz       
#Detector temperature (°C)=	-69.85
#Instrument=	LabRAM HR Evol
#Detector=	Synapse
#Objective=	x100
#Grating=	600 gr/mm
#ND Filter=	100%
#Laser (nm)=	532 
#Hole=	100.021
#Range=	Auto
#Laser Pol.=	No
#Raman. Pol.=	No
#Laser Pol. (°)=	-0.0007625
#Raman Pol. (°)=	89.9995
#Collection=	Microscope
#StageXY=	Marzhauser
#StageZ=	Marzhauser
#X (µm)=	-1100.8
#Y (µm)=	557.4
#Z (µm)=	583.95
#Full time(mm:ss)=	3:18
#Project=	
#Sample=	
#Site=	
#Title=	Mb_40_y_29_2x_45s_532 nm_x100_100%_600 gr_mm
#Remark=	
#Date=	19.07.2022 11:51
#Acquired=	19.07.2022 11:51:40
#Base:Fit=	10.08.2022 10:52:48
#Base:Sub=	10.08.2022 10:52:53
#Filter:Polynom=	16.08.2022 10:09:04
#AxisType[0]=Intens
#AxisUnit[0]=Cnt
#AxisType[1]=Spectr
#AxisUnit[1]=1/cm
200.423	39.1414
202.238	35.101
204.052	32.5174
205.868	30.2235
207.682	27.4314
209.495	23.9481
211.308	20.9333
213.12	18.9047
214.935	17.0171
216.746	16.5002
218.558	16.8282
220.369	14.7182
222.18	14.0106
223.992	12.8093
225.802	11.3752
227.612	9.69759
229.421	8.04957
231.23	7.64397
233.039	7.84745
234.849	6.87227
236.657	7.62607
238.465	7.33568
240.272	7.17745
242.079	7.18196
243.885	6.93108
245.691	6.88215
247.497	7.21081
249.305	7.70456
251.11	7.40867
252.915	7.30145
254.719	8.10953
256.523	8.32591
258.327	8.45346
260.13	9.38509
261.933	9.78192
263.736	10.4396
265.538	9.99358
267.34	10.1305
269.141	8.7961
270.943	9.46113
272.744	8.76135
274.544	8.95153
276.344	8.05172
278.144	7.9263
279.944	8.12272
281.743	8.73317
283.542	9.3359
285.34	9.96081
287.138	9.34238
288.936	9.46654
290.733	8.9753
292.53	8.52763
294.327	7.49483
296.123	7.26852
297.919	7.72237
299.715	7.37792
301.508	9.59536
303.303	10.3718
305.098	9.66009
306.892	10.6584
308.686	10.7024
310.479	10.3926
312.273	11.3766
314.065	10.7493
315.858	10.7056
317.648	10.7125
319.44	12.1321
321.231	13.0989
323.022	13.1991
324.813	12.9135
326.604	13.9416
328.392	13.8446
330.181	13.5875
331.971	14.0546
333.76	14.1288
335.548	13.7283
337.335	13.5912
339.123	13.5679
340.91	13.5533
342.698	15.0788
344.483	14.4812
346.269	14.0824
348.055	13.2997
349.841	13.4639
351.625	12.2418
353.41	12.1611
355.195	11.3022
356.977	12.1348
358.762	11.5087
360.545	11.4125
362.329	10.5645
364.11	10.0173
365.893	9.80536
367.675	10.1166
369.455	9.51953
371.237	9.72756
373.017	9.41062
374.798	8.6578
376.578	8.06095
378.357	7.77533
380.137	7.00719
381.917	6.3604
383.694	5.59918
385.473	5.6852
387.249	4.76048
389.028	5.47566
390.806	6.16995
392.581	5.73675
394.359	5.56399
396.134	6.15856
397.91	5.8329
399.684	6.13081
401.46	5.32129
403.234	5.57159
405.009	6.21992
406.784	5.48742
408.557	5.7647
410.331	5.35179
412.103	5.01455
413.876	5.25991
415.647	5.10729
417.42	4.8681
419.191	4.78405
420.961	5.67745
422.733	5.57223
424.502	4.79669
426.273	5.4877
428.042	5.9513
429.812	5.28981
431.58	5.27527
433.35	4.16038
435.118	3.47095
436.885	3.68546
438.653	3.70753
440.42	4.03018
442.188	3.28932
443.954	2.79632
445.719	3.40805
447.486	2.10794
449.251	1.39075
451.015	1.9569
452.781	3.54732
454.545	4.57156
456.308	3.10984
458.073	3.85434
459.836	3.83143
461.598	3.47542
463.362	3.25345
465.124	2.42774
466.885	2.07326
468.648	2.71352
470.408	3.57443
472.169	4.77457
473.929	4.67676
475.69	4.59305
477.45	6.64652
479.208	6.60879
480.967	7.82989
482.727	8.62033
484.485	9.16978
486.243	10.2071
488	12.1568
489.759	12.849
491.515	13.6964
493.272	13.6734
495.028	13.1091
496.783	13.0647
498.54	14.2584
500.295	13.8508
502.05	14.9745
503.804	15.5402
505.558	16.1276
507.311	16.9367
509.064	17.3236
510.819	16.8434
512.572	16.9527
514.324	18.667
516.076	19.0648
517.827	18.2109
519.578	17.9416
521.329	17.8208
523.08	17.8561
524.83	17.1695
526.58	17.1389
528.329	17.355
530.08	15.8716
531.829	16.105
533.578	16.547
535.326	16.2523
537.074	16.9544
538.821	16.7933
540.568	16.5263
542.315	15.0127
544.062	13.4253
545.808	14.8855
547.554	13.787
549.299	12.6551
551.044	12.0552
552.789	10.359
554.533	10.3589
556.278	10.4478
558.019	9.82382
559.763	9.31346
561.506	8.44506
563.249	8.55674
564.991	9.2503
566.733	8.96153
568.475	8.07997
570.217	7.46028
571.958	7.33991
573.699	7.60503
575.439	8.38986
577.177	7.62876
578.917	6.49446
580.656	6.12192
582.396	5.32053
584.134	5.97874
585.873	6.89162
587.609	5.8693
589.347	6.56818
591.084	6.27873
592.822	6.41682
594.558	6.29808
596.295	6.01043
598.029	5.84787
599.765	6.96686
601.5	7.17764
603.235	6.77954
604.968	6.07521
606.703	6.22278
608.437	7.84227
610.171	7.66269
611.902	7.99236
613.635	8.73456
615.368	7.5768
617.099	7.81266
618.831	8.91235
620.563	8.65017
622.294	8.61974
624.024	8.38195
625.755	8.93104
627.485	9.24371
629.213	8.6916
630.943	7.68152
632.673	7.72702
634.4	6.83019
636.129	5.7999
637.855	5.62248
639.584	5.79584
641.312	6.78087
643.037	6.19781
644.764	6.25519
646.491	6.48098
648.216	6.75544
649.942	6.94595
651.666	7.3816
653.392	7.98133
655.115	8.55545
656.84	9.10482
658.563	9.35709
660.287	9.94235
662.011	9.89134
663.732	9.32172
665.456	8.86637
667.177	9.19829
668.899	8.9898
670.62	9.95805
672.342	9.73779
674.061	10.9816
675.781	12.8874
677.502	13.5867
679.22	13.7291
680.941	14.1353
682.659	15.9525
684.379	18.1938
686.096	19.6101
687.815	20.8655
689.532	21.9774
691.248	23.2259
692.966	24.8126
694.682	26.2872
696.4	26.8516
698.115	28.404
699.829	28.8439
701.546	29.8261
703.26	31.7132
704.974	32.4341
706.689	33.1195
708.402	35.4063
710.115	36.8402
711.83	37.7783
713.542	38.1211
715.254	39.9174
716.967	41.2584
718.679	42.9586
720.39	44.7904
722.102	44.6643
723.812	45.6425
725.522	47.526
727.232	47.5481
728.943	48.2849
730.652	49.3798
732.361	49.9842
734.069	50.173
735.779	50.5082
737.487	50.8078
739.194	52.1172
740.901	52.6097
742.608	51.3571
744.316	51.1654
746.022	51.904
747.728	51.7395
749.433	53.071
751.138	53.8163
752.843	54.4693
754.549	55.8382
756.254	56.9939
757.957	57.3883
759.661	58.5818
761.364	58.5047
763.067	58.387
764.769	59.3406
766.471	60.5418
768.175	60.9319
769.877	61.2509
771.578	61.3584
773.279	61.8904
774.98	62.5924
776.68	63.4483
778.38	63.846
780.079	63.9492
781.779	64.1228
783.478	64.4378
785.176	64.6258
786.875	65.6694
788.573	66.4269
790.27	67.1979
791.968	69.4132
793.665	71.2505
795.361	72.082
797.058	73.0256
798.754	75.177
800.45	75.8404
802.145	75.5093
803.84	76.092
805.535	76.1987
807.23	75.3428
808.922	76.4472
810.616	76.6537
812.309	76.2791
814.002	77.1375
815.695	76.9412
817.388	77.2303
819.08	76.8937
820.772	76.494
822.464	76.403
824.153	76.9522
825.844	75.6804
827.535	74.3651
829.225	74.7777
830.915	75.2968
832.605	74.1798
834.292	74.483
835.981	72.755
837.67	71.327
839.359	70.333
841.047	69.0458
842.732	68.6873
844.42	67.5563
846.107	65.9961
847.794	64.5471
849.479	63.1705
851.165	61.2927
852.851	59.7652
854.534	59.2937
856.22	57.8818
857.905	56.6702
859.589	55.6393
861.272	54.1599
862.956	53.2628
864.639	51.5983
866.321	51.0087
868.004	50.4861
869.687	50.2879
871.367	48.9365
873.049	49.0983
874.731	48.3263
876.41	49.3261
878.092	47.9714
879.771	47.8983
881.451	49.0236
883.131	48.8587
884.809	47.829
886.489	47.6649
888.166	47.1924
889.845	46.4595
891.522	45.5754
893.2	45.6981
894.878	44.9779
896.554	45.2825
898.231	44.8362
899.906	44.9434
901.583	44.1976
903.258	44.0602
904.934	44.3967
906.608	44.9085
908.283	44.9054
909.956	44.5191
911.631	44.3543
913.304	44.3159
914.976	44.5339
916.65	44.4875
918.322	44.292
919.995	44.0979
921.666	43.813
923.339	44.2839
925.009	44.9504
926.679	45.4722
928.351	44.2121
930.021	43.5951
931.692	42.9543
933.361	43.4545
935.029	43.7663
936.699	43.5015
938.367	43.4109
940.035	42.9084
941.704	43.4624
943.371	43.5792
945.038	43.7447
946.706	43.8872
948.372	43.48
950.038	43.2072
951.705	44.8043
953.37	45.5691
955.035	45.6022
956.7	47.531
958.366	47.421
960.03	48.9504
961.693	49.2009
963.357	48.9349
965.021	49.5802
966.684	48.3975
968.346	48.4334
970.008	47.9896
971.67	47.9658
973.334	47.3613
974.995	45.3745
976.655	45.1396
978.316	44.6563
979.976	44.3938
981.638	44.3796
983.297	44.7038
984.957	43.5677
986.616	43.2104
988.274	42.43
989.932	41.4411
991.59	39.3325
993.248	37.8492
994.907	35.1001
996.565	33.7351
998.221	31.0146
999.878	29.0166
1001.53	26.0712
1003.19	23.8055
1004.85	21.6922
1006.5	22.3198
1008.16	24.0164
1009.81	26.5719
1011.46	30.4481
1013.12	36.7921
1014.77	45.4133
1016.43	53.9665
1018.08	62.5458
1019.73	70.4507
1021.38	79.4154
1023.04	89.5175
1024.69	97.7899
1026.34	105.15
1027.99	112.299
1029.64	119.714
1031.29	125.229
1032.94	131.954
1034.59	138.772
1036.24	142.668
1037.89	147.05
1039.54	150.621
1041.19	153.165
1042.84	155.746
1044.48	156.545
1046.13	156.81
1047.78	157.592
1049.42	156.055
1051.07	153.715
1052.72	150.843
1054.36	148.208
1056.01	142.712
1057.66	138.141
1059.3	134.168
1060.94	129.379
1062.59	123.366
1064.23	116.628
1065.88	108.786
1067.52	100.566
1069.16	92.3684
1070.81	82.8228
1072.45	72.9447
1074.09	63.4231
1075.73	54.1628
1077.38	45.1584
1079.02	36.7518
1080.66	27.7748
1082.3	21.6533
1083.94	15.9059
1085.58	12.1558
1087.22	11.0892
1088.86	11.1763
1090.5	12.184
1092.13	13.3744
1093.77	15.2505
1095.41	17.7438
1097.05	19.7088
1098.68	20.1892
1100.32	20.9267
1101.96	21.3763
1103.6	22.6977
1105.23	23.6079
1106.87	22.4318
1108.5	22.3718
1110.14	22.796
1111.77	23.4539
1113.41	23.5522
1115.04	25.3181
1116.67	25.7187
1118.31	25.7213
1119.94	25.9117
1121.58	25.1403
1123.21	25.3589
1124.84	24.7109
1126.47	24.4564
1128.1	24.1488
1129.73	23.2322
1131.37	22.4304
1133	21.3633
1134.63	20.5939
1136.26	19.6761
1137.89	18.5603
1139.52	17.8061
1141.14	17.4195
1142.77	16.4264
1144.4	15.0428
1146.03	14.186
1147.66	13.7609
1149.29	13.46
1150.91	12.6164
1152.54	11.9596
1154.17	11.7656
1155.79	11.2771
1157.42	9.71474
1159.04	8.72563
1160.67	7.51619
1162.3	7.19771
1163.92	6.61128
1165.55	6.55167
1167.17	5.44176
1168.79	5.7306
1170.42	5.92353
1172.04	6.35619
1173.66	6.0545
1175.28	6.27232
1176.91	6.06019
1178.53	6.50827
1180.15	6.82629
1181.77	7.71247
1183.39	8.50064
1185.01	9.18688
1186.63	9.18947
1188.25	9.97909
1189.87	11.4863
1191.49	12.6058
1193.11	13.5883
1194.73	13.6756
1196.35	14.2077
1197.97	14.2377
1199.59	13.9564
1201.2	15.2034
1202.82	16.2234
1204.44	17.9179
1206.05	17.965
1207.67	18.3006
1209.29	19.2367
1210.9	20.1903
1212.52	21.2454
1214.13	22.4892
1215.75	23.7678
1217.36	25.3317
1218.97	27.0088
1220.59	28.4416
1222.2	31.2361
1223.82	32.2022
1225.43	35.0687
1227.04	37.3728
1228.65	39.1016
1230.26	41.0138
1231.88	42.6846
1233.49	44.187
1235.1	45.1213
1236.71	46.1246
1238.32	47.2666
1239.93	48.9559
1241.54	50.9768
1243.15	51.9884
1244.76	52.9825
1246.37	54.0773
1247.97	54.8909
1249.58	56.4985
1251.19	57.1
1252.8	57.652
1254.41	57.569
1256.01	58.2138
1257.62	58.9653
1259.23	60.1539
1260.83	60.3441
1262.44	60.6031
1264.04	60.3679
1265.65	61.5097
1267.25	61.27
1268.86	62.1935
1270.46	61.8324
1272.07	61.3712
1273.67	61.2513
1275.27	61.686
1276.88	62.5665
1278.48	63.0242
1280.08	64.2217
1281.68	65.6324
1283.28	65.6446
1284.89	65.7379
1286.49	64.3067
1288.09	64.8741
1289.69	65.2114
1291.29	65.0125
1292.89	65.348
1294.49	65.2477
1296.09	65.7098
1297.69	66.4903
1299.29	67.3981
1300.88	67.7234
1302.48	67.9911
1304.08	67.6833
1305.68	69.4254
1307.27	69.9641
1308.87	70.383
1310.47	70.9541
1312.06	71.6881
1313.66	72.3728
1315.25	73.0688
1316.85	72.8682
1318.44	74.0809
1320.04	74.6507
1321.63	74.1712
1323.23	73.5659
1324.82	73.4728
1326.41	73.2062
1328.01	74.2943
1329.6	74.284
1331.19	74.1551
1332.78	73.4364
1334.38	72.6787
1335.97	72.6784
1337.56	72.045
1339.15	70.603
1340.74	70.036
1342.33	69.4033
1343.92	69.3759
1345.51	69.0197
1347.1	67.7392
1348.69	67.1749
1350.28	65.6938
1351.87	64.8719
1353.46	64.0676
1355.04	63.6776
1356.63	62.1196
1358.22	61.4028
1359.81	59.3822
1361.39	57.2984
1362.98	55.7573
1364.57	54.0984
1366.15	51.4396
1367.74	50.5014
1369.32	48.7514
1370.91	47.7389
1372.49	46.5827
1374.07	45.0647
1375.66	43.9306
1377.24	43.6862
1378.83	43.2269
1380.41	42.3584
1381.99	41.7201
1383.57	41.9212
1385.16	42.5762
1386.74	42.3611
1388.32	41.9485
1389.9	41.2567
1391.48	41.3648
1393.06	41.7117
1394.64	41.829
1396.22	41.9022
1397.8	43.4171
1399.38	42.9753
1400.96	43.0727
1402.54	44.4934
1404.12	46.4609
1405.7	47.6824
1407.28	49.5247
1408.85	49.5517
1410.43	50.6972
1412.01	51.8508
1413.58	53.3549
1415.16	55.4524
1416.74	57.02
1418.31	58.4175
1419.89	61.1174
1421.46	64.123
1423.04	66.2584
1424.61	67.951
1426.19	70.7143
1427.76	71.534
1429.33	73.6238
1430.91	76.2041
1432.48	78.542
1434.05	80.6513
1435.63	81.7952
1437.2	84.2419
1438.77	84.5749
1440.34	86.067
1441.91	87.3106
1443.49	86.9905
1445.05	86.92
1446.63	86.6465
1448.2	86.1479
1449.77	85.6956
1451.34	85.389
1452.91	84.058
1454.47	83.4693
1456.04	83.5035
1457.61	82.2079
1459.18	81.0586
1460.75	79.8831
1462.31	78.9117
1463.88	77.927
1465.45	76.707
1467.01	74.7975
1468.58	72.4833
1470.15	71.0503
1471.71	69.6743
1473.28	67.7317
1474.84	65.6282
1476.41	64.4478
1477.97	62.2302
1479.54	60.8493
1481.1	59.3527
1482.66	58.3485
1484.23	56.5734
1485.79	55.726
1487.35	54.0633
1488.91	52.9276
1490.48	51.7837
1492.04	50.7698
1493.6	50.0076
1495.16	48.4622
1496.72	47.8237
1498.28	47.5321
1499.84	46.8226
1501.4	45.5169
1502.96	44.7559
1504.52	44.3741
1506.08	42.4496
1507.64	42.0729
1509.2	41.9332
1510.76	41.7337
1512.31	41.5276
1513.87	40.6519
1515.43	40.2596
1516.99	38.8393
1518.54	38.8254
1520.1	38.6176
1521.66	37.6435
1523.21	36.7151
1524.77	36.0064
1526.32	36.122
1527.88	36.1704
1529.43	36.0981
1530.99	36.4365
1532.54	37.1851
1534.09	37.5489
1535.65	37.8344
1537.2	37.4925
1538.75	37.3017
1540.31	37.5316
1541.86	38.0739
1543.41	38.0435
1544.96	37.5919
1546.51	37.9579
1548.06	38.5615
1549.62	38.7897
1551.17	38.8742
1552.72	38.945
1554.27	39.3805
1555.82	38.5187
1557.36	38.4432
1558.91	39.7758
1560.46	41.376
1562.01	41.2783
1563.56	41.4439
1565.11	41.7671
1566.66	42.0218
1568.2	43.24
1569.75	43.8462
1571.3	43.6754
1572.84	44.7191
1574.39	46.4716
1575.93	47.22
1577.48	47.9178
1579.02	48.8726
1580.57	49.8753
1582.11	50.381
1583.66	50.9117
1585.2	51.7245
1586.75	52.4556
1588.29	52.5987
1589.83	53.8492
1591.38	54.073
1592.92	55.2363
1594.46	56.1364
1596	56.9524
1597.54	57.3671
1599.09	57.497
1600.63	57.1491
1602.17	57.5801
1603.71	57.3754
1605.25	57.4567
1606.79	57.2935
1608.33	57.6933
1609.87	57.5823
1611.41	57.2987
1612.95	57.4587
1614.48	56.831
1616.02	57.7258
1617.56	58.0739
1619.1	58.4055
1620.64	58.8756
1622.17	59.5652
1623.71	59.8118
1625.25	59.9356
1626.78	59.6699
1628.32	59.9074
1629.86	60.6947
1631.39	60.7993
1632.92	61.3322
1634.46	63.6431
1635.99	65.6709
1637.53	65.878
1639.06	66.1752
1640.59	67.4942
1642.13	68.4142
1643.66	69.4622
1645.19	70.549
1646.73	71.1337
1648.26	71.6689
1649.79	73.3218
1651.32	73.5705
1652.85	72.8017
1654.38	73.1884
1655.92	73.0762
1657.45	72.5955
1658.98	72.0961
1660.51	71.5263
1662.04	71.0207
1663.57	70.4967
1665.09	70.0934
1666.62	70.2126
1668.15	68.896
1669.68	67.8545
1671.21	66.7942
1672.73	65.1175
1674.26	63.3777
1675.79	61.7348
1677.31	60.2593
1678.84	58.5793
1680.37	57.2198
1681.89	56.3095
1683.42	54.6278
1684.94	52.912
1686.47	51.1802
1687.99	49.3826
1689.52	47.7763
1691.04	45.9723
1692.57	45.2984
1694.09	43.1033
1695.61	41.0117
1697.14	39.0013
1698.66	38.1087
1700.18	36.8792
1701.7	35.2527
1703.22	33.4615
1704.75	32.5378
1706.27	31.916
1707.79	30.5187
1709.31	29.2353
1710.83	27.947
1712.35	25.952
1713.87	24.3353
1715.39	22.8688
1716.91	21.5739
1718.43	20.2598
1719.95	19.4869
1721.46	18.526
1722.98	17.033
1724.5	16.1532
1726.02	15.9758
1727.53	14.6534
1729.05	13.9688
1730.57	14.1115
1732.08	12.6911
1733.6	12.0252
1735.12	11.3672
1736.63	9.87138
1738.15	9.21347
1739.66	8.53697
1741.18	8.48036
1742.69	8.50232
1744.21	8.10204
1745.72	7.58521
1747.23	7.93567
1748.74	7.01565
1750.26	7.25777
1751.77	7.41843
1753.28	7.457
1754.8	7.29436
1756.31	7.87635
1757.82	8.21032
1759.33	8.09616
1760.84	7.96367
1762.35	8.50977
1763.86	8.75116
1765.37	8.73608
1766.88	8.6385
1768.39	8.87092
1769.9	8.60799
1771.41	9.22823
1772.92	9.62063
1774.43	10.4863
1775.93	10.345
1777.44	9.71244
1778.95	9.85233
1780.46	9.32603
1781.96	9.09214
1783.47	8.52275
1784.98	7.89012
1786.48	8.12522
1787.99	8.31886
1789.49	8.62608
1791	8.85209
1792.5	9.21718
1794.01	9.50597
1795.51	9.3344
1797.02	9.04227
1798.52	8.73258
1800.03	8.95163
1801.53	8.8889
1803.03	8.08567
1804.53	7.27212
1806.04	6.9514
1807.54	5.92124
1809.04	5.68992
1810.54	5.11998
1812.04	4.54225
1813.54	4.87215
1815.05	5.09902
1816.55	5.7144
1818.05	5.02329
1819.55	4.78798
1821.05	4.59543
1822.55	4.54422
1824.05	3.85392
1825.54	3.86586
1827.04	3.9224
1828.54	3.92294
1830.04	3.9153
1831.54	3.72705
1833.03	3.69056
1834.53	3.54324
1836.03	3.51947
1837.52	3.70204
1839.02	4.01675
1840.52	3.97
1842.01	4.36005
1843.51	4.52161
1845	4.62139
1846.5	4.53613
1847.99	4.5059
1849.49	4.77306
1850.98	5.24134
1852.47	5.68984
1853.97	5.76989
1855.46	5.75958
1856.95	6.00905
1858.45	5.53107
1859.94	5.43764
1861.43	5.98459
1862.92	5.97895
1864.41	6.78167
1865.91	6.49703
1867.4	6.26922
1868.89	6.2141
1870.38	6.3929
1871.87	6.38518
1873.36	6.1441
1874.85	5.97934
1876.34	5.94323
1877.83	5.38254
1879.31	4.91301
1880.8	5.29805
1882.29	5.36485
1882.56	5.44867
1884.05	5.50271
1885.54	5.16262
1887.04	5.75217
1888.53	5.80767
1890.03	5.45719
1891.52	4.55212
1893.01	4.60475
1894.5	4.38381
1895.99	4.28022
1897.49	4.08215
1898.98	4.10279
1900.47	4.27898
1901.96	4.70655
1903.45	5.05402
1904.94	5.21471
1906.43	5.61981
1907.92	5.93152
1909.41	6.15052
1910.9	6.33992
1912.39	6.69525
1913.88	6.60822
1915.37	7.12746
1916.86	7.07454
1918.35	7.62921
1919.84	7.85409
1921.32	8.35843
1922.81	9.093
1924.3	9.19068
1925.78	9.18245
1927.27	8.81886
1928.76	7.80567
1930.24	7.93632
1931.73	7.91351
1933.21	8.13758
1934.7	8.12805
1936.18	8.03588
1937.67	7.65469
1939.15	6.7978
1940.64	6.78358
1942.12	6.36895
1943.6	6.55511
1945.09	5.91029
1946.57	5.63708
1948.05	5.34023
1949.54	4.78279
1951.02	3.86507
1952.5	3.15431
1953.98	3.2428
1955.46	2.89747
1956.94	2.03702
1958.42	1.51088
1959.91	0.846871
1961.39	1.06984
1962.87	0.586459
1964.34	0.202893
1965.82	0.147856
1967.3	0.700075
1968.78	1.07372
1970.26	1.37026
1971.74	1.16721
1973.22	1.20167
1974.7	1.69507
1976.17	1.90944
1977.65	1.31155
1979.13	1.31013
1980.6	1.72304
1982.08	2.0729
1983.56	2.16086
1985.03	2.88126
1986.51	3.36708
1987.98	3.84716
1989.46	4.79995
1990.93	5.70923
1992.41	6.5277
1993.88	7.30262
1995.36	8.09732
1996.83	8.66786
1998.3	8.50096
1999.78	9.65297
2001.25	10.157
2002.72	9.9199
2004.2	10.7793
2005.67	10.5704
2007.14	10.39
2008.61	11.0607
2010.08	11.5366
2011.55	11.7236
2013.02	12.2197
2014.49	12.1447
2015.97	12.4876
2017.43	12.1397
2018.9	11.6791
2020.37	11.3791
2021.84	11.4009
2023.31	11.199
2024.78	11.255
2026.25	11.2846
2027.72	11.851
2029.19	11.8397
2030.65	11.8698
2032.12	12.4438
2033.59	12.3305
2035.05	12.6101
2036.52	12.6709
2037.98	12.5194
2039.45	12.4406
2040.92	12.5747
2042.38	11.7082
2043.85	11.1973
2045.31	11.0049
2046.78	11.0648
2048.24	10.9645
2049.71	10.936
2051.17	11.1609
2052.63	11.5494
2054.1	12.089
2055.56	12.0555
2057.02	12.6963
2058.48	13.4193
2059.95	13.032
2061.41	13.8791
2062.87	14.8502
2064.33	15.3943
2065.79	15.3746
2067.25	15.9617
2068.71	16.3709
2070.17	16.9556
2071.63	17.6414
2073.09	18.8249
2074.55	18.9812
2076.01	18.9561
2077.47	19.397
2078.93	19.9355
2080.39	20.5978
2081.85	21.8552
2083.3	22.255
2084.76	22.9942
2086.22	23.6968
2087.68	24.0992
2089.13	25.1438
2090.59	25.7157
2092.05	26.8148
2093.5	28.1966
2094.96	29.4561
2096.41	30.354
2097.87	31.4103
2099.32	31.9662
2100.78	33.0849
2102.23	33.8306
2103.69	34.3015
2105.14	35.1125
2106.59	35.5496
2108.05	35.857
2109.5	36.1267
2110.95	36.6398
2112.41	37.3609
2113.86	37.9263
2115.31	39.1553
2116.76	40.3675
2118.21	41.9449
2119.67	43.1573
2121.12	44.288
2122.57	45.9901
2124.02	47.3285
2125.47	48.5518
2126.92	49.7806
2128.37	51.2508
2129.82	53.3279
2131.27	55.0222
2132.71	56.7646
2134.16	59.066
2135.61	60.9832
2137.06	62.812
2138.51	64.5284
