#Acq. time (s)=	45
#Accumulations=	2
#Range (cm-¹)=	200...3150
#Windows=	2
#Auto scanning=	Off
#Autofocus=	Off
#Macrospot=	Off
#AutoExposure=	Off
#Spike filter=	Multiple accum.
#Delay time (s)=	0
#Binning=	1
#Readout mode=	Signal
#DeNoise=	Off
#ICS correction=	On
#Dark correction=	Off
#Inst. Process=	Off
#Detector Gain=	Best Dynamic Range
#Detector ADC=	20 kHz       
#Detector temperature (°C)=	-69.85
#Instrument=	LabRAM HR Evol
#Detector=	Synapse
#Objective=	x100
#Grating=	600 gr/mm
#ND Filter=	100%
#Laser (nm)=	532 
#Hole=	100.021
#Range=	Auto
#Laser Pol.=	No
#Raman. Pol.=	No
#Laser Pol. (°)=	-0.0007625
#Raman Pol. (°)=	89.9995
#Collection=	Microscope
#StageXY=	Marzhauser
#StageZ=	Marzhauser
#X (µm)=	-1068.4
#Y (µm)=	686.6
#Z (µm)=	584.55
#Full time(mm:ss)=	3:19
#Project=	
#Sample=	
#Site=	
#Title=	Mb_40_y_13_2x_45s_532 nm_x100_100%_600 gr_mm
#Remark=	
#Date=	19.07.2022 09:57
#Acquired=	19.07.2022 09:57:07
#Base:Fit=	10.08.2022 10:52:48
#Base:Sub=	10.08.2022 10:52:53
#Filter:Polynom=	16.08.2022 10:09:04
#AxisType[0]=Intens
#AxisUnit[0]=Cnt
#AxisType[1]=Spectr
#AxisUnit[1]=1/cm
200.423	9.35762
202.238	10.2955
204.052	11.3752
205.868	12.1154
207.682	12.9281
209.495	13.6811
211.308	13.7123
213.12	13.8258
214.935	13.0499
216.746	13.0089
218.558	12.0995
220.369	11.6909
222.18	10.9173
223.992	10.1026
225.802	9.19431
227.612	7.68172
229.421	8.24004
231.23	7.79647
233.039	6.71518
234.849	6.82435
236.657	5.59023
238.465	5.99365
240.272	6.2854
242.079	6.67816
243.885	6.30226
245.691	6.47253
247.497	5.82633
249.305	4.99787
251.11	3.90629
252.915	3.9908
254.719	3.80943
256.523	4.66156
258.327	5.00967
260.13	5.76407
261.933	6.83729
263.736	7.93237
265.538	8.58879
267.34	8.62315
269.141	10.2967
270.943	10.6893
272.744	9.81066
274.544	10.1326
276.344	9.44512
278.144	9.63787
279.944	10.4493
281.743	11.29
283.542	11.6313
285.34	12.5578
287.138	11.8396
288.936	11.4441
290.733	11.446
292.53	12.124
294.327	11.5195
296.123	11.1673
297.919	11.1085
299.715	10.0119
301.508	9.5341
303.303	9.44771
305.098	9.19274
306.892	9.49868
308.686	8.39605
310.479	8.40752
312.273	8.55792
314.065	8.9145
315.858	9.19318
317.648	9.52025
319.44	10.1899
321.231	9.67317
323.022	9.40726
324.813	10.4994
326.604	10.2994
328.392	11.0023
330.181	11.0038
331.971	10.937
333.76	10.7999
335.548	11.053
337.335	10.874
339.123	10.7906
340.91	10.9958
342.698	11.6214
344.483	11.2425
346.269	11.8208
348.055	11.4339
349.841	11.9266
351.625	12.9289
353.41	13.1941
355.195	13.1311
356.977	12.1837
358.762	11.3432
360.545	10.8376
362.329	10.2373
364.11	10.2169
365.893	9.68032
367.675	9.3992
369.455	9.20882
371.237	7.78267
373.017	6.88278
374.798	5.68052
376.578	5.09182
378.357	4.57671
380.137	4.74719
381.917	4.02923
383.694	3.48553
385.473	3.47966
387.249	3.48914
389.028	2.92507
390.806	4.11301
392.581	4.88558
394.359	5.29389
396.134	4.99089
397.91	5.11599
399.684	6.60917
401.46	7.50875
403.234	7.29728
405.009	6.83662
406.784	6.76535
408.557	7.05341
410.331	7.43405
412.103	7.30092
413.876	7.57907
415.647	6.72409
417.42	7.37215
419.191	7.70727
420.961	7.58422
422.733	7.75447
424.502	7.04026
426.273	7.30346
428.042	7.04394
429.812	7.66336
431.58	8.05507
433.35	8.42829
435.118	9.18703
436.885	8.89679
438.653	9.34911
440.42	9.07733
442.188	8.14525
443.954	7.02635
445.719	6.94738
447.486	7.78458
449.251	7.9055
451.015	7.86574
452.781	7.54154
454.545	7.03793
456.308	5.8703
458.073	5.56428
459.836	5.04317
461.598	5.53929
463.362	5.66797
465.124	6.12041
466.885	7.31261
468.648	7.26218
470.408	7.24353
472.169	7.03519
473.929	6.95744
475.69	7.72975
477.45	8.40766
479.208	9.29722
480.967	9.24703
482.727	10.3765
484.485	10.832
486.243	11.401
488	11.6641
489.759	11.9971
491.515	12.2121
493.272	13.6836
495.028	14.183
496.783	15.1885
498.54	16.0888
500.295	16.4207
502.05	17.7199
503.804	18.2919
505.558	18.9301
507.311	18.5987
509.064	19.0756
510.819	19.5825
512.572	20.2401
514.324	21.1147
516.076	22.2628
517.827	23.2364
519.578	23.2168
521.329	23.6989
523.08	23.8701
524.83	24.116
526.58	24.3125
528.329	24.1105
530.08	24.8322
531.829	25.2846
533.578	26.1574
535.326	26.1372
537.074	24.8797
538.821	23.9987
540.568	22.3097
542.315	21.2115
544.062	20.0356
545.808	19.4149
547.554	18.9505
549.299	17.947
551.044	17.6326
552.789	16.846
554.533	17.1269
556.278	14.4647
558.019	13.5439
559.763	12.2597
561.506	11.8244
563.249	11.2964
564.991	11.1678
566.733	11.463
568.475	11.4667
570.217	10.5829
571.958	8.89384
573.699	8.02776
575.439	8.69837
577.177	8.95533
578.917	8.55956
580.656	8.65588
582.396	8.28491
584.134	8.38246
585.873	7.81297
587.609	7.42256
589.347	7.29493
591.084	6.93835
592.822	6.6095
594.558	7.51722
596.295	8.60711
598.029	8.95888
599.765	9.61013
601.5	9.67752
603.235	9.77847
604.968	9.3996
606.703	9.86148
608.437	10.6149
610.171	10.9181
611.902	11.4077
613.635	11.2825
615.368	11.7888
617.099	12.549
618.831	12.4584
620.563	12.1307
622.294	11.0429
624.024	9.76072
625.755	9.33775
627.485	9.5256
629.213	9.87486
630.943	9.44454
632.673	9.86575
634.4	10.5741
636.129	9.90874
637.855	9.78298
639.584	10.3376
641.312	10.8337
643.037	9.83618
644.764	10.7504
646.491	10.9902
648.216	11.0628
649.942	11.7545
651.666	12.9161
653.392	13.0039
655.115	12.4169
656.84	13.4051
658.563	13.8832
660.287	14.7033
662.011	15.6645
663.732	16.0284
665.456	16.4702
667.177	17.1956
668.899	17.8054
670.62	18.159
672.342	19.0525
674.061	20.9127
675.781	21.9811
677.502	23.9018
679.22	25.0972
680.941	26.5384
682.659	26.3931
684.379	26.3626
686.096	27.3559
687.815	27.9625
689.532	28.848
691.248	30.1904
692.966	30.6726
694.682	31.4763
696.4	31.6596
698.115	33.0137
699.829	33.9631
701.546	34.8177
703.26	35.329
704.974	35.6296
706.689	35.8013
708.402	36.7556
710.115	37.8117
711.83	38.9549
713.542	40.7233
715.254	41.2428
716.967	41.822
718.679	43.0963
720.39	42.9418
722.102	43.2969
723.812	43.963
725.522	44.5603
727.232	44.4075
728.943	44.8852
730.652	46.0872
732.361	46.531
734.069	47.3968
735.779	49.8627
737.487	49.9349
739.194	49.651
740.901	50.4741
742.608	51.7253
744.316	51.087
746.022	52.5903
747.728	53.3814
749.433	54.7911
751.138	55.6827
752.843	56.8378
754.549	57.8005
756.254	58.6448
757.957	59.9128
759.661	61.2318
761.364	61.2243
763.067	61.5231
764.769	62.3173
766.471	62.5853
768.175	63.0156
769.877	64.4244
771.578	66.0743
773.279	67.2513
774.98	68.6502
776.68	69.401
778.38	70.3135
780.079	72.008
781.779	72.8779
783.478	74.2542
785.176	75.1604
786.875	76.1326
788.573	77.1564
790.27	77.8857
791.968	78.8346
793.665	79.0835
795.361	79.4431
797.058	80.2934
798.754	80.651
800.45	80.3136
802.145	80.1098
803.84	79.9049
805.535	79.5209
807.23	79.7836
808.922	79.8799
810.616	80.5255
812.309	80.5905
814.002	81.2648
815.695	80.5594
817.388	79.6996
819.08	79.769
820.772	78.2888
822.464	76.5036
824.153	75.9081
825.844	75.534
827.535	74.657
829.225	73.7689
830.915	73.864
832.605	72.5916
834.292	71.9422
835.981	71.2779
837.67	69.3963
839.359	67.9453
841.047	66.8937
842.732	65.575
844.42	64.5148
846.107	64.4405
847.794	63.7678
849.479	63.7144
851.165	62.9812
852.851	63.1933
854.534	63.3668
856.22	63.5618
857.905	63.1459
859.589	62.6534
861.272	61.4195
862.956	60.0781
864.639	58.8845
866.321	58.3963
868.004	58.2864
869.687	58.0651
871.367	57.1662
873.049	57.2028
874.731	56.1323
876.41	56.7373
878.092	56.4881
879.771	56.6942
881.451	55.9031
883.131	55.4425
884.809	55.2162
886.489	55.3703
888.166	56.0569
889.845	55.8187
891.522	55.5546
893.2	55.7163
894.878	55.6292
896.554	54.9508
898.231	54.7616
899.906	54.3818
901.583	54.2808
903.258	54.6686
904.934	54.2884
906.608	55.0521
908.283	54.3353
909.956	53.9409
911.631	53.6706
913.304	53.4788
914.976	53.3201
916.65	52.2652
918.322	52.8212
919.995	52.506
921.666	51.9799
923.339	51.8779
925.009	52.0823
926.679	52.252
928.351	52.6151
930.021	52.1358
931.692	50.5788
933.361	51.2199
935.029	50.5734
936.699	50.1008
938.367	49.5252
940.035	49.3773
941.704	48.5994
943.371	47.5632
945.038	46.5234
946.706	46.0264
948.372	45.2946
950.038	44.5099
951.705	44.2966
953.37	43.4465
955.035	42.9853
956.7	42.3758
958.366	40.6834
960.03	40.2579
961.693	39.4021
963.357	38.0231
965.021	37.8273
966.684	37.9847
968.346	38.157
970.008	38.6651
971.67	38.2218
973.334	38.4518
974.995	38.8644
976.655	38.4988
978.316	38.8922
979.976	38.5945
981.638	38.2897
983.297	37.9528
984.957	37.5349
986.616	37.4721
988.274	37.0108
989.932	36.2141
991.59	35.055
993.248	34.4537
994.907	33.7361
996.565	32.6055
998.221	31.4504
999.878	30.0473
1001.53	30.22
1003.19	29.2621
1004.85	29.1268
1006.5	28.6921
1008.16	30.3413
1009.81	33.2651
1011.46	36.2381
1013.12	39.9426
1014.77	43.9799
1016.43	49.0675
1018.08	53.3861
1019.73	58.9869
1021.38	64.7296
1023.04	69.7147
1024.69	74.0633
1026.34	78.6338
1027.99	81.7701
1029.64	84.4333
1031.29	87.2574
1032.94	90.5098
1034.59	93.8776
1036.24	95.2009
1037.89	96.6534
1039.54	97.3712
1041.19	98.3696
1042.84	99.7995
1044.48	100.187
1046.13	99.3672
1047.78	100.427
1049.42	99.9299
1051.07	99.0908
1052.72	97.1031
1054.36	95.3
1056.01	93.0469
1057.66	89.3884
1059.3	86.3839
1060.94	83.8812
1062.59	80.1832
1064.23	75.9363
1065.88	71.1562
1067.52	66.7886
1069.16	61.1708
1070.81	55.1785
1072.45	49.6728
1074.09	44.0323
1075.73	38.1507
1077.38	33.2669
1079.02	28.8012
1080.66	25.3847
1082.3	22.1514
1083.94	21.1286
1085.58	20.1245
1087.22	18.7584
1088.86	19.5416
1090.5	21.1569
1092.13	22.2381
1093.77	22.8616
1095.41	24.6897
1097.05	25.2631
1098.68	26.2416
1100.32	26.6344
1101.96	27.7883
1103.6	28.295
1105.23	28.2146
1106.87	27.783
1108.5	26.6693
1110.14	25.8581
1111.77	26.3806
1113.41	27.0754
1115.04	26.4819
1116.67	25.984
1118.31	25.3268
1119.94	24.4716
1121.58	23.7348
1123.21	23.0972
1124.84	22.2852
1126.47	20.1616
1128.1	20.4537
1129.73	20.3965
1131.37	19.5398
1133	18.1315
1134.63	16.9419
1136.26	17.0281
1137.89	15.9738
1139.52	14.9325
1141.14	14.7588
1142.77	14.6241
1144.4	13.9295
1146.03	12.739
1147.66	12.7787
1149.29	12.3838
1150.91	11.0536
1152.54	10.3588
1154.17	11.1764
1155.79	10.5314
1157.42	10.6818
1159.04	11.0825
1160.67	10.0274
1162.3	9.72257
1163.92	9.40845
1165.55	9.22263
1167.17	8.03725
1168.79	7.22199
1170.42	7.69453
1172.04	7.4152
1173.66	7.93484
1175.28	8.42558
1176.91	8.28214
1178.53	6.77448
1180.15	6.40435
1181.77	6.54942
1183.39	6.38752
1185.01	6.33727
1186.63	6.93876
1188.25	6.72824
1189.87	7.72088
1191.49	8.54272
1193.11	8.91335
1194.73	9.4251
1196.35	9.3972
1197.97	9.9417
1199.59	10.4397
1201.2	11.165
1202.82	12.4074
1204.44	13.388
1206.05	14.4118
1207.67	15.2508
1209.29	17.0871
1210.9	17.1809
1212.52	18.5857
1214.13	18.5905
1215.75	20.5827
1217.36	22.1679
1218.97	23.1419
1220.59	23.919
1222.2	25.7405
1223.82	27.5725
1225.43	28.5304
1227.04	29.4009
1228.65	30.6668
1230.26	31.2558
1231.88	31.9493
1233.49	32.7261
1235.1	33.3366
1236.71	33.1567
1238.32	33.9512
1239.93	34.0765
1241.54	34.0243
1243.15	33.8607
1244.76	34.2646
1246.37	35.3129
1247.97	36.0522
1249.58	37.085
1251.19	36.7942
1252.8	37.7507
1254.41	38.2061
1256.01	38.0662
1257.62	38.2211
1259.23	38.3883
1260.83	39.9762
1262.44	41.6226
1264.04	42.6656
1265.65	44.7926
1267.25	44.8001
1268.86	45.3791
1270.46	46.9202
1272.07	47.7855
1273.67	48.3857
1275.27	49.1517
1276.88	49.8902
1278.48	51.2763
1280.08	52.2302
1281.68	54.1718
1283.28	54.628
1284.89	55.2553
1286.49	55.739
1288.09	56.914
1289.69	57.0287
1291.29	57.5985
1292.89	58.9165
1294.49	59.0729
1296.09	60.2445
1297.69	60.9511
1299.29	60.4734
1300.88	60.9385
1302.48	62.1845
1304.08	62.8109
1305.68	62.8624
1307.27	62.8617
1308.87	62.5293
1310.47	62.2721
1312.06	62.3894
1313.66	62.7547
1315.25	62.086
1316.85	61.6724
1318.44	60.5668
1320.04	59.5757
1321.63	59.4005
1323.23	59.0275
1324.82	59.3468
1326.41	58.4919
1328.01	56.6621
1329.6	55.7604
1331.19	53.8982
1332.78	54.9152
1334.38	54.3508
1335.97	53.9937
1337.56	53.4376
1339.15	52.7234
1340.74	52.6742
1342.33	51.8193
1343.92	51.0866
1345.51	49.967
1347.1	48.8962
1348.69	48.5855
1350.28	47.3444
1351.87	46.4311
1353.46	45.3563
1355.04	44.4964
1356.63	43.8911
1358.22	43.4592
1359.81	42.3414
1361.39	41.9082
1362.98	40.866
1364.57	40.623
1366.15	39.8127
1367.74	38.4179
1369.32	37.2998
1370.91	37.0262
1372.49	36.9925
1374.07	36.5429
1375.66	36.0242
1377.24	35.9755
1378.83	34.6309
1380.41	35.0333
1381.99	35.0222
1383.57	34.5716
1385.16	34.3591
1386.74	34.1672
1388.32	34.1127
1389.9	35.2131
1391.48	35.2771
1393.06	34.1068
1394.64	32.5049
1396.22	33.1753
1397.8	33.0499
1399.38	33.9157
1400.96	33.8643
1402.54	32.7516
1404.12	32.9469
1405.7	33.3356
1407.28	34.3429
1408.85	35.7132
1410.43	36.3848
1412.01	38.7784
1413.58	38.8808
1415.16	40.9058
1416.74	42.5428
1418.31	44.0351
1419.89	45.9114
1421.46	47.8913
1423.04	49.9251
1424.61	50.9598
1426.19	52.2101
1427.76	53.4141
1429.33	55.0416
1430.91	56.5485
1432.48	57.9028
1434.05	58.2595
1435.63	60.0899
1437.2	61.3429
1438.77	62.5567
1440.34	63.3445
1441.91	63.939
1443.49	64.1723
1445.05	64.3215
1446.63	64.9613
1448.2	65.7357
1449.77	66.0611
1451.34	65.7701
1452.91	64.629
1454.47	63.9388
1456.04	63.4092
1457.61	62.0278
1459.18	61.2404
1460.75	60.0049
1462.31	58.2312
1463.88	57.0412
1465.45	55.5343
1467.01	54.2686
1468.58	52.6117
1470.15	49.5842
1471.71	48.0708
1473.28	45.9406
1474.84	44.739
1476.41	41.8568
1477.97	41.0176
1479.54	38.9206
1481.1	37.4297
1482.66	36.6467
1484.23	35.4271
1485.79	34.301
1487.35	33.287
1488.91	31.7652
1490.48	31.1038
1492.04	29.751
1493.6	29.3527
1495.16	27.7266
1496.72	26.8707
1498.28	25.7522
1499.84	24.4382
1501.4	22.8772
1502.96	21.539
1504.52	21.2925
1506.08	21.3505
1507.64	20.2747
1509.2	20.1105
1510.76	19.9818
1512.31	19.4433
1513.87	19.6696
1515.43	19.21
1516.99	19.5081
1518.54	19.3536
1520.1	20.3479
1521.66	20.6477
1523.21	20.9517
1524.77	21.2713
1526.32	21.1611
1527.88	20.9135
1529.43	20.5938
1530.99	21.4386
1532.54	22.0604
1534.09	22.0845
1535.65	22.6688
1537.2	24.1646
1538.75	25.3476
1540.31	26.6546
1541.86	28.3994
1543.41	29.2448
1544.96	30.1254
1546.51	30.4575
1548.06	31.7455
1549.62	33.574
1551.17	33.5019
1552.72	35.3611
1554.27	36.1653
1555.82	38.4564
1557.36	38.5024
1558.91	38.8109
1560.46	39.3237
1562.01	39.9118
1563.56	39.7747
1565.11	40.0879
1566.66	39.7584
1568.2	40.0076
1569.75	40.4572
1571.3	40.874
1572.84	41.2118
1574.39	40.8944
1575.93	40.9818
1577.48	41.0848
1579.02	41.5791
1580.57	43.0009
1582.11	43.1312
1583.66	43.5598
1585.2	43.9188
1586.75	44.6217
1588.29	44.9907
1589.83	44.7435
1591.38	44.7013
1592.92	45.2109
1594.46	45.9034
1596	45.873
1597.54	45.4311
1599.09	44.5356
1600.63	44.3813
1602.17	44.1674
1603.71	44.0886
1605.25	44.3693
1606.79	44.4049
1608.33	43.9307
1609.87	43.0815
1611.41	43.8038
1612.95	44.6099
1614.48	45.1935
1616.02	44.4835
1617.56	44.3641
1619.1	44.2414
1620.64	43.4032
1622.17	43.9284
1623.71	44.3178
1625.25	44.7738
1626.78	44.6454
1628.32	43.6755
1629.86	44.3299
1631.39	43.9029
1632.92	44.2866
1634.46	43.5743
1635.99	43.2924
1637.53	43.6825
1639.06	44.1514
1640.59	43.9268
1642.13	45.2807
1643.66	45.8388
1645.19	46.1097
1646.73	46.6194
1648.26	46.8084
1649.79	47.3072
1651.32	47.6815
1652.85	48.1268
1654.38	47.4264
1655.92	48.0911
1657.45	48.1246
1658.98	47.7119
1660.51	47.8927
1662.04	47.6251
1663.57	47.2277
1665.09	47.0165
1666.62	46.3481
1668.15	44.9409
1669.68	43.6715
1671.21	42.8244
1672.73	40.6723
1674.26	39.0846
1675.79	37.526
1677.31	36.7224
1678.84	35.6462
1680.37	34.36
1681.89	33.0358
1683.42	30.811
1684.94	29.1256
1686.47	27.7013
1687.99	27.39
1689.52	26.2486
1691.04	24.7055
1692.57	22.9516
1694.09	22.0897
1695.61	20.6332
1697.14	19.4658
1698.66	19.186
1700.18	17.6595
1701.7	16.7242
1703.22	15.6604
1704.75	14.2877
1706.27	14.0378
1707.79	13.5662
1709.31	12.7817
1710.83	11.9496
1712.35	11.4048
1713.87	10.8667
1715.39	10.3387
1716.91	9.80906
1718.43	10.4358
1719.95	9.61744
1721.46	8.78069
1722.98	8.86519
1724.5	9.18629
1726.02	9.02082
1727.53	8.66581
1729.05	8.09909
1730.57	8.55235
1732.08	9.08461
1733.6	9.09701
1735.12	9.06849
1736.63	9.14064
1738.15	9.45762
1739.66	9.24948
1741.18	9.09314
1742.69	8.38828
1744.21	7.05048
1745.72	7.52472
1747.23	7.80849
1748.74	6.85534
1750.26	6.93335
1751.77	7.07607
1753.28	7.45856
1754.8	7.01286
1756.31	6.60462
1757.82	5.94609
1759.33	5.27465
1760.84	4.8575
1762.35	4.71147
1763.86	5.35096
1765.37	5.04856
1766.88	4.76001
1768.39	4.66357
1769.9	4.66748
1771.41	4.41582
1772.92	4.60827
1774.43	4.7419
1775.93	4.57152
1777.44	4.28367
1778.95	3.77105
1780.46	3.6085
1781.96	3.29168
1783.47	2.55564
1784.98	2.29006
1786.48	2.25661
1787.99	2.00076
1789.49	1.64043
1791	1.96595
1792.5	2.42815
1794.01	2.49633
1795.51	2.02627
1797.02	2.33654
1798.52	2.61968
1800.03	3.04946
1801.53	2.71344
1803.03	2.86409
1804.53	2.99691
1806.04	3.36897
1807.54	3.4419
1809.04	3.49896
1810.54	3.12932
1812.04	3.34598
1813.54	3.36309
1815.05	3.04589
1816.55	2.71056
1818.05	2.34771
1819.55	2.4256
1821.05	3.02882
1822.55	2.84647
1824.05	2.32968
1825.54	1.88548
1827.04	1.99587
1828.54	1.6235
1830.04	1.41182
1831.54	0.857104
1833.03	1.19104
1834.53	1.4016
1836.03	1.94049
1837.52	2.50852
1839.02	2.84549
1840.52	2.50546
1842.01	2.24965
1843.51	1.95183
1845	1.66487
1846.5	1.52446
1847.99	1.75876
1849.49	1.56207
1850.98	1.61915
1852.47	1.77891
1853.97	1.68022
1855.46	1.64779
1856.95	1.44764
1858.45	1.30962
1859.94	1.9799
1861.43	1.31287
1862.92	1.20219
1864.41	1.8792
1865.91	2.42515
1867.4	2.67675
1868.89	2.80077
1870.38	2.95761
1871.87	3.0925
1873.36	2.81398
1874.85	2.93861
1876.34	3.01553
1877.83	3.2248
1879.31	3.2333
1880.8	3.61081
1882.29	3.66064
1882.56	3.47064
1884.05	3.60823
1885.54	3.73179
1887.04	3.67058
1888.53	3.7765
1890.03	4.53724
1891.52	4.9456
1893.01	5.06381
1894.5	5.44393
1895.99	4.89529
1897.49	4.68401
1898.98	5.56351
1900.47	5.79227
1901.96	6.10631
1903.45	6.36127
1904.94	6.5378
1906.43	7.90313
1907.92	8.65647
1909.41	8.68661
1910.9	8.72033
1912.39	8.19949
1913.88	8.13386
1915.37	8.34486
1916.86	8.66088
1918.35	8.40225
1919.84	8.19662
1921.32	8.36736
1922.81	8.16085
1924.3	8.38868
1925.78	7.97884
1927.27	6.70648
1928.76	6.64459
1930.24	6.32529
1931.73	5.79178
1933.21	5.54255
1934.7	5.06207
1936.18	4.99424
1937.67	5.12101
1939.15	4.49789
1940.64	4.26852
1942.12	4.35172
1943.6	3.77059
1945.09	3.46258
1946.57	3.35384
1948.05	3.40398
1949.54	2.91376
1951.02	2.32309
1952.5	2.2497
1953.98	2.15486
1955.46	1.61928
1956.94	1.4475
1958.42	1.16372
1959.91	1.19207
1961.39	1.21772
1962.87	1.14833
1964.34	0.862996
1965.82	0.471468
1967.3	0.571844
1968.78	0.481406
1970.26	0.316342
1971.74	0.638717
1973.22	1.12798
1974.7	0.719077
1976.17	1.2242
1977.65	1.85896
1979.13	2.63598
1980.6	3.69516
1982.08	3.79039
1983.56	3.09786
1985.03	3.67653
1986.51	3.45497
1987.98	4.05612
1989.46	4.46981
1990.93	4.53334
1992.41	4.02896
1993.88	4.05371
1995.36	4.44887
1996.83	4.52611
1998.3	4.85211
1999.78	5.05819
2001.25	4.8157
2002.72	4.99465
2004.2	4.38843
2005.67	4.18321
2007.14	4.86035
2008.61	4.85388
2010.08	4.18147
2011.55	3.86446
2013.02	3.64813
2014.49	3.83384
2015.97	4.15927
2017.43	3.64502
2018.9	3.77311
2020.37	3.92885
2021.84	4.06494
2023.31	3.396
2024.78	3.3295
2026.25	3.20985
2027.72	2.95901
2029.19	3.1184
2030.65	3.29575
2032.12	2.87057
2033.59	3.17908
2035.05	2.80501
2036.52	2.29784
2037.98	2.55971
2039.45	3.63978
2040.92	3.64635
2042.38	3.08376
2043.85	3.54994
2045.31	4.31457
2046.78	4.71591
2048.24	5.20394
2049.71	6.6545
2051.17	7.5039
2052.63	8.09484
2054.1	8.21835
2055.56	8.70807
2057.02	9.53195
2058.48	10.4265
2059.95	10.4873
2061.41	10.9683
2062.87	11.0984
2064.33	11.2699
2065.79	11.3597
2067.25	12.1913
2068.71	12.6553
2070.17	13.2988
2071.63	13.9173
2073.09	14.0057
2074.55	13.9717
2076.01	14.0137
2077.47	14.5242
2078.93	15.1402
2080.39	15.741
2081.85	15.6607
2083.3	16.0168
2084.76	16.7896
2086.22	17.564
2087.68	18.3923
2089.13	19.1925
2090.59	20.2857
2092.05	20.6082
2093.5	20.9804
2094.96	21.2538
2096.41	21.2505
2097.87	21.6664
2099.32	22.4923
2100.78	23.5061
2102.23	24.0551
2103.69	24.6353
2105.14	25.0673
2106.59	25.7444
2108.05	25.5328
2109.5	26.1486
2110.95	27.1084
2112.41	27.795
2113.86	27.7572
2115.31	27.9982
2116.76	29.2704
2118.21	30.1229
2119.67	30.8242
2121.12	31.5593
2122.57	32.5365
2124.02	32.9742
2125.47	34.0051
2126.92	34.6762
2128.37	36.2034
2129.82	37.4018
2131.27	37.4221
2132.71	37.9825
2134.16	39.1202
