#Acq. time (s)=	45
#Accumulations=	2
#Range (cm-¹)=	200...3150
#Windows=	2
#Auto scanning=	Off
#Autofocus=	Off
#Macrospot=	Off
#AutoExposure=	Off
#Spike filter=	Multiple accum.
#Delay time (s)=	0
#Binning=	1
#Readout mode=	Signal
#DeNoise=	Off
#ICS correction=	On
#Dark correction=	Off
#Inst. Process=	Off
#Detector Gain=	Best Dynamic Range
#Detector ADC=	20 kHz       
#Detector temperature (°C)=	-70.08
#Instrument=	LabRAM HR Evol
#Detector=	Synapse
#Objective=	x100
#Grating=	600 gr/mm
#ND Filter=	100%
#Laser (nm)=	532 
#Hole=	100.021
#Range=	Auto
#Laser Pol.=	No
#Raman. Pol.=	No
#Laser Pol. (°)=	-0.0007625
#Raman Pol. (°)=	89.9995
#Collection=	Microscope
#StageXY=	Marzhauser
#StageZ=	Marzhauser
#X (µm)=	-2452
#Y (µm)=	-95.9
#Z (µm)=	-10.7
#Full time(mm:ss)=	3:18
#Project=	
#Sample=	
#Site=	
#Title=	Mb_40_24_31_2x_45s_532 nm_x100_100%_600 gr_mm
#Remark=	
#Date=	14.07.2022 12:59
#Acquired=	14.07.2022 12:59:59
#Base:Fit=	10.08.2022 10:47:00
#Base:Sub=	10.08.2022 10:47:12
#Filter:Polynom=	16.08.2022 10:11:48
#AxisType[0]=Intens
#AxisUnit[0]=Cnt
#AxisType[1]=Spectr
#AxisUnit[1]=1/cm
200.554	30.9383
202.369	28.3451
204.183	24.43
205.999	21.6376
207.813	19.6767
209.626	17.9382
211.439	16.3269
213.253	15.0216
215.065	13.9004
216.877	13.1429
218.688	12.3698
220.5	12.0924
222.312	11.5633
224.123	11.1521
225.933	10.539
227.742	10.4216
229.552	11.2515
231.361	10.7596
233.171	10.2663
234.98	9.94886
236.787	10.2972
238.595	9.23377
240.402	9.97684
242.209	9.53225
244.015	8.63479
245.822	8.7935
247.627	9.0951
249.435	9.93517
251.24	10.4005
253.045	10.8181
254.849	11.2224
256.653	11.3458
258.457	10.5531
260.26	11.114
262.063	11.5223
263.866	13.0241
265.668	13.2909
267.47	13.2508
269.271	13.4442
271.073	12.9009
272.873	12.2758
274.674	10.7284
276.474	10.9469
278.274	10.41
280.073	9.62461
281.872	9.90499
283.671	8.01471
285.47	6.17409
287.268	5.94763
289.065	5.87752
290.863	5.83744
292.66	6.33166
294.456	6.82919
296.253	6.54343
298.049	5.99335
299.844	5.82977
301.637	5.4093
303.432	5.83727
305.227	6.10453
307.021	7.00734
308.815	6.61301
310.609	7.32289
312.402	7.57241
314.195	8.59372
315.987	8.96621
317.777	10.1061
319.569	11.5359
321.36	11.5963
323.151	12.7068
324.942	14.1193
326.733	14.3113
328.521	14.203
330.31	15.5364
332.1	15.0116
333.889	16.1002
335.677	17.2223
337.464	17.1432
339.252	17.3224
341.039	16.3494
342.826	16.7409
344.611	16.3561
346.398	15.1095
348.184	15.1256
349.97	15.8368
351.754	15.6075
353.539	14.9184
355.324	14.4814
357.106	12.3771
358.89	11.9796
360.674	11.1252
362.455	11.0776
364.239	11.4845
366.021	11.4155
367.804	10.617
369.584	9.2396
371.366	9.17109
373.145	8.2497
374.926	7.87287
376.707	7.90192
378.485	7.89303
380.265	7.52005
382.045	8.07211
383.822	7.17304
385.601	7.08234
387.378	7.50741
389.156	7.22152
390.934	8.19961
392.71	8.22314
394.487	8.34949
396.262	9.43984
398.038	9.02482
399.813	11.2025
401.588	11.6437
403.362	12.1265
405.137	11.8969
406.912	11.9877
408.685	12.5742
410.459	12.2028
412.23	12.314
414.004	12.1053
415.775	11.0588
417.548	11.5338
419.318	11.5986
421.089	10.9659
422.86	10.1751
424.63	9.29574
426.401	9.16709
428.17	8.9604
429.94	8.50531
431.708	8.71864
433.478	8.30691
435.245	7.50609
437.012	7.14705
438.781	7.78627
440.547	6.25444
442.315	6.00043
444.081	5.02623
445.846	4.78337
447.613	6.74603
449.378	7.25003
451.142	6.95396
452.908	6.863
454.672	6.29498
456.435	5.90847
458.2	6.48098
459.963	7.53661
461.725	7.49567
463.489	6.96116
465.251	6.95736
467.012	8.14079
468.775	9.51869
470.536	9.90448
472.296	11.0589
474.056	13.4121
475.817	14.5138
477.576	14.9599
479.335	16.7028
481.094	17.2864
482.854	18.9951
484.612	20.1953
486.37	21.1518
488.127	22.8701
489.886	22.6893
491.642	22.9063
493.398	23.0627
495.154	23.5086
496.91	25.0927
498.667	26.2057
500.422	26.612
502.176	27.646
503.93	27.663
505.684	28.7922
507.438	28.5974
509.191	28.535
510.946	28.8423
512.698	29.8901
514.45	30.474
516.202	30.3469
517.954	31.15
519.705	31.3746
521.456	31.5939
523.206	31.3177
524.956	32.1748
526.706	33.1744
528.456	33.0137
530.207	33.8533
531.956	33.7563
533.704	33.8955
535.452	32.9138
537.2	31.712
538.947	26.5211
540.694	26.5042
542.441	26.2471
544.188	26.4697
545.934	26.5013
547.68	27.6958
549.425	28.1479
551.17	28.4538
552.915	29.4474
554.659	30.3642
556.403	30.2419
558.145	28.4789
559.889	30.0898
561.632	30.0656
563.375	28.3774
565.117	27.9713
566.859	27.3731
568.601	27.2944
570.342	26.3716
572.083	25.5377
573.824	24.2531
575.565	22.3645
577.303	20.9729
579.043	19.5313
580.782	18.6145
582.521	18.3095
584.26	17.7544
585.998	16.657
587.734	14.3403
589.472	13.8256
591.21	12.8335
592.947	11.737
594.684	9.39506
596.418	8.61269
598.154	7.87768
599.89	8.1231
601.626	7.84126
603.361	8.20272
605.094	8.27995
606.828	7.74148
608.562	7.46745
610.296	7.15516
612.027	5.92008
613.761	4.04351
615.493	3.36352
617.224	2.05513
618.956	1.13004
620.688	0.0411537
622.419	-0.529736
624.149	-0.819391
625.879	-1.02335
627.61	3.22355
629.338	4.65242
631.068	6.24572
632.797	6.50226
634.525	7.21046
636.254	6.10077
637.98	6.11981
639.708	6.65826
641.436	5.1602
643.162	4.42004
644.889	5.46688
646.614	7.1959
648.34	6.45231
650.067	7.73875
651.791	7.44949
653.516	6.90994
655.239	7.28074
656.964	6.9428
658.687	6.94347
660.411	7.76401
662.133	8.86286
663.857	9.5561
665.58	8.8858
667.301	8.96242
669.024	9.26726
670.744	8.27383
672.464	9.25527
674.186	9.67214
675.905	11.9436
677.626	11.1993
679.345	11.2639
681.065	12.0367
682.783	14.0905
684.503	16.7775
686.22	18.6268
687.939	19.4138
689.656	22.0007
691.372	20.9861
693.09	22.6989
694.806	23.2286
696.523	24.1097
698.239	24.7235
699.953	25.6966
701.67	27.8181
703.384	28.5491
705.098	29.0554
706.813	30.7191
708.526	31.7924
710.239	32.8709
711.954	33.6813
713.666	34.3333
715.378	35.3525
717.091	35.9127
718.802	35.0431
720.513	34.6527
722.226	34.7923
723.936	35.3617
725.646	35.1053
727.355	34.4918
729.067	36.5119
730.776	38.3703
732.484	39.0339
734.192	38.9602
735.902	39.2372
737.61	39.5342
739.317	40.2158
741.024	41.6757
742.731	42.1224
744.439	43.1013
746.145	44.2451
747.851	44.7603
749.556	45.2528
751.262	46.7387
752.966	48.068
754.673	50.299
756.377	51.9018
758.081	53.7263
759.784	54.6209
761.487	55.3266
763.19	55.4433
764.892	58.0322
766.594	60.2747
768.296	62.5988
770	64.7674
771.701	64.8365
773.402	66.8043
775.102	69.1264
776.803	69.2916
778.503	72.4751
780.202	72.006
781.901	72.5151
783.6	73.1742
785.299	73.7912
786.997	75.1346
788.695	76.2494
790.393	78.1723
792.09	79.5747
793.787	79.3501
795.484	79.6013
797.18	80.5582
798.877	80.5087
800.572	79.2436
802.268	78.9738
803.963	78.0023
805.658	77.4621
807.35	77.7061
809.044	78.1595
810.738	78.4205
812.432	77.9765
814.125	79.0401
815.818	78.1817
817.51	79.2559
819.202	79.4062
820.894	79.8884
822.584	79.8101
824.275	78.528
825.966	78.4205
827.657	78.7383
829.347	79.2587
831.037	79.6736
832.725	79.7285
834.414	78.6775
836.103	78.5721
837.792	77.6342
839.481	77.2183
841.167	75.6077
842.854	74.7025
844.542	74.6744
846.229	74.6802
847.914	74.8821
849.6	74.7101
851.287	73.7871
852.973	72.4514
854.656	71.7745
856.341	70.8232
858.026	71.427
859.711	69.9342
861.393	68.8893
863.077	67.4065
864.761	65.9373
866.442	65.3345
868.125	65.3133
869.808	65.3462
871.489	64.1819
873.171	63.1593
874.85	62.8174
876.532	60.5493
878.213	60.0921
879.892	60.2569
881.572	59.1982
883.251	58.548
884.931	56.4585
886.61	56.8069
888.287	56.5805
889.966	55.8174
891.643	55.5318
893.321	55.4583
894.997	56.2648
896.675	56.0066
898.352	57.351
900.028	57.2659
901.704	58.4838
903.379	58.0779
905.055	57.386
906.729	57.5049
908.404	57.6793
910.077	58.3222
911.75	59.7915
913.425	59.7487
915.097	60.0636
916.771	60.3427
918.443	59.8158
920.116	60.5312
921.787	60.6337
923.46	60.1049
925.13	60.5911
926.8	60.4755
928.472	60.4515
930.141	59.8116
931.813	58.7404
933.481	57.7946
935.15	57.6198
936.82	58.0829
938.488	58.0103
940.156	57.2577
941.825	56.2475
943.492	54.4553
945.158	53.8177
946.827	53.2785
948.493	53.2662
950.158	52.9956
951.824	53.5281
953.491	52.918
955.156	52.8037
956.82	52.3499
958.486	51.7285
960.15	50.2124
961.814	50.3675
963.477	51.2118
965.142	50.6184
966.804	51.6093
968.467	52.3957
970.129	54.5955
971.79	54.9025
973.454	55.3672
975.115	55.7441
976.776	56.3941
978.436	58.1023
980.096	58.1794
981.756	59.7185
983.417	60.3897
985.077	60.511
986.736	60.9179
988.394	60.9725
990.052	61.3764
991.71	61.5599
993.368	61.8917
995.025	61.9282
996.682	61.6709
998.341	61.6865
999.998	61.096
1001.65	61.5691
1003.31	61.8869
1004.97	62.0087
1006.62	60.6914
1008.28	60.4297
1009.93	60.793
1011.58	62.7863
1013.24	64.1382
1014.89	65.9554
1016.54	67.728
1018.2	69.7129
1019.85	70.5977
1021.5	71.0089
1023.16	71.3032
1024.81	71.7168
1026.46	72.5503
1028.11	73.3026
1029.76	74.5584
1031.41	75.074
1033.06	75.6646
1034.71	76.1602
1036.36	76.2799
1038.01	77.1249
1039.66	76.1404
1041.31	77.1162
1042.95	77.9245
1044.6	79.1593
1046.25	80.5626
1047.9	80.6687
1049.54	80.3581
1051.19	80.528
1052.84	79.1889
1054.48	79.0197
1056.13	79.4034
1057.77	78.1011
1059.42	76.9692
1061.06	77.3888
1062.71	75.4827
1064.35	73.921
1066	71.2855
1067.64	68.8382
1069.28	67.5347
1070.93	65.7125
1072.57	63.6398
1074.21	62.8382
1075.85	61.0117
1077.49	59.1152
1079.13	57.3981
1080.78	55.4104
1082.42	53.1516
1084.06	53.1257
1085.7	51.4455
1087.34	51.0633
1088.97	50.3141
1090.61	52.1065
1092.25	53.4018
1093.89	54.9102
1095.53	54.5645
1097.17	53.3524
1098.8	53.4963
1100.44	52.8505
1102.08	51.9678
1103.71	50.6121
1105.35	49.744
1106.99	49.207
1108.62	48.1952
1110.26	47.4033
1111.89	47.0632
1113.52	46.6168
1115.16	45.667
1116.79	44.6068
1118.43	43.0533
1120.06	42.0515
1121.69	40.9298
1123.32	40.025
1124.96	39.4175
1126.59	38.7688
1128.22	38.4143
1129.85	37.4144
1131.48	36.9533
1133.11	36.531
1134.75	36.0647
1136.37	35.3045
1138	33.5579
1139.63	30.8407
1141.26	29.0715
1142.89	28.3853
1144.52	26.1709
1146.15	25.0451
1147.78	22.2816
1149.4	20.7609
1151.03	19.0543
1152.66	17.211
1154.28	15.684
1155.91	14.8824
1157.54	11.5276
1159.16	9.83476
1160.79	9.35728
1162.41	7.69851
1164.04	7.93854
1165.66	8.9188
1167.29	9.31238
1168.91	9.88165
1170.53	9.03614
1172.16	9.93288
1173.78	8.40986
1175.4	7.30697
1177.02	6.84662
1178.65	6.64965
1180.27	7.90942
1181.89	7.9004
1183.51	8.069
1185.13	7.85858
1186.75	9.14541
1188.37	9.02534
1189.99	9.65847
1191.61	10.5706
1193.23	11.6285
1194.85	12.4075
1196.47	13.4014
1198.08	15.5806
1199.7	17.3169
1201.32	19.4987
1202.94	20.4392
1204.55	21.4155
1206.17	24.1327
1207.79	24.9464
1209.4	26.7906
1211.02	27.6303
1212.63	30.6009
1214.25	32.6325
1215.86	33.9341
1217.48	34.6868
1219.09	36.4549
1220.71	38.1081
1222.32	40.1092
1223.93	42.3088
1225.54	43.5176
1227.16	45.2194
1228.77	46.5507
1230.38	48.8051
1231.99	49.6183
1233.6	51.6851
1235.22	53.3361
1236.83	54.6634
1238.44	55.6763
1240.05	59.1152
1241.66	60.4551
1243.26	60.8495
1244.87	62.9863
1246.48	63.4304
1248.09	64.5447
1249.7	64.1504
1251.31	64.9048
1252.92	66.2827
1254.52	65.8287
1256.13	67.9912
1257.74	70.4841
1259.34	70.6384
1260.95	73.0061
1262.55	74.5034
1264.16	75.9434
1265.76	77.7663
1267.37	80.0601
1268.97	81.5751
1270.58	83.7904
1272.18	85.7936
1273.78	87.8345
1275.39	89.0672
1276.99	91.4536
1278.59	93.1116
1280.2	93.4237
1281.8	94.0572
1283.4	95.013
1285	97.0169
1286.6	98.8425
1288.2	100.267
1289.8	102.837
1291.4	104.279
1293	106.137
1294.6	106.134
1296.2	105.044
1297.8	105.957
1299.4	107.314
1301	106.981
1302.6	106.619
1304.19	107.048
1305.79	106.293
1307.39	105.881
1308.99	104.66
1310.58	103.234
1312.18	101.59
1313.77	102.204
1315.37	101.091
1316.96	99.3108
1318.56	97.5317
1320.15	95.3872
1321.75	92.6973
1323.34	92.3508
1324.94	90.0598
1326.53	88.7765
1328.12	87.8693
1329.72	86.298
1331.31	85.7904
1332.9	84.2674
1334.49	82.3073
1336.08	81.7961
1337.67	80.3554
1339.27	78.9392
1340.86	78.4954
1342.45	76.0094
1344.04	74.3686
1345.63	73.8453
1347.22	72.9903
1348.8	72.3055
1350.39	69.9335
1351.98	68.9464
1353.57	66.6314
1355.16	64.761
1356.75	64.6371
1358.33	63.2395
1359.92	62.5617
1361.51	61.3905
1363.09	60.5186
1364.68	59.4404
1366.27	58.7901
1367.85	58.6248
1369.44	57.938
1371.02	56.7691
1372.61	55.0953
1374.19	53.9623
1375.77	53.1733
1377.36	53.088
1378.94	52.3531
1380.52	51.8496
1382.11	52.0043
1383.69	53.0272
1385.27	52.0465
1386.85	51.9866
1388.43	51.7724
1390.02	51.3091
1391.6	51.5932
1393.18	52.6697
1394.76	52.2451
1396.34	51.3965
1397.92	52.0397
1399.5	52.6887
1401.08	53.8415
1402.65	54.4865
1404.23	54.1085
1405.81	56.2549
1407.39	57.8187
1408.97	58.9069
1410.54	60.5001
1412.12	63.3633
1413.7	65.825
1415.27	69.2845
1416.85	71.8382
1418.43	74.0787
1420	77.1964
1421.58	80.1327
1423.15	85.3982
1424.73	90.4305
1426.3	93.5763
1427.87	96.8908
1429.45	99.7088
1431.02	104.434
1432.6	107.914
1434.17	111.374
1435.74	115.303
1437.31	117.688
1438.89	120.696
1440.46	122.488
1442.03	125.126
1443.6	127.255
1445.17	128.623
1446.74	129.473
1448.31	130.12
1449.88	129.754
1451.45	129.206
1453.02	128.049
1454.59	127.274
1456.16	125.259
1457.72	123.218
1459.29	120.444
1460.86	117.353
1462.43	113.412
1463.99	108.09
1465.56	103.935
1467.13	99.2687
1468.69	94.1854
1470.26	88.9552
1471.83	83.8512
1473.39	78.6425
1474.95	73.4288
1476.52	69.1249
1478.08	63.2491
1479.65	58.0029
1481.21	53.8151
1482.78	48.6367
1484.34	44.6754
1485.9	40.3347
1487.47	36.8221
1489.03	34.4423
1490.59	31.7777
1492.15	29.0043
1493.71	26.4624
1495.27	23.261
1496.84	21.8385
1498.39	20.3735
1499.96	18.6798
1501.52	18.0906
1503.07	16.8774
1504.64	15.7282
1506.19	15.8326
1507.75	14.9923
1509.31	15.0466
1510.87	14.6824
1512.43	14.699
1513.98	15.5675
1515.54	15.1745
1517.1	15.7372
1518.65	15.8323
1520.21	16.4183
1521.77	16.4273
1523.32	15.8192
1524.88	16.3539
1526.44	16.9099
1527.99	17.2876
1529.54	17.7294
1531.1	17.4931
1532.65	16.9124
1534.21	17.539
1535.76	18.0772
1537.31	19.1326
1538.87	19.9869
1540.42	20.4026
1541.97	21.3128
1543.52	22.365
1545.07	23.2545
1546.63	24.2711
1548.18	25.2779
1549.73	27.0875
1551.28	28.1247
1552.83	28.817
1554.38	29.9878
1555.93	30.7055
1557.48	31.5046
1559.03	33.1185
1560.57	33.8467
1562.12	35.2085
1563.67	36.5151
1565.22	38.3054
1566.77	39.1434
1568.31	40.3161
1569.86	42.4515
1571.41	43.6516
1572.95	44.7859
1574.5	46.9248
1576.05	48.7087
1577.59	51.1498
1579.14	53.4352
1580.68	55.7715
1582.23	57.6867
1583.77	58.5419
1585.31	59.8851
1586.86	61.0934
1588.4	63.3757
1589.95	64.8493
1591.49	65.5839
1593.03	66.4839
1594.57	68.2165
1596.11	69.2297
1597.66	70.491
1599.2	70.6232
1600.74	71.0058
1602.28	71.8504
1603.82	71.9336
1605.36	71.141
1606.9	71.0329
1608.44	69.9515
1609.98	69.6052
1611.52	72.1623
1613.06	72.7158
1614.6	73.1986
1616.13	73.3727
1617.67	74.7559
1619.21	75.7472
1620.75	77.591
1622.28	78.972
1623.82	79.7289
1625.36	81.1558
1626.89	83.21
1628.43	84.6143
1629.96	86.1754
1631.5	87.6801
1633.04	88.2988
1634.57	88.829
1636.11	90.0042
1637.64	91.048
1639.17	92.1728
1640.71	93.3249
1642.24	94.4579
1643.77	95.4971
1645.31	97.8662
1646.84	98.2552
1648.37	99.6781
1649.9	100.761
1651.43	102.22
1652.96	103.148
1654.5	102.593
1656.03	102.117
1657.56	101.894
1659.09	101.49
1660.62	100.718
1662.15	99.9777
1663.67	98.7376
1665.2	97.8303
1666.73	95.7135
1668.26	93.1736
1669.79	91.024
1671.32	88.4652
1672.84	85.6813
1674.37	82.4159
1675.9	79.1016
1677.43	76.6331
1678.95	72.776
1680.48	69.2421
1682	66.0531
1683.53	63.1789
1685.05	60.9533
1686.58	59.376
1688.1	57.078
1689.63	53.8945
1691.15	51.3326
1692.68	49.062
1694.2	46.8717
1695.72	44.2034
1697.25	41.739
1698.77	39.2269
1700.29	36.5365
1701.81	34.4053
1703.33	31.7484
1704.86	29.3336
1706.38	26.634
1707.9	24.2695
1709.42	22.5506
1710.94	21.2146
1712.46	19.8473
1713.98	19.0526
1715.5	17.6959
1717.02	16.6421
1718.54	15.4652
1720.06	14.4792
1721.57	13.7109
1723.09	12.7862
1724.61	13.1748
1726.13	11.8196
1727.64	11.1718
1729.16	10.5609
1730.68	10.1136
1732.19	10.0457
1733.71	10.1271
1735.23	9.98746
1736.74	9.68789
1738.26	9.06523
1739.77	9.19479
1741.29	8.84526
1742.8	9.21588
1744.31	8.68676
1745.83	8.88317
1747.34	8.81299
1748.85	9.14296
1750.37	9.16308
1751.88	9.98821
1753.39	10.2776
1754.91	9.75813
1756.42	9.67606
1757.93	9.21526
1759.44	8.99499
1760.95	9.25546
1762.46	8.718
1763.97	7.82778
1765.48	7.26754
1766.99	6.72028
1768.5	5.72684
1770.01	5.50566
1771.52	5.2815
1773.03	4.58634
1774.54	3.89681
1776.04	3.26902
1777.55	3.07541
1779.06	3.48778
1780.57	3.39381
1782.07	2.87019
1783.58	3.40129
1785.09	3.59509
1786.59	3.49806
1788.1	2.76699
1789.6	2.83212
1791.11	2.87078
1792.61	2.47324
1794.12	1.47622
1795.62	1.48633
1797.13	1.5926
1798.63	2.03234
1800.13	1.52535
1801.64	1.3864
1803.14	1.92389
1804.64	1.98625
1806.15	2.19378
1807.65	2.70938
1809.15	3.23729
1810.65	3.40638
1812.15	3.6727
1813.65	3.82965
1815.16	3.87768
1816.66	4.40978
1818.15	4.55585
1819.66	4.47598
1821.16	4.57604
1822.65	4.93288
1824.15	5.43225
1825.65	5.30281
1827.15	5.27951
1828.65	4.68148
1830.15	4.31281
1831.64	4.32011
1833.14	4.7627
1834.64	5.29695
1836.14	5.13173
1837.63	4.96694
1839.13	4.56783
1840.62	4.86026
1842.12	4.54484
1843.62	4.63974
1845.11	5.24011
1846.61	5.41532
1848.1	4.77677
1849.6	4.6282
1851.09	4.99422
1852.58	4.55378
1854.08	4.23293
1855.57	3.58004
1857.06	2.81015
1858.55	2.02885
1860.05	1.72449
1861.54	1.47387
1863.03	0.955846
1864.52	0.45978
1866.01	-0.0589156
1867.5	-0.60783
1869	-1.06529
1870.49	-1.09627
1871.98	-0.972306
1873.47	-1.37477
1874.96	-2.04683
1876.44	-1.29195
1877.93	-0.893533
1879.42	-0.713607
1880.91	-0.00205763
1882.4	0.383018
1882.47	1.0636
1883.96	1.32834
1885.46	0.992465
1886.95	1.39119
1888.44	1.30153
1889.94	1.91833
1891.43	1.55477
1892.93	2.72215
1894.42	3.30808
1895.91	3.55972
1897.4	4.41678
1898.89	4.79007
1900.39	5.54334
1901.88	6.70388
1903.37	7.15137
1904.86	7.35934
1906.35	7.86409
1907.84	7.54947
1909.33	7.21992
1910.82	7.88059
1912.31	7.78864
1913.8	7.76132
1915.29	7.73385
1916.77	8.71606
1918.26	8.61996
1919.75	8.38738
1921.24	8.00888
1922.73	7.42231
1924.21	7.62135
1925.7	7.22836
1927.19	7.00473
1928.67	6.20349
1930.16	5.30919
1931.64	5.4096
1933.13	5.77415
1934.61	5.71691
1936.1	5.45975
1937.58	5.6943
1939.07	6.35764
1940.55	6.31627
1942.04	5.59644
1943.52	6.07089
1945	5.94422
1946.49	6.15073
1947.97	6.32109
1949.45	7.04394
1950.93	6.36308
1952.42	6.6342
1953.9	6.67262
1955.38	6.66494
1956.86	7.1521
1958.34	6.51255
1959.82	6.30234
1961.3	6.93597
1962.78	6.64611
1964.26	7.22441
1965.74	6.85426
1967.22	7.8515
1968.7	8.06872
1970.18	8.66158
1971.65	9.44378
1973.13	9.80804
1974.61	9.91744
1976.09	9.62528
1977.57	9.36897
1979.04	9.60436
1980.52	9.90018
1982	10.5314
1983.47	11.4463
1984.95	12.5692
1986.42	12.6819
1987.9	13.6425
1989.37	14.7988
1990.85	15.0254
1992.32	15.4469
1993.8	16.207
1995.27	16.3187
1996.75	16.2692
1998.22	16.7635
1999.69	16.002
2001.17	15.9502
2002.64	16.2651
2004.11	16.4146
2005.58	18.1859
2007.05	19.1627
2008.53	19.7084
2010	19.9346
2011.47	20.3396
2012.94	20.1176
2014.41	20.0154
2015.88	19.7843
2017.35	19.7459
2018.82	19.6326
2020.29	19.452
2021.76	18.8717
2023.23	18.5331
2024.7	17.5855
2026.16	17.7517
2027.63	17.362
2029.1	17.0494
2030.57	16.9513
2032.03	16.8066
2033.5	16.905
2034.97	16.6481
2036.44	16.8479
2037.9	17.0857
2039.37	16.9122
2040.83	18.0971
2042.3	18.517
2043.76	18.9508
2045.23	18.746
2046.69	19.1142
2048.16	19.8155
2049.62	20.0676
2051.08	20.9817
2052.55	20.9862
2054.01	22.3902
2055.47	23.8997
2056.94	24.3802
2058.4	24.7515
2059.86	25.6321
2061.32	26.8105
2062.79	27.7647
2064.25	27.8526
2065.71	29.0642
2067.17	29.1236
2068.63	29.5913
2070.09	30.2522
2071.55	30.7175
2073.01	32.0478
2074.47	33.6845
2075.93	34.8181
2077.39	35.9872
2078.85	38.0455
2080.31	38.9268
2081.76	39.674
2083.22	40.5499
2084.68	41.9398
2086.13	43.0758
2087.59	43.8448
2089.05	44.6283
2090.51	46.0807
2091.96	47.4604
2093.42	48.1713
2094.87	49.1669
2096.33	50.117
2097.78	51.2433
2099.24	53.8796
2100.69	55.5106
2102.15	57.2055
2103.6	59.6113
2105.06	62.0796
2106.51	64.019
2107.96	65.3121
2109.42	67.6811
2110.87	69.0434
2112.32	70.6148
2113.77	72.9126
2115.23	74.7621
2116.68	77.1456
2118.13	79.4243
2119.58	82.1994
2121.03	84.9563
2122.48	86.643
2123.93	89.3772
2125.38	91.2518
2126.83	94.1862
2128.28	95.9797
2129.73	98.5343
2131.18	100.804
2132.63	103.593
2134.08	106.18
2135.53	108.681
2136.97	111.35
