#Acq. time (s)=	45
#Accumulations=	2
#Range (cm-¹)=	200...3150
#Windows=	2
#Auto scanning=	Off
#Autofocus=	Off
#Macrospot=	Off
#AutoExposure=	Off
#Spike filter=	Multiple accum.
#Delay time (s)=	0
#Binning=	1
#Readout mode=	Signal
#DeNoise=	Off
#ICS correction=	On
#Dark correction=	Off
#Inst. Process=	Off
#Detector Gain=	Best Dynamic Range
#Detector ADC=	20 kHz       
#Detector temperature (°C)=	-70.08
#Instrument=	LabRAM HR Evol
#Detector=	Synapse
#Objective=	x100
#Grating=	600 gr/mm
#ND Filter=	100%
#Laser (nm)=	532 
#Hole=	100.021
#Range=	Auto
#Laser Pol.=	No
#Raman. Pol.=	No
#Laser Pol. (°)=	-0.0007625
#Raman Pol. (°)=	89.9995
#Collection=	Microscope
#StageXY=	Marzhauser
#StageZ=	Marzhauser
#X (µm)=	-2444
#Y (µm)=	-28.7
#Z (µm)=	-10.1
#Full time(mm:ss)=	3:19
#Project=	
#Sample=	
#Site=	
#Title=	Mb_40_24_50_2x_45s_532 nm_x100_100%_600 gr_mm
#Remark=	
#Date=	14.07.2022 14:32
#Acquired=	14.07.2022 14:32:21
#Base:Fit=	10.08.2022 10:47:01
#Base:Sub=	10.08.2022 10:47:12
#Filter:Polynom=	16.08.2022 10:11:48
#AxisType[0]=Intens
#AxisUnit[0]=Cnt
#AxisType[1]=Spectr
#AxisUnit[1]=1/cm
200.554	8.32026
202.369	9.18971
204.183	10.1408
205.999	9.87757
207.813	9.85249
209.626	9.50226
211.439	9.07159
213.253	8.3617
215.065	7.09083
216.877	5.55603
218.688	4.63135
220.5	4.63252
222.312	4.88342
224.123	4.37156
225.933	3.96445
227.742	3.45584
229.552	4.00181
231.361	4.29696
233.171	4.60505
234.98	4.661
236.787	5.36997
238.595	5.55764
240.402	6.8425
242.209	7.13842
244.015	7.53577
245.822	8.32616
247.627	9.15427
249.435	10.2355
251.24	10.6942
253.045	11.1923
254.849	10.8308
256.653	11.1196
258.457	12.5667
260.26	13.0828
262.063	13.9431
263.866	14.3158
265.668	15.3203
267.47	16.4617
269.271	17.1005
271.073	18.2675
272.873	19.117
274.674	19.2448
276.474	20.1062
278.274	19.6815
280.073	19.3069
281.872	20.1317
283.671	20.4883
285.47	20.7518
287.268	21.028
289.065	20.3195
290.863	19.4888
292.66	19.1969
294.456	18.8127
296.253	19.9382
298.049	18.7632
299.844	18.1588
301.637	17.3817
303.432	15.84
305.227	15.4157
307.021	15.8325
308.815	17.1971
310.609	17.4034
312.402	17.6736
314.195	16.907
315.987	17.2194
317.777	17.9275
319.569	18.8754
321.36	18.9906
323.151	19.1378
324.942	20.2044
326.733	21.734
328.521	22.1017
330.31	22.1917
332.1	21.3762
333.889	22.5593
335.677	23.5916
337.464	23.5046
339.252	23.6846
341.039	23.7361
342.826	23.6046
344.611	23.348
346.398	23.6844
348.184	23.8446
349.97	23.5577
351.754	23.1437
353.539	22.7683
355.324	22.728
357.106	21.9843
358.89	21.2457
360.674	21.4564
362.455	20.2748
364.239	19.33
366.021	18.464
367.804	16.715
369.584	17.2971
371.366	17.2135
373.145	16.5095
374.926	15.6614
376.707	15.2476
378.485	14.425
380.265	14.2193
382.045	13.4926
383.822	13.5118
385.601	12.6812
387.378	10.0056
389.156	9.58616
390.934	9.96068
392.71	9.78027
394.487	9.88144
396.262	10.222
398.038	10.612
399.813	9.48732
401.588	9.25219
403.362	7.60573
405.137	8.42864
406.912	8.84703
408.685	8.81408
410.459	8.84319
412.23	9.14111
414.004	9.68621
415.775	9.08238
417.548	8.24373
419.318	7.99717
421.089	8.12658
422.86	8.50228
424.63	8.13778
426.401	7.72588
428.17	8.10388
429.94	7.94956
431.708	7.54943
433.478	8.08159
435.245	7.79537
437.012	7.16447
438.781	6.56857
440.547	5.09543
442.315	4.52205
444.081	4.41006
445.846	3.20256
447.613	3.80452
449.378	3.60725
451.142	2.87706
452.908	3.45745
454.672	3.55834
456.435	4.52565
458.2	6.06371
459.963	5.66127
461.725	5.27829
463.489	5.43671
465.251	6.4839
467.012	6.73711
468.775	7.0835
470.536	7.35728
472.296	7.60934
474.056	7.26921
475.817	8.20888
477.576	9.67516
479.335	10.405
481.094	9.88294
482.854	9.61336
484.612	10.2547
486.37	9.50217
488.127	8.17181
489.886	8.51908
491.642	9.26369
493.398	10.9565
495.154	11.289
496.91	11.3938
498.667	12.0348
500.422	12.3333
502.176	12.8489
503.93	12.8771
505.684	12.7648
507.438	12.3226
509.191	12.7065
510.946	13.373
512.698	13.888
514.45	13.7031
516.202	14.7945
517.954	14.3845
519.705	13.789
521.456	13.2972
523.206	11.9346
524.956	11.2667
526.706	10.6403
528.456	11.004
530.207	11.5466
531.956	11.5706
533.704	11.3521
535.452	11.5934
537.2	10.9765
538.947	11.7953
540.694	12.2053
542.441	11.3349
544.188	11.1536
545.934	10.4104
547.68	9.54867
549.425	9.39082
551.17	9.96346
552.915	10.1884
554.659	9.92304
556.403	10.2175
558.145	9.45826
559.889	8.5958
561.632	8.03243
563.375	8.26597
565.117	7.08284
566.859	6.50599
568.601	5.36089
570.342	5.33147
572.083	4.92771
573.824	3.89515
575.565	3.02688
577.303	4.0159
579.043	4.37823
580.782	4.04209
582.521	3.73616
584.26	3.36267
585.998	3.5557
587.734	2.78664
589.472	3.06627
591.21	1.96868
592.947	1.7677
594.684	1.98689
596.418	2.83907
598.154	2.02211
599.89	1.7854
601.626	1.27879
603.361	1.93969
605.094	0.910335
606.828	1.35143
608.562	1.55524
610.296	1.41672
612.027	1.92163
613.761	2.13252
615.493	2.1751
617.224	1.34496
618.956	1.30209
620.688	0.825831
622.419	0.510848
624.149	0.77285
625.879	1.07661
627.61	0.790371
629.338	0.40971
631.068	1.38593
632.797	1.99463
634.525	2.57665
636.254	2.66082
637.98	3.2428
639.708	3.29256
641.436	3.13685
643.162	3.74418
644.889	3.82762
646.614	3.96575
648.34	4.50849
650.067	5.29795
651.791	5.53231
653.516	6.64695
655.239	7.37086
656.964	8.56246
658.687	8.63873
660.411	9.17779
662.133	9.79326
663.857	11.0564
665.58	11.4063
667.301	11.4486
669.024	12.1188
670.744	12.2961
672.464	13.3632
674.186	13.162
675.905	13.6957
677.626	13.2328
679.345	13.9668
681.065	15.0776
682.783	16.0264
684.503	16.0512
686.22	16.9848
687.939	17.4654
689.656	18.8697
691.372	18.7453
693.09	19.3062
694.806	19.2292
696.523	19.1618
698.239	19.2622
699.953	19.3268
701.67	19.5572
703.384	20.0255
705.098	20.7298
706.813	21.0582
708.526	21.5376
710.239	21.6711
711.954	22.4992
713.666	23.1355
715.378	23.7437
717.091	24.4101
718.802	24.9218
720.513	26.01
722.226	26.2699
723.936	26.947
725.646	26.8633
727.355	27.3975
729.067	28.3211
730.776	28.6692
732.484	29.0305
734.192	29.9483
735.902	30.9533
737.61	32.1165
739.317	33.0569
741.024	34.0191
742.731	34.6471
744.439	35.2544
746.145	35.9233
747.851	36.9021
749.556	38.3372
751.262	39.3272
752.966	40.5978
754.673	42.3594
756.377	43.7059
758.081	45.3654
759.784	45.3745
761.487	47.1545
763.19	49.9523
764.892	52.4143
766.594	55.0565
768.296	56.2934
770	58.3269
771.701	59.9231
773.402	60.5493
775.102	61.7416
776.803	62.8682
778.503	64.2859
780.202	65.726
781.901	66.9762
783.6	68.3547
785.299	69.8561
786.997	71.5304
788.695	73.1122
790.393	74.3743
792.09	75.0091
793.787	75.637
795.484	77.2758
797.18	78.1467
798.877	78.5552
800.572	78.8099
802.268	79.3661
803.963	79.6671
805.658	79.0811
807.35	79.2337
809.044	79.0209
810.738	77.8895
812.432	77.2076
814.125	77.3203
815.818	77.052
817.51	77.1936
819.202	76.6041
820.894	76.5153
822.584	75.9165
824.275	75.5984
825.966	75.051
827.657	74.0561
829.347	73.5577
831.037	73.127
832.725	72.8717
834.414	71.41
836.103	70.137
837.792	69.2466
839.481	67.7869
841.167	65.6892
842.854	63.8725
844.542	62.8529
846.229	62.6914
847.914	61.7985
849.6	60.3087
851.287	58.4029
852.973	57.618
854.656	56.2988
856.341	54.6009
858.026	52.8361
859.711	52.5614
861.393	51.9653
863.077	51.357
864.761	50.0025
866.442	49.2333
868.125	48.2919
869.808	47.5514
871.489	47.5894
873.171	46.9505
874.85	46.4401
876.532	45.4562
878.213	45.6561
879.892	45.7855
881.572	44.9968
883.251	45.3948
884.931	45.9639
886.61	46.3452
888.287	45.9044
889.966	45.9545
891.643	46.391
893.321	45.7348
894.997	46.1467
896.675	46.5713
898.352	46.6942
900.028	46.6866
901.704	46.9764
903.379	46.2329
905.055	46.2485
906.729	45.8812
908.404	46.1601
910.077	45.4718
911.75	45.1098
913.425	44.1641
915.097	42.9307
916.771	41.9571
918.443	41.0873
920.116	40.1183
921.787	39.0853
923.46	38.341
925.13	37.6125
926.8	37.9653
928.472	37.7663
930.141	36.9902
931.813	36.3795
933.481	36.3905
935.15	35.9439
936.82	36.7205
938.488	35.4826
940.156	34.7012
941.825	33.4771
943.492	33.1747
945.158	32.3053
946.827	31.4839
948.493	30.4998
950.158	30.628
951.824	29.3369
953.491	29.8744
955.156	29.9709
956.82	28.9017
958.486	28.8889
960.15	28.8714
961.814	29.1802
963.477	28.2938
965.142	28.1947
966.804	28.3179
968.467	28.536
970.129	27.8953
971.79	27.1691
973.454	26.9839
975.115	26.6552
976.776	25.717
978.436	25.3225
980.096	24.1595
981.756	23.6356
983.417	23.5568
985.077	23.0948
986.736	21.7278
988.394	21.0691
990.052	20.3717
991.71	19.6509
993.368	18.7038
995.025	18.4893
996.682	17.8137
998.341	18.2688
999.998	17.931
1001.65	18.017
1003.31	17.6259
1004.97	18.3011
1006.62	18.021
1008.28	17.8449
1009.93	18.6488
1011.58	18.3994
1013.24	19.304
1014.89	19.4439
1016.54	19.4828
1018.2	19.3049
1019.85	19.683
1021.5	19.2137
1023.16	18.7093
1024.81	18.7068
1026.46	19.1759
1028.11	19.1967
1029.76	19.71
1031.41	19.3295
1033.06	19.5667
1034.71	20.1894
1036.36	20.5689
1038.01	19.8808
1039.66	19.8836
1041.31	20.4405
1042.95	20.1772
1044.6	19.7245
1046.25	19.3573
1047.9	20.8672
1049.54	21.2552
1051.19	20.9581
1052.84	20.0007
1054.48	19.6324
1056.13	18.9529
1057.77	18.5194
1059.42	18.5967
1061.06	18.3576
1062.71	17.5852
1064.35	16.9403
1066	16.0395
1067.64	15.3881
1069.28	14.0525
1070.93	13.7119
1072.57	12.5199
1074.21	12.1308
1075.85	11.3527
1077.49	10.5332
1079.13	9.74863
1080.78	8.89007
1082.42	8.29633
1084.06	8.50536
1085.7	7.4012
1087.34	6.8088
1088.97	5.66569
1090.61	5.30113
1092.25	5.26498
1093.89	4.46572
1095.53	3.76416
1097.17	2.72294
1098.8	2.53545
1100.44	2.51328
1102.08	3.45151
1103.71	3.16504
1105.35	2.66866
1106.99	2.04666
1108.62	2.26835
1110.26	2.54515
1111.89	2.42757
1113.52	1.82408
1115.16	1.74972
1116.79	1.60547
1118.43	0.930236
1120.06	1.96865
1121.69	2.26002
1123.32	2.57921
1124.96	2.65735
1126.59	3.6642
1128.22	3.91302
1129.85	5.06663
1131.48	4.96622
1133.11	5.2441
1134.75	6.05876
1136.37	6.70069
1138	6.95924
1139.63	7.35464
1141.26	8.03163
1142.89	7.4574
1144.52	7.97468
1146.15	8.554
1147.78	8.61162
1149.4	9.10303
1151.03	9.25538
1152.66	9.21812
1154.28	8.61653
1155.91	9.25251
1157.54	8.99917
1159.16	9.73253
1160.79	9.90434
1162.41	9.51651
1164.04	9.59025
1165.66	8.70768
1167.29	8.4955
1168.91	8.47396
1170.53	8.95197
1172.16	8.77462
1173.78	8.42373
1175.4	7.84339
1177.02	7.57309
1178.65	7.72062
1180.27	8.01856
1181.89	7.63083
1183.51	7.38094
1185.13	5.62438
1186.75	4.93791
1188.37	4.25947
1189.99	4.7846
1191.61	4.1479
1193.23	3.38023
1194.85	2.99858
1196.47	2.81623
1198.08	2.85103
1199.7	2.75939
1201.32	2.17381
1202.94	2.3552
1204.55	2.81716
1206.17	3.49255
1207.79	4.42564
1209.4	4.5881
1211.02	5.16618
1212.63	5.45012
1214.25	6.55165
1215.86	6.46985
1217.48	7.13168
1219.09	7.59488
1220.71	8.94473
1222.32	10.0195
1223.93	11.2095
1225.54	11.4873
1227.16	12.0434
1228.77	12.8638
1230.38	13.6555
1231.99	14.4499
1233.6	14.6059
1235.22	15.5715
1236.83	16.0559
1238.44	17.0184
1240.05	18.0259
1241.66	18.6268
1243.26	19.4356
1244.87	19.8334
1246.48	20.11
1248.09	21.2381
1249.7	21.5933
1251.31	22.0924
1252.92	21.4741
1254.52	21.7851
1256.13	21.9656
1257.74	22.0736
1259.34	22.4986
1260.95	22.651
1262.55	22.0097
1264.16	22.3482
1265.76	23.0917
1267.37	24.0616
1268.97	24.3896
1270.58	24.2654
1272.18	23.8546
1273.78	24.3251
1275.39	24.3863
1276.99	24.2473
1278.59	24.967
1280.2	25.974
1281.8	25.7656
1283.4	27.7752
1285	27.925
1286.6	28.3297
1288.2	28.2327
1289.8	28.3301
1291.4	28.4822
1293	28.1963
1294.6	28.6876
1296.2	28.2913
1297.8	29.2433
1299.4	29.1673
1301	29.581
1302.6	28.9899
1304.19	29.0361
1305.79	28.0588
1307.39	28.1872
1308.99	28.1682
1310.58	27.8671
1312.18	27.398
1313.77	27.5528
1315.37	27.7994
1316.96	27.0303
1318.56	27.6834
1320.15	27.1477
1321.75	27.3215
1323.34	25.9989
1324.94	24.9718
1326.53	24.7889
1328.12	24.8832
1329.72	24.7289
1331.31	24.2343
1332.9	23.7866
1334.49	23.576
1336.08	23.4697
1337.67	23.6693
1339.27	23.5515
1340.86	22.9668
1342.45	23.3429
1344.04	23.5456
1345.63	23.9953
1347.22	23.136
1348.8	22.8261
1350.39	22.2444
1351.98	22.1899
1353.57	22.8456
1355.16	22.7482
1356.75	23.4056
1358.33	24.188
1359.92	23.8543
1361.51	23.6696
1363.09	24.2373
1364.68	24.302
1366.27	23.9165
1367.85	23.3708
1369.44	23.2408
1371.02	22.4519
1372.61	22.5331
1374.19	23.0839
1375.77	23.4448
1377.36	23.7496
1378.94	23.3841
1380.52	23.2154
1382.11	22.7681
1383.69	23.2055
1385.27	22.7117
1386.85	22.8893
1388.43	23.1722
1390.02	22.773
1391.6	22.4941
1393.18	22.4476
1394.76	21.4021
1396.34	20.7537
1397.92	20.6177
1399.5	19.7321
1401.08	19.4483
1402.65	18.5815
1404.23	18.8569
1405.81	19.0583
1407.39	19.9721
1408.97	20.0547
1410.54	20.5985
1412.12	20.5947
1413.7	21.1757
1415.27	21.5887
1416.85	21.8153
1418.43	22.2583
1420	23.1001
1421.58	24.1234
1423.15	24.2495
1424.73	25.0755
1426.3	25.7468
1427.87	26.7511
1429.45	27.7648
1431.02	28.7044
1432.6	29.8508
1434.17	30.5922
1435.74	31.7005
1437.31	31.7622
1438.89	32.7823
1440.46	32.9972
1442.03	33.5125
1443.6	33.9432
1445.17	33.9177
1446.74	34.312
1448.31	34.2437
1449.88	33.7565
1451.45	34.272
1453.02	34.5383
1454.59	34.7192
1456.16	35.1114
1457.72	35.3326
1459.29	35.4866
1460.86	35.6936
1462.43	35.9633
1463.99	35.0595
1465.56	34.843
1467.13	33.9926
1468.69	32.92
1470.26	32.4151
1471.83	31.2396
1473.39	30.7339
1474.95	30.7877
1476.52	30.5295
1478.08	30.1299
1479.65	29.7032
1481.21	29.2371
1482.78	29.3667
1484.34	29.6356
1485.9	29.655
1487.47	28.96
1489.03	28.6783
1490.59	27.5189
1492.15	28.1622
1493.71	27.3806
1495.27	26.8403
1496.84	26.2504
1498.39	25.5729
1499.96	24.9479
1501.52	24.4427
1503.07	24.3786
1504.64	24.066
1506.19	22.8081
1507.75	22.1269
1509.31	20.6533
1510.87	19.9668
1512.43	18.5766
1513.98	17.0504
1515.54	16.5058
1517.1	15.4692
1518.65	13.8243
1520.21	13.452
1521.77	11.9517
1523.32	10.8088
1524.88	9.57948
1526.44	8.83284
1527.99	8.26328
1529.54	8.52804
1531.1	8.54028
1532.65	8.34977
1534.21	8.92672
1535.76	8.57266
1537.31	8.11185
1538.87	7.83559
1540.42	8.08591
1541.97	7.45342
1543.52	7.98649
1545.07	7.84329
1546.63	7.84887
1548.18	8.09549
1549.73	8.50442
1551.28	9.11637
1552.83	10.1269
1554.38	9.75081
1555.93	9.9037
1557.48	10.2731
1559.03	10.8968
1560.57	12.3509
1562.12	12.8988
1563.67	13.1885
1565.22	14.4113
1566.77	15.0674
1568.31	15.6517
1569.86	16.6336
1571.41	16.7378
1572.95	17.6153
1574.5	19.0032
1576.05	20.2429
1577.59	20.6732
1579.14	21.4683
1580.68	21.8109
1582.23	21.6817
1583.77	21.9414
1585.31	22.1829
1586.86	22.6606
1588.4	23.892
1589.95	24.7581
1591.49	25.7149
1593.03	26.3716
1594.57	26.3073
1596.11	26.3232
1597.66	26.9499
1599.2	26.4566
1600.74	26.6875
1602.28	27.1583
1603.82	27.0175
1605.36	26.5201
1606.9	26.7587
1608.44	26.6591
1609.98	26.8013
1611.52	26.7557
1613.06	26.1334
1614.6	25.7664
1616.13	25.1444
1617.67	24.6498
1619.21	24.3016
1620.75	24.4161
1622.28	23.6062
1623.82	23.5442
1625.36	23.1904
1626.89	22.2635
1628.43	21.923
1629.96	22.1259
1631.5	21.881
1633.04	22.3412
1634.57	22.5228
1636.11	23.3692
1637.64	23.7191
1639.17	23.4022
1640.71	23.4997
1642.24	23.1751
1643.77	23.1543
1645.31	22.9839
1646.84	23.4331
1648.37	23.3585
1649.9	23.2087
1651.43	23.3237
1652.96	23.3087
1654.5	22.9446
1656.03	23.272
1657.56	22.8592
1659.09	23.2198
1660.62	23.7087
1662.15	23.3836
1663.67	23.3593
1665.2	23.4667
1666.73	23.2168
1668.26	21.8983
1669.79	21.4408
1671.32	20.7554
1672.84	19.8238
1674.37	19.3121
1675.9	17.6238
1677.43	17.0086
1678.95	16.2809
1680.48	15.2339
1682	14.6919
1683.53	14.2715
1685.05	13.4945
1686.58	12.443
1688.1	11.6868
1689.63	10.9502
1691.15	10.6718
1692.68	10.1455
1694.2	10.3974
1695.72	10.3196
1697.25	8.62843
1698.77	7.96333
1700.29	7.89114
1701.81	7.3971
1703.33	7.37384
1704.86	7.83498
1706.38	7.64055
1707.9	7.48591
1709.42	7.42114
1710.94	7.27684
1712.46	6.65113
1713.98	6.04573
1715.5	5.61888
1717.02	5.45141
1718.54	4.9527
1720.06	5.50563
1721.57	5.30279
1723.09	5.31996
1724.61	5.0681
1726.13	5.21893
1727.64	5.49263
1729.16	5.7472
1730.68	5.15693
1732.19	5.07433
1733.71	5.17806
1735.23	5.81968
1736.74	5.54488
1738.26	5.8121
1739.77	5.91641
1741.29	6.61642
1742.8	6.40577
1744.31	6.17936
1745.83	5.80712
1747.34	5.42565
1748.85	5.42932
1750.37	5.18513
1751.88	5.33204
1753.39	5.92056
1754.91	5.70439
1756.42	5.64838
1757.93	5.64055
1759.44	5.34753
1760.95	4.94475
1762.46	4.79743
1763.97	5.23647
1765.48	4.93363
1766.99	4.52221
1768.5	4.03373
1770.01	3.91714
1771.52	3.23282
1773.03	2.54655
1774.54	3.19924
1776.04	2.89454
1777.55	2.39413
1779.06	1.83783
1780.57	0.832264
1782.07	-0.0384876
1783.58	-0.471453
1785.09	-1.11555
1786.59	-1.45818
1788.1	-1.33011
1789.6	-0.513038
1791.11	-0.270076
1792.61	0.448947
1794.12	1.07387
1795.62	1.51142
1797.13	1.55248
1798.63	1.37193
1800.13	1.43384
1801.64	1.62334
1803.14	1.71219
1804.64	1.77632
1806.15	1.88851
1807.65	2.90344
1809.15	3.6286
1810.65	3.95301
1812.15	4.15245
1813.65	4.52798
1815.16	4.86876
1816.66	5.29178
1818.15	5.20937
1819.66	5.50184
1821.16	5.54956
1822.65	5.9545
1824.15	5.68397
1825.65	5.36958
1827.15	5.33123
1828.65	5.16139
1830.15	5.13202
1831.64	5.54867
1833.14	5.65565
1834.64	5.89319
1836.14	5.90978
1837.63	5.84529
1839.13	5.43613
1840.62	4.87862
1842.12	4.77538
1843.62	4.83483
1845.11	4.65451
1846.61	4.14768
1848.1	3.54703
1849.6	3.2189
1851.09	2.28681
1852.58	1.84045
1854.08	1.14024
1855.57	1.4366
1857.06	1.67539
1858.55	2.33879
1860.05	2.78208
1861.54	3.74696
1863.03	4.02906
1864.52	4.36566
1866.01	4.64679
1867.5	4.72276
1869	4.46273
1870.49	4.15453
1871.98	3.84825
1873.47	3.72367
1874.96	3.66646
1876.44	3.99001
1877.93	4.03171
1879.42	4.42869
1880.91	4.83807
1882.4	4.76457
1882.47	4.13328
1883.96	4.3511
1885.46	4.55543
1886.95	4.81874
1888.44	5.02213
1889.94	5.02826
1891.43	5.09585
1892.93	4.91134
1894.42	4.95805
1895.91	5.06491
1897.4	5.18971
1898.89	5.38813
1900.39	5.58716
1901.88	5.83637
1903.37	6.14473
1904.86	6.45155
1906.35	6.4216
1907.84	6.23359
1909.33	5.69579
1910.82	5.43877
1912.31	5.04346
1913.8	4.7195
1915.29	4.42245
1916.77	4.31417
1918.26	4.22706
1919.75	4.52328
1921.24	3.91379
1922.73	3.84247
1924.21	3.48015
1925.7	3.63399
1927.19	4.13883
1928.67	4.28446
1930.16	4.33258
1931.64	4.64508
1933.13	5.0077
1934.61	5.27569
1936.1	4.71825
1937.58	5.01762
1939.07	4.78971
1940.55	4.43831
1942.04	3.95078
1943.52	3.66077
1945	3.68517
1946.49	4.12909
1947.97	3.66267
1949.45	3.78269
1950.93	3.87946
1952.42	4.05936
1953.9	3.74966
1955.38	3.71889
1956.86	4.0706
1958.34	4.48369
1959.82	4.6566
1961.3	4.92741
1962.78	4.84135
1964.26	5.20081
1965.74	4.90955
1967.22	4.73383
1968.7	4.55399
1970.18	4.6303
1971.65	4.32723
1973.13	4.31732
1974.61	4.10551
1976.09	3.91144
1977.57	3.74689
1979.04	3.48546
1980.52	3.18568
1982	2.97725
1983.47	2.86038
1984.95	2.28803
1986.42	1.85324
1987.9	2.29411
1989.37	2.5012
1990.85	2.77837
1992.32	3.10466
1993.8	3.14161
1995.27	2.35097
1996.75	2.8463
1998.22	3.04367
1999.69	3.43131
2001.17	3.76839
2002.64	3.68362
2004.11	4.13327
2005.58	4.11321
2007.05	3.75208
2008.53	3.27883
2010	2.80614
2011.47	3.42637
2012.94	3.44314
2014.41	3.47268
2015.88	3.67579
2017.35	4.24711
2018.82	4.58511
2020.29	4.62224
2021.76	4.08584
2023.23	4.68135
2024.7	5.01186
2026.16	5.01813
2027.63	5.11657
2029.1	5.44276
2030.57	5.29851
2032.03	5.23488
2033.5	5.19913
2034.97	5.67242
2036.44	5.55231
2037.9	5.84806
2039.37	5.66087
2040.83	5.48187
2042.3	6.09135
2043.76	6.5754
2045.23	6.65323
2046.69	7.11257
2048.16	7.29654
2049.62	7.82517
2051.08	7.79572
2052.55	7.78132
2054.01	8.04848
2055.47	8.05236
2056.94	8.23486
2058.4	8.60789
2059.86	9.12632
2061.32	9.75583
2062.79	9.68011
2064.25	9.99823
2065.71	9.99836
2067.17	10.1296
2068.63	10.1638
2070.09	10.3733
2071.55	10.3759
2073.01	10.5141
2074.47	10.7669
2075.93	10.8414
2077.39	11.0728
2078.85	10.7746
2080.31	10.5372
2081.76	10.8744
2083.22	11.4149
2084.68	11.6519
2086.13	11.306
2087.59	11.0387
2089.05	10.738
2090.51	10.3891
2091.96	10.4618
2093.42	10.2431
2094.87	10.3303
2096.33	10.6894
2097.78	10.4204
2099.24	10.3809
2100.69	10.3243
2102.15	10.0113
2103.6	10.4206
2105.06	11.1719
2106.51	11.1533
2107.96	11.6437
2109.42	11.5244
2110.87	11.9455
2112.32	12.1024
2113.77	12.4751
2115.23	13.0204
2116.68	13.2346
2118.13	13.4476
2119.58	13.7274
2121.03	14.3414
2122.48	14.4721
2123.93	14.8131
2125.38	15.4773
2126.83	16.6332
2128.28	17.6441
2129.73	18.7627
2131.18	19.6524
2132.63	19.9253
2134.08	20.9774
2135.53	21.9324
2136.97	22.4211
