#Acq. time (s)=	45
#Accumulations=	2
#Range (cm-¹)=	200...3150
#Windows=	2
#Auto scanning=	Off
#Autofocus=	Off
#Macrospot=	Off
#AutoExposure=	Off
#Spike filter=	Multiple accum.
#Delay time (s)=	0
#Binning=	1
#Readout mode=	Signal
#DeNoise=	Off
#ICS correction=	On
#Dark correction=	Off
#Inst. Process=	Off
#Detector Gain=	Best Dynamic Range
#Detector ADC=	20 kHz       
#Detector temperature (°C)=	-69.85
#Instrument=	LabRAM HR Evol
#Detector=	Synapse
#Objective=	x100
#Grating=	600 gr/mm
#ND Filter=	100%
#Laser (nm)=	532 
#Hole=	100.021
#Range=	Auto
#Laser Pol.=	No
#Raman. Pol.=	No
#Laser Pol. (°)=	-0.0007625
#Raman Pol. (°)=	89.9995
#Collection=	Microscope
#StageXY=	Marzhauser
#StageZ=	Marzhauser
#X (µm)=	-1075
#Y (µm)=	571.3
#Z (µm)=	584.5
#Full time(mm:ss)=	3:19
#Project=	
#Sample=	
#Site=	
#Title=	Mb_40_y_27_2x_45s_532 nm_x100_100%_600 gr_mm
#Remark=	
#Date=	19.07.2022 11:22
#Acquired=	19.07.2022 11:22:12
#Base:Fit=	10.08.2022 10:52:48
#Base:Sub=	10.08.2022 10:52:53
#Filter:Polynom=	16.08.2022 10:09:04
#AxisType[0]=Intens
#AxisUnit[0]=Cnt
#AxisType[1]=Spectr
#AxisUnit[1]=1/cm
200.423	12.5619
202.238	12.8258
204.052	11.2064
205.868	10.1032
207.682	8.87761
209.495	7.59912
211.308	6.90734
213.12	6.06139
214.935	5.59667
216.746	5.45865
218.558	4.68841
220.369	2.73178
222.18	1.59686
223.992	1.59928
225.802	1.74273
227.612	1.42839
229.421	0.293445
231.23	0.386959
233.039	1.11338
234.849	1.94595
236.657	2.45243
238.465	2.62639
240.272	2.51885
242.079	2.76398
243.885	2.57827
245.691	3.2187
247.497	3.28401
249.305	2.95859
251.11	3.55018
252.915	2.40546
254.719	2.40564
256.523	3.23754
258.327	2.90257
260.13	3.49378
261.933	4.27641
263.736	4.55016
265.538	4.10978
267.34	4.11614
269.141	3.58076
270.943	4.16198
272.744	5.02318
274.544	5.70754
276.344	6.0525
278.144	6.89253
279.944	7.66428
281.743	7.81525
283.542	7.79742
285.34	8.94807
287.138	9.65704
288.936	9.62124
290.733	9.12382
292.53	8.99697
294.327	10.1506
296.123	10.5894
297.919	10.8882
299.715	11.9039
301.508	12.228
303.303	11.7081
305.098	11.9201
306.892	11.9282
308.686	12.0068
310.479	12.6466
312.273	13.2975
314.065	14.4478
315.858	14.1312
317.648	14.6265
319.44	14.9708
321.231	16.2353
323.022	16.0609
324.813	15.1939
326.604	14.8399
328.392	14.7687
330.181	14.6202
331.971	14.5486
333.76	14.1264
335.548	13.8004
337.335	12.7424
339.123	11.7039
340.91	11.3014
342.698	10.5948
344.483	11.3589
346.269	11.8857
348.055	11.0584
349.841	10.9002
351.625	8.99582
353.41	9.23412
355.195	8.44396
356.977	8.26576
358.762	7.96845
360.545	7.71591
362.329	7.70064
364.11	7.55884
365.893	8.01237
367.675	7.61222
369.455	7.06665
371.237	5.98725
373.017	6.48402
374.798	6.7364
376.578	6.38659
378.357	5.77266
380.137	5.88611
381.917	5.74136
383.694	6.08884
385.473	5.94334
387.249	5.65564
389.028	5.85933
390.806	5.09268
392.581	5.50469
394.359	6.13934
396.134	6.52801
397.91	7.20957
399.684	7.73827
401.46	7.00352
403.234	8.37266
405.009	8.10203
406.784	8.26787
408.557	7.37863
410.331	7.1318
412.103	6.64275
413.876	7.12727
415.647	8.3309
417.42	8.39145
419.191	8.62987
420.961	9.20802
422.733	9.44315
424.502	9.77606
426.273	10.0259
428.042	9.8332
429.812	11.3008
431.58	12.2591
433.35	13.0314
435.118	12.6252
436.885	12.0448
438.653	11.9821
440.42	12.1513
442.188	14.4612
443.954	14.6925
445.719	15.2975
447.486	15.2338
449.251	14.8456
451.015	14.8868
452.781	15.1036
454.545	14.8147
456.308	14.0985
458.073	14.2859
459.836	14.6118
461.598	14.8984
463.362	14.7275
465.124	14.3134
466.885	14.3415
468.648	14.5539
470.408	14.995
472.169	15.7197
473.929	15.9755
475.69	16.1135
477.45	16.0034
479.208	15.9748
480.967	16.5602
482.727	16.5825
484.485	16.1351
486.243	16.4305
488	16.8961
489.759	16.0558
491.515	16.9769
493.272	16.1029
495.028	16.3298
496.783	17.0999
498.54	17.9792
500.295	18.7509
502.05	20.1387
503.804	21.1806
505.558	21.4989
507.311	22.7756
509.064	23.139
510.819	23.4228
512.572	23.9329
514.324	24.5867
516.076	25.0193
517.827	26.0053
519.578	25.7306
521.329	26.8046
523.08	26.6996
524.83	26.0857
526.58	25.401
528.329	24.6124
530.08	24.2772
531.829	22.8019
533.578	21.5628
535.326	19.6762
537.074	18.3438
538.821	17.6513
540.568	16.8284
542.315	16.1905
544.062	14.9131
545.808	15.0682
547.554	13.935
549.299	12.9706
551.044	12.3145
552.789	11.6183
554.533	11.2343
556.278	10.6778
558.019	10.7104
559.763	10.7768
561.506	10.0974
563.249	9.39663
564.991	8.51939
566.733	7.62654
568.475	7.72715
570.217	8.28827
571.958	8.34473
573.699	8.88078
575.439	9.04619
577.177	8.63415
578.917	9.15766
580.656	9.25592
582.396	10.0446
584.134	10.8703
585.873	10.9379
587.609	10.9519
589.347	11.47
591.084	11.4615
592.822	11.7608
594.558	12.7739
596.295	12.7511
598.029	13.0755
599.765	13.9492
601.5	15.0685
603.235	15.3579
604.968	15.2678
606.703	14.8129
608.437	14.7166
610.171	13.029
611.902	12.5579
613.635	13.0193
615.368	13.0755
617.099	13.3555
618.831	13.0754
620.563	12.5417
622.294	11.7375
624.024	11.9401
625.755	11.8885
627.485	11.5635
629.213	12.1642
630.943	11.8731
632.673	12.303
634.4	13.5658
636.129	14.2465
637.855	14.9883
639.584	16.0857
641.312	16.8861
643.037	19.0033
644.764	20.1416
646.491	20.7258
648.216	21.1225
649.942	21.3188
651.666	21.7956
653.392	22.1084
655.115	23.0946
656.84	22.7683
658.563	23.0121
660.287	22.4599
662.011	23.0687
663.732	23.1853
665.456	24.6427
667.177	25.2468
668.899	26.1666
670.62	26.8845
672.342	26.5099
674.061	27.2549
675.781	28.375
677.502	29.8533
679.22	31.0303
680.941	31.8684
682.659	32.0571
684.379	33.2882
686.096	34.4288
687.815	34.6236
689.532	34.2903
691.248	34.7086
692.966	35.3329
694.682	36.18
696.4	36.7514
698.115	37.2767
699.829	38.3097
701.546	38.4319
703.26	38.6233
704.974	39.3396
706.689	40.1313
708.402	41.3934
710.115	42.8282
711.83	43.947
713.542	44.3322
715.254	45.5322
716.967	46.4351
718.679	47.7261
720.39	49.5053
722.102	49.3577
723.812	50.3346
725.522	51.3443
727.232	52.4066
728.943	52.5026
730.652	52.5179
732.361	52.9609
734.069	53.0844
735.779	53.5171
737.487	53.5095
739.194	54.2101
740.901	54.3221
742.608	53.8773
744.316	55.0155
746.022	54.6248
747.728	55.5589
749.433	55.8167
751.138	56.934
752.843	57.7185
754.549	58.4918
756.254	59.472
757.957	60.342
759.661	61.9607
761.364	63.0538
763.067	64.7422
764.769	65.2488
766.471	65.8462
768.175	66.6164
769.877	68.1307
771.578	68.2474
773.279	69.8094
774.98	71.2494
776.68	72.8448
778.38	73.8518
780.079	75.2575
781.779	75.9301
783.478	77.1929
785.176	78.3606
786.875	79.8528
788.573	81.8663
790.27	83.8611
791.968	85.3332
793.665	85.1195
795.361	86.1673
797.058	86.6415
798.754	86.0692
800.45	86.9419
802.145	87.3621
803.84	86.7608
805.535	86.6255
807.23	86.218
808.922	86.4325
810.616	87.2056
812.309	87.0916
814.002	85.6377
815.695	85.4954
817.388	85.4182
819.08	84.3654
820.772	83.6287
822.464	82.4179
824.153	81.5584
825.844	80.3884
827.535	79.5976
829.225	79.3943
830.915	78.4547
832.605	78.1295
834.292	77.6576
835.981	76.6047
837.67	75.9035
839.359	73.939
841.047	72.9704
842.732	71.8771
844.42	70.6974
846.107	69.237
847.794	68.3607
849.479	66.6297
851.165	65.5827
852.851	64.3729
854.534	63.0638
856.22	62.4949
857.905	62.324
859.589	61.3082
861.272	60.4128
862.956	60.3349
864.639	59.3482
866.321	58.2434
868.004	58.5405
869.687	57.6358
871.367	58.5218
873.049	58.0267
874.731	56.8646
876.41	56.0342
878.092	55.0869
879.771	55.7212
881.451	55.2159
883.131	54.8901
884.809	54.7897
886.489	53.4858
888.166	53.5301
889.845	53.8017
891.522	54.2244
893.2	54.3597
894.878	54.1552
896.554	53.1678
898.231	52.4955
899.906	53.1097
901.583	53.2596
903.258	51.6075
904.934	51.7585
906.608	51.1439
908.283	50.8291
909.956	50.8494
911.631	50.0356
913.304	49.9745
914.976	49.9748
916.65	50.4622
918.322	49.3319
919.995	47.9949
921.666	47.3949
923.339	46.6398
925.009	45.4976
926.679	44.5588
928.351	43.4102
930.021	42.831
931.692	42.8697
933.361	42.2054
935.029	41.644
936.699	40.4568
938.367	39.7383
940.035	39.4991
941.704	38.0227
943.371	38.1762
945.038	38.2092
946.706	38.0245
948.372	37.3983
950.038	37.3793
951.705	37.6756
953.37	36.8386
955.035	36.9821
956.7	37.3324
958.366	36.2894
960.03	35.7333
961.693	35.6311
963.357	36.1277
965.021	35.6637
966.684	35.3493
968.346	34.5421
970.008	34.3646
971.67	35.2386
973.334	33.8137
974.995	33.2576
976.655	32.6698
978.316	31.2278
979.976	30.3258
981.638	29.6711
983.297	28.4361
984.957	26.8488
986.616	25.9277
988.274	25.743
989.932	24.4451
991.59	23.7447
993.248	23.0897
994.907	22.0577
996.565	20.768
998.221	19.857
999.878	18.2017
1001.53	16.1315
1003.19	14.8662
1004.85	13.9548
1006.5	14.237
1008.16	15.002
1009.81	17.1202
1011.46	20.89
1013.12	24.2611
1014.77	28.3588
1016.43	32.726
1018.08	36.6823
1019.73	41.3921
1021.38	46.4349
1023.04	51.0485
1024.69	56.1371
1026.34	60.6434
1027.99	64.2269
1029.64	66.6705
1031.29	70.3131
1032.94	73.0861
1034.59	75.6044
1036.24	77.5232
1037.89	78.7382
1039.54	80.4726
1041.19	80.6045
1042.84	81.8552
1044.48	82.4451
1046.13	83.1094
1047.78	82.5302
1049.42	82.1844
1051.07	80.3027
1052.72	78.8099
1054.36	76.7791
1056.01	74.058
1057.66	71.9084
1059.3	68.7489
1060.94	64.9568
1062.59	61.7615
1064.23	57.9054
1065.88	53.0914
1067.52	48.919
1069.16	44.5044
1070.81	39.5743
1072.45	34.6974
1074.09	30.0698
1075.73	25.1045
1077.38	19.9944
1079.02	15.402
1080.66	11.1785
1082.3	7.11104
1083.94	4.71536
1085.58	2.19403
1087.22	0.787699
1088.86	1.7961
1090.5	2.38085
1092.13	3.62319
1093.77	5.04325
1095.41	6.15375
1097.05	7.44199
1098.68	8.4935
1100.32	8.35223
1101.96	9.6106
1103.6	10.2141
1105.23	10.4211
1106.87	11.3231
1108.5	10.8335
1110.14	11.3902
1111.77	11.4677
1113.41	12.6179
1115.04	13.2511
1116.67	13.0713
1118.31	12.8217
1119.94	12.8497
1121.58	13.8191
1123.21	13.5661
1124.84	13.3712
1126.47	13.1196
1128.1	13.4661
1129.73	13.136
1131.37	13.2515
1133	12.561
1134.63	12.7499
1136.26	12.3897
1137.89	11.4015
1139.52	10.6634
1141.14	10.5702
1142.77	9.94326
1144.4	9.91972
1146.03	9.99738
1147.66	9.82817
1149.29	9.09885
1150.91	8.19031
1152.54	7.6541
1154.17	6.11387
1155.79	5.13285
1157.42	3.62591
1159.04	3.17271
1160.67	2.92982
1162.3	2.62642
1163.92	2.90609
1165.55	2.79059
1167.17	2.17373
1168.79	2.28141
1170.42	3.28317
1172.04	3.45502
1173.66	3.55323
1175.28	3.75373
1176.91	3.84648
1178.53	3.37145
1180.15	3.70468
1181.77	3.34901
1183.39	3.78407
1185.01	3.83445
1186.63	4.03501
1188.25	4.23559
1189.87	4.07514
1191.49	4.85668
1193.11	5.21602
1194.73	5.63636
1196.35	5.62269
1197.97	4.7152
1199.59	4.83348
1201.2	5.86613
1202.82	5.66719
1204.44	5.96954
1206.05	5.93725
1207.67	6.98796
1209.29	7.73941
1210.9	7.8893
1212.52	8.46917
1214.13	8.54428
1215.75	9.16642
1217.36	9.21101
1218.97	10.4515
1220.59	11.8474
1222.2	12.1578
1223.82	12.6827
1225.43	13.8282
1227.04	13.6561
1228.65	13.9528
1230.26	14.0167
1231.88	14.7372
1233.49	15.3668
1235.1	15.6905
1236.71	16.7696
1238.32	17.0803
1239.93	17.9971
1241.54	18.5346
1243.15	18.7641
1244.76	18.4264
1246.37	18.7572
1247.97	19.0239
1249.58	19.8401
1251.19	21.0199
1252.8	20.623
1254.41	19.8751
1256.01	19.2266
1257.62	19.0039
1259.23	18.8725
1260.83	18.8167
1262.44	18.8714
1264.04	20.1358
1265.65	21.1308
1267.25	21.8096
1268.86	22.3397
1270.46	23.6212
1272.07	24.571
1273.67	25.2818
1275.27	25.7942
1276.88	27.008
1278.48	28.1156
1280.08	29.9549
1281.68	31.1124
1283.28	31.433
1284.89	33.094
1286.49	33.7413
1288.09	34.8821
1289.69	35.1555
1291.29	35.5536
1292.89	36.7808
1294.49	37.3696
1296.09	37.6597
1297.69	37.4329
1299.29	37.8805
1300.88	37.4479
1302.48	37.6512
1304.08	38.3339
1305.68	38.9681
1307.27	39.2083
1308.87	40.1182
1310.47	40.2682
1312.06	40.7013
1313.66	41.2185
1315.25	41.9942
1316.85	41.5742
1318.44	41.0195
1320.04	40.8042
1321.63	40.2206
1323.23	40.0955
1324.82	39.1735
1326.41	39.1684
1328.01	38.2785
1329.6	37.3312
1331.19	37.3895
1332.78	36.0257
1334.38	35.8711
1335.97	35.9866
1337.56	36.0961
1339.15	35.9202
1340.74	35.5209
1342.33	35.6235
1343.92	35.3073
1345.51	34.8718
1347.1	34.2057
1348.69	34.1551
1350.28	34.1361
1351.87	33.3349
1353.46	32.8167
1355.04	32.3738
1356.63	31.9355
1358.22	31.1031
1359.81	30.0698
1361.39	28.8947
1362.98	28.3811
1364.57	27.7681
1366.15	27.204
1367.74	26.2199
1369.32	25.2599
1370.91	25.1717
1372.49	24.5455
1374.07	23.9023
1375.66	23.19
1377.24	22.2009
1378.83	21.6888
1380.41	21.1769
1381.99	20.9875
1383.57	21.0188
1385.16	21.4444
1386.74	21.572
1388.32	21.929
1389.9	21.8985
1391.48	22.1152
1393.06	21.5645
1394.64	21.0822
1396.22	20.3271
1397.8	20.2434
1399.38	20.7441
1400.96	20.9901
1402.54	20.9891
1404.12	21.4709
1405.7	22.7196
1407.28	22.5408
1408.85	24.6682
1410.43	25.8465
1412.01	26.4367
1413.58	26.8499
1415.16	27.8306
1416.74	28.2709
1418.31	28.9856
1419.89	29.7743
1421.46	31.7901
1423.04	32.7969
1424.61	34.2274
1426.19	35.3196
1427.76	37.0234
1429.33	38.4372
1430.91	39.2225
1432.48	40.934
1434.05	42.4996
1435.63	43.3194
1437.2	44.0129
1438.77	44.7873
1440.34	46.2329
1441.91	46.968
1443.49	47.1967
1445.05	48.0125
1446.63	48.0273
1448.2	48.631
1449.77	49.1405
1451.34	48.6625
1452.91	49.0086
1454.47	48.9968
1456.04	48.4693
1457.61	48.4351
1459.18	47.7189
1460.75	47.6315
1462.31	47.4566
1463.88	47.6892
1465.45	47.3904
1467.01	47.0385
1468.58	46.1789
1470.15	45.1005
1471.71	43.7766
1473.28	43.2546
1474.84	41.8835
1476.41	41.0476
1477.97	39.6828
1479.54	39.1869
1481.1	38.5729
1482.66	38.304
1484.23	36.981
1485.79	35.8241
1487.35	35.6918
1488.91	33.8584
1490.48	32.7114
1492.04	31.1757
1493.6	31.0161
1495.16	29.7188
1496.72	29.0973
1498.28	28.9889
1499.84	28.2642
1501.4	26.7315
1502.96	25.8056
1504.52	25.8743
1506.08	25.5597
1507.64	25.5251
1509.2	24.6425
1510.76	23.4401
1512.31	21.9362
1513.87	19.8913
1515.43	19.357
1516.99	18.8241
1518.54	17.7211
1520.1	17.2619
1521.66	17.321
1523.21	17.0276
1524.77	16.4824
1526.32	15.8455
1527.88	15.0445
1529.43	14.8535
1530.99	15.1759
1532.54	15.2396
1534.09	15.0176
1535.65	15.1654
1537.2	15.0693
1538.75	16.4018
1540.31	17.1384
1541.86	18.317
1543.41	18.4259
1544.96	19.1468
1546.51	18.9952
1548.06	19.5751
1549.62	19.622
1551.17	19.4856
1552.72	19.455
1554.27	21.0126
1555.82	21.5742
1557.36	22.7059
1558.91	22.7153
1560.46	23.0996
1562.01	23.6429
1563.56	24.4908
1565.11	24.1701
1566.66	24.761
1568.2	24.4987
1569.75	25.1634
1571.3	25.7904
1572.84	26.2265
1574.39	26.8715
1575.93	27.1798
1577.48	27.4662
1579.02	27.8653
1580.57	28.4909
1582.11	29.1153
1583.66	28.7099
1585.2	29.0664
1586.75	27.7035
1588.29	27.1637
1589.83	28.1237
1591.38	27.9989
1592.92	28.5977
1594.46	27.9242
1596	28.2621
1597.54	28.5865
1599.09	27.9354
1600.63	27.0841
1602.17	27.6247
1603.71	27.093
1605.25	27.7712
1606.79	28.7901
1608.33	29.4493
1609.87	30.0169
1611.41	30.1518
1612.95	30.316
1614.48	31.1804
1616.02	31.8123
1617.56	31.3714
1619.1	31.9618
1620.64	31.709
1622.17	32.2044
1623.71	32.129
1625.25	32.6535
1626.78	32.8054
1628.32	33.6717
1629.86	34.7099
1631.39	35.576
1632.92	35.8093
1634.46	36.364
1635.99	36.7365
1637.53	37.138
1639.06	37.0847
1640.59	37.9369
1642.13	38.2913
1643.66	39.4102
1645.19	39.0806
1646.73	39.0231
1648.26	39.1329
1649.79	39.5662
1651.32	38.9694
1652.85	39.256
1654.38	38.5886
1655.92	38.3263
1657.45	37.4124
1658.98	36.778
1660.51	36.9052
1662.04	36.0785
1663.57	34.5393
1665.09	34.1866
1666.62	33.5741
1668.15	31.3114
1669.68	30.5656
1671.21	29.7719
1672.73	28.7044
1674.26	26.804
1675.79	25.4715
1677.31	24.4956
1678.84	23.9545
1680.37	22.4458
1681.89	22.3714
1683.42	21.7227
1684.94	20.5149
1686.47	19.4231
1687.99	18.3989
1689.52	17.9212
1691.04	16.6339
1692.57	15.6461
1694.09	14.837
1695.61	14.5207
1697.14	13.2357
1698.66	13.163
1700.18	12.6157
1701.7	12.1791
1703.22	12.0428
1704.75	11.573
1706.27	11.0008
1707.79	10.5525
1709.31	10.3221
1710.83	9.75005
1712.35	9.44272
1713.87	8.97512
1715.39	8.59374
1716.91	8.69985
1718.43	7.59528
1719.95	6.65817
1721.46	5.81075
1722.98	5.76253
1724.5	5.84649
1726.02	5.9348
1727.53	5.45414
1729.05	5.32768
1730.57	4.68989
1732.08	4.96478
1733.6	4.46422
1735.12	4.79466
1736.63	4.48933
1738.15	3.29168
1739.66	3.44262
1741.18	3.29264
1742.69	2.74933
1744.21	2.08626
1745.72	2.52478
1747.23	1.75877
1748.74	1.10853
1750.26	1.09199
1751.77	1.26866
1753.28	1.48431
1754.8	1.549
1756.31	1.28337
1757.82	1.57411
1759.33	1.38665
1760.84	0.457089
1762.35	0.35653
1763.86	0.468861
1765.37	-0.159745
1766.88	-0.697312
1768.39	0.0247096
1769.9	-0.290141
1771.41	-0.368763
1772.92	-0.647154
1774.43	0.0270932
1775.93	0.654545
1777.44	0.709586
1778.95	1.10534
1780.46	0.715782
1781.96	0.207243
1783.47	0.000122066
1784.98	0.358314
1786.48	0.511926
1787.99	0.405805
1789.49	0.586208
1791	0.664062
1792.5	1.12795
1794.01	1.35968
1795.51	2.03486
1797.02	2.90163
1798.52	3.53635
1800.03	3.76584
1801.53	4.36882
1803.03	4.33878
1804.53	4.75135
1806.04	5.39686
1807.54	5.9105
1809.04	6.06021
1810.54	6.47057
1812.04	6.97349
1813.54	7.30356
1815.05	7.53016
1816.55	7.74795
1818.05	7.86758
1819.55	8.27303
1821.05	8.63234
1822.55	9.06102
1824.05	9.2475
1825.54	9.31395
1827.04	9.22089
1828.54	8.77398
1830.04	8.38092
1831.54	8.51189
1833.03	8.16835
1834.53	7.87722
1836.03	7.45364
1837.52	7.24963
1839.02	6.64347
1840.52	6.19107
1842.01	6.29477
1843.51	6.337
1845	6.06471
1846.5	6.08216
1847.99	5.94964
1849.49	6.01278
1850.98	5.44286
1852.47	4.65273
1853.97	4.00821
1855.46	3.29226
1856.95	3.56305
1858.45	3.94177
1859.94	3.49243
1861.43	2.90847
1862.92	2.95072
1864.41	3.31954
1865.91	2.41803
1867.4	2.68852
1868.89	2.35863
1870.38	2.81016
1871.87	2.69745
1873.36	2.46522
1874.85	2.44912
1876.34	2.85347
1877.83	3.17703
1879.31	3.57597
1880.8	3.97503
1882.29	4.06979
1882.56	3.80822
1884.05	4.28636
1885.54	4.50402
1887.04	4.0809
1888.53	4.22597
1890.03	4.80789
1891.52	5.07841
1893.01	4.98836
1894.5	5.50634
1895.99	6.12136
1897.49	5.43201
1898.98	4.9168
1900.47	4.5456
1901.96	4.33655
1903.45	4.65476
1904.94	5.06508
1906.43	4.78868
1907.92	4.9283
1909.41	5.08268
1910.9	4.5856
1912.39	5.59419
1913.88	5.73381
1915.37	6.39524
1916.86	6.25395
1918.35	6.22324
1919.84	5.84754
1921.32	5.63679
1922.81	4.84317
1924.3	4.05819
1925.78	4.48244
1927.27	4.76506
1928.76	4.12312
1930.24	3.68282
1931.73	3.0162
1933.21	2.34691
1934.7	2.01684
1936.18	2.34593
1937.67	1.96016
1939.15	1.56419
1940.64	2.04954
1942.12	2.09629
1943.6	2.47371
1945.09	2.22228
1946.57	2.48262
1948.05	3.10034
1949.54	2.85363
1951.02	2.53098
1952.5	2.58509
1953.98	2.72836
1955.46	2.55202
1956.94	2.50993
1958.42	2.74223
1959.91	2.73838
1961.39	2.97013
1962.87	3.28932
1964.34	3.54072
1965.82	2.89911
1967.3	2.47498
1968.78	2.64412
1970.26	2.33372
1971.74	1.79258
1973.22	1.64749
1974.7	2.16865
1976.17	2.60395
1977.65	3.07182
1979.13	3.63169
1980.6	3.58443
1982.08	3.83871
1983.56	4.04542
1985.03	3.89783
1986.51	4.9296
1987.98	4.27362
1989.46	4.35451
1990.93	3.46158
1992.41	3.28609
1993.88	2.9367
1995.36	3.38731
1996.83	3.01316
1998.3	3.03467
1999.78	4.21903
2001.25	3.99915
2002.72	3.38671
2004.2	3.6309
2005.67	4.1495
2007.14	3.94952
2008.61	4.07508
2010.08	4.93215
2011.55	4.99773
2013.02	5.95337
2014.49	5.91703
2015.97	5.63922
2017.43	5.73731
2018.9	5.95913
2020.37	6.36124
2021.84	6.48855
2023.31	5.94654
2024.78	6.68198
2026.25	7.01715
2027.72	6.71447
2029.19	6.7312
2030.65	6.63019
2032.12	6.54812
2033.59	6.44298
2035.05	6.2484
2036.52	5.92726
2037.98	6.36734
2039.45	5.72638
2040.92	5.64954
2042.38	6.08892
2043.85	6.32078
2045.31	6.89269
2046.78	6.36693
2048.24	6.78001
2049.71	6.92963
2051.17	7.24016
2052.63	7.14906
2054.1	6.84946
2055.56	6.96857
2057.02	7.0611
2058.48	6.98219
2059.95	7.39361
2061.41	7.23422
2062.87	7.61881
2064.33	8.02875
2065.79	8.49065
2067.25	9.19713
2068.71	9.92758
2070.17	9.41566
2071.63	9.67521
2073.09	10.9931
2074.55	11.0831
2076.01	10.8184
2077.47	11.2904
2078.93	11.9644
2080.39	12.0548
2081.85	12.8826
2083.3	13.4009
2084.76	13.777
2086.22	13.8574
2087.68	14.1035
2089.13	14.4549
2090.59	15.1919
2092.05	16.0026
2093.5	16.5586
2094.96	16.912
2096.41	17.5089
2097.87	17.9714
2099.32	18.1616
2100.78	18.3283
2102.23	19.1948
2103.69	20.032
2105.14	21.0573
2106.59	21.2135
2108.05	21.9619
2109.5	22.3955
2110.95	22.7545
2112.41	22.5413
2113.86	23.2377
2115.31	24.1401
2116.76	24.3338
2118.21	24.8794
2119.67	24.6041
2121.12	26.2327
2122.57	27.053
2124.02	28.0849
2125.47	28.7081
2126.92	29.4908
2128.37	30.5488
2129.82	31.4646
2131.27	32.2021
