#Acq. time (s)=	45
#Accumulations=	2
#Range (cm-¹)=	200...3150
#Windows=	2
#Auto scanning=	Off
#Autofocus=	Off
#Macrospot=	Off
#AutoExposure=	Off
#Spike filter=	Multiple accum.
#Delay time (s)=	0
#Binning=	1
#Readout mode=	Signal
#DeNoise=	Off
#ICS correction=	On
#Dark correction=	Off
#Inst. Process=	Off
#Detector Gain=	Best Dynamic Range
#Detector ADC=	20 kHz       
#Detector temperature (°C)=	-69.85
#Instrument=	LabRAM HR Evol
#Detector=	Synapse
#Objective=	x100
#Grating=	600 gr/mm
#ND Filter=	100%
#Laser (nm)=	532 
#Hole=	100.021
#Range=	Auto
#Laser Pol.=	No
#Raman. Pol.=	No
#Laser Pol. (°)=	-0.0007625
#Raman Pol. (°)=	89.9995
#Collection=	Microscope
#StageXY=	Marzhauser
#StageZ=	Marzhauser
#X (µm)=	-1258.7
#Y (µm)=	2696.8
#Z (µm)=	586.8
#Full time(mm:ss)=	3:18
#Project=	
#Sample=	
#Site=	
#Title=	Mb_40_y_05_2x_45s_532 nm_x100_100%_600 gr_mm
#Remark=	
#Date=	18.07.2022 15:28
#Acquired=	18.07.2022 15:28:24
#Base:Fit=	10.08.2022 10:52:48
#Base:Sub=	10.08.2022 10:52:53
#Filter:Polynom=	16.08.2022 10:09:04
#AxisType[0]=Intens
#AxisUnit[0]=Cnt
#AxisType[1]=Spectr
#AxisUnit[1]=1/cm
200.419	68.1826
202.234	59.0925
204.048	52.532
205.862	47.0445
207.678	42.4005
209.491	38.1456
211.304	34.1368
213.116	30.579
214.928	28.4763
216.742	25.7839
218.554	23.2847
220.365	21.2109
222.176	18.9715
223.986	17.344
225.798	15.5553
227.608	13.4973
229.417	13.0539
231.226	12.0983
233.035	11.2893
234.843	10.8825
236.653	9.92583
238.46	8.7466
240.268	8.64662
242.074	8.52004
243.881	8.92486
245.687	9.15534
247.493	8.6004
249.298	8.2912
251.103	8.76857
252.908	9.0551
254.715	8.89457
256.519	9.44767
258.322	10.9834
260.126	11.4406
261.929	12.0045
263.731	13.6107
265.534	15.6239
267.336	15.8752
269.137	16.9144
270.938	16.52
272.739	15.9715
274.54	15.863
276.34	14.9503
278.14	14.1877
279.939	14.6671
281.739	13.9675
283.537	13.4623
285.336	11.966
287.134	12.0214
288.932	13.2908
290.729	13.9882
292.526	14.5678
294.323	13.8223
296.117	13.4664
297.913	12.68
299.709	13.2255
301.504	13.3642
303.299	13.5726
305.093	14.0271
306.888	12.277
308.682	11.6398
310.475	11.4999
312.268	11.8407
314.059	11.5499
315.852	11.397
317.644	11.4576
319.436	11.622
321.227	11.0404
323.018	11.1784
324.807	11.3651
326.597	11.3632
328.387	12.0274
330.177	12.6503
331.967	12.7538
333.753	12.6922
335.542	11.6209
337.331	10.9366
339.119	10.5774
340.906	10.7627
342.691	11.5575
344.478	11.2278
346.265	11.1616
348.051	11.4002
349.835	11.5277
351.621	11.5711
353.406	10.7874
355.189	10.6803
356.973	9.61627
358.757	9.55428
360.541	8.04207
362.323	7.79329
364.106	7.55017
365.889	6.05769
367.669	6.15515
369.451	5.45498
371.233	3.40606
373.012	1.44868
374.793	-0.86986
376.574	-0.884571
378.353	1.03586
380.133	0.892736
381.91	2.85517
383.69	4.55259
385.469	5.65492
387.245	6.71346
389.024	8.87629
390.8	10.1997
392.577	11.5138
394.353	12.4803
396.129	12.7672
397.906	14.8612
399.68	16.3199
401.456	17.6316
403.23	17.8008
405.005	19.0686
406.778	20.2233
408.552	21.3947
410.325	22.6531
412.099	24.0093
413.87	24.4259
415.643	25.3337
417.414	25.8272
419.187	25.8794
420.957	25.9512
422.728	25.3997
424.498	25.5733
426.269	26.2156
428.038	25.8169
429.806	26.3427
431.576	27.4705
433.344	25.5552
435.114	26.0462
436.881	26.2461
438.649	26.4145
440.416	24.9902
442.182	24.6886
443.949	23.3272
445.715	21.8812
447.48	20.764
449.247	19.3893
451.011	17.8727
452.777	16.0788
454.541	14.1901
456.304	13.859
458.069	11.756
459.832	9.93776
461.594	9.97211
463.358	11.0328
465.119	13.7154
466.881	15.6586
468.642	15.6444
470.404	15.7581
472.165	14.6567
473.925	14.8491
475.684	15.5041
477.445	17.1326
479.204	17.2418
480.963	16.737
482.721	16.6477
484.481	16.5873
486.239	17.2009
487.996	17.2242
489.753	18.3103
491.511	19.0033
493.268	19.6339
495.023	20.4697
496.779	20.4632
498.534	20.6291
500.289	21.3088
502.046	21.8949
503.8	22.742
505.554	22.9624
507.307	22.668
509.06	22.429
510.813	23.0588
512.566	24.2328
514.32	25.4645
516.072	26.2686
517.823	26.7996
519.574	27.6061
521.325	27.6154
523.076	28.9568
524.826	29.1546
526.576	29.7149
528.325	29.36
530.074	29.5806
531.823	29.4084
533.572	29.3943
535.32	29.6202
537.068	29.1764
538.815	29.1462
540.562	28.7818
542.309	28.0321
544.056	27.3233
545.802	26.5821
547.547	26.5249
549.293	25.698
551.038	24.9044
552.783	24.6313
554.527	24.2235
556.271	23.6724
558.015	23.0396
559.759	22.6377
561.502	22.3351
563.245	22.0555
564.987	22.3709
566.729	21.0305
568.471	20.197
570.213	20.4855
571.954	19.7444
573.693	19.7548
575.433	18.8226
577.173	18.3507
578.913	16.7296
580.652	16.2067
582.392	15.3218
584.13	14.6504
585.867	14.6793
587.605	13.8676
589.343	12.2901
591.08	10.6165
592.817	9.26404
594.552	8.91609
596.289	8.41643
598.025	9.17536
599.761	8.50212
601.496	8.96177
603.229	8.05813
604.964	7.49057
606.699	7.32271
608.433	6.88603
610.165	5.82764
611.898	5.92937
613.631	6.11866
615.364	5.57592
617.095	5.59603
618.827	4.90694
620.559	4.73479
622.288	5.27086
624.02	4.65871
625.75	5.08518
627.479	4.37446
629.209	4.35063
630.939	5.5643
632.667	6.30072
634.396	6.49025
636.125	6.8958
637.851	7.34881
639.58	9.10992
641.305	9.32258
643.033	9.69004
644.76	10.6296
646.485	11.81
648.212	13.151
649.936	14.6985
651.662	15.5507
653.388	15.6814
655.111	16.8027
656.836	17.9663
658.558	17.3353
660.283	18.0792
662.005	18.5522
663.728	20.0575
665.45	20.9607
667.173	22.3358
668.893	22.6666
670.616	23.614
672.336	24.2562
674.057	24.2179
675.777	25.1386
677.498	26.6507
679.216	28.0941
680.937	29.4844
682.655	30.7104
684.375	31.8314
686.092	32.2645
687.809	33.1744
689.528	32.8007
691.244	33.626
692.962	33.8884
694.678	35.234
696.393	36.7051
698.111	38.3201
699.825	38.9671
701.54	40.5342
703.256	41.5843
704.97	42.2855
706.685	43.4615
708.398	44.2868
710.111	45.1801
711.826	46.5673
713.538	47.1947
715.25	48.5493
716.961	50.7586
718.675	50.8377
720.386	52.1545
722.096	52.6531
723.808	52.9572
725.518	53.8875
727.228	53.0805
728.937	52.916
730.648	52.5608
732.357	52.2956
734.065	52.6668
735.773	52.2424
737.483	52.3591
739.19	53.0147
740.897	53.6338
742.604	54.3237
744.31	54.7167
746.018	55.5343
747.724	57.2561
749.429	58.9096
751.134	59.0372
752.839	59.85
754.544	60.5981
756.248	62.0576
757.953	63.1232
759.657	63.9246
761.36	63.8655
763.063	63.7524
764.765	65.3358
766.468	66.2813
768.169	67.7947
769.871	68.1773
771.572	69.8105
773.273	70.5124
774.976	72.6327
776.676	75.0042
778.376	76.3301
780.075	78.0294
781.775	79.6789
783.474	79.9896
785.172	81.7018
786.871	83.4977
788.569	84.6178
790.266	86.8133
791.964	87.9021
793.661	89.4761
795.358	90.1612
797.054	90.1963
798.75	90.6989
800.446	91.1348
802.141	90.9262
803.834	90.3131
805.529	89.3562
807.224	88.4991
808.918	87.5909
810.612	86.8136
812.305	85.3767
813.998	84.5489
815.691	84.6319
817.384	84.3495
819.076	84.9454
820.766	84.3782
822.458	84.6318
824.149	84.7541
825.84	83.1175
827.531	83.0915
829.221	81.9672
830.909	80.7485
832.599	80.1567
834.288	78.2627
835.977	76.169
837.666	75.5381
839.353	74.1084
841.041	73.0479
842.729	70.9425
844.416	69.4946
846.103	68.3951
847.788	68.5437
849.475	68.1918
851.161	66.9875
852.845	65.8404
854.53	65.3037
856.216	65.2608
857.901	64.6281
859.583	63.7259
861.268	63.4855
862.952	62.4531
864.633	62.0716
866.317	62.0702
868	60.7383
869.681	60.7914
871.363	60.7216
873.045	60.3566
874.725	59.9456
876.406	58.9336
878.088	58.4109
879.767	57.5062
881.447	56.8089
883.125	56.2969
884.805	55.97
886.483	55.3297
888.162	54.7461
889.841	54.1287
891.518	54.4177
893.196	54.4052
894.872	53.8112
896.55	53.9832
898.225	54.6464
899.902	55.4004
901.577	55.0303
903.254	54.7927
904.928	54.0531
906.604	53.616
908.277	53.1963
909.952	53.1324
911.625	53.5346
913.3	52.4535
914.972	51.7435
916.646	51.6339
918.318	51.2465
919.991	50.8366
921.662	50.4459
923.333	49.5028
925.005	49.8599
926.675	49.6844
928.347	49.2082
930.017	48.5345
931.686	47.8804
933.357	47.8681
935.025	48.3053
936.693	49.2765
938.363	49.7159
940.031	48.2919
941.698	46.7832
943.367	45.1602
945.034	44.7245
946.7	43.1294
948.368	42.6899
950.034	41.8646
951.699	41.4429
953.367	42.0313
955.031	41.9781
956.696	41.1343
958.36	40.0067
960.026	38.1869
961.689	38.1495
963.353	38.0876
965.016	37.4858
966.68	37.551
968.343	37.9527
970.005	38.3092
971.666	38.2682
973.328	38.539
974.991	39.0722
976.652	39.4902
978.312	38.9929
979.972	40.1963
981.632	40.3836
983.292	40.2238
984.953	39.6724
986.612	39.3864
988.27	39.6697
989.929	40.0819
991.587	40.4716
993.244	39.471
994.902	38.2513
996.559	36.4813
998.216	34.2724
999.872	31.15
1001.53	29.0534
1003.19	28.538
1004.84	28.5449
1006.5	29.5572
1008.15	32.9908
1009.81	36.8625
1011.46	43.788
1013.11	51.5343
1014.77	59.4956
1016.42	68.436
1018.07	76.7943
1019.73	84.4187
1021.38	90.593
1023.03	97.4887
1024.68	104.743
1026.34	111.259
1027.99	118.407
1029.64	125.69
1031.29	131.271
1032.94	135.393
1034.59	140.139
1036.24	143.08
1037.89	146.581
1039.53	148.459
1041.18	150.011
1042.83	151.737
1044.48	153.245
1046.13	152.764
1047.77	151.059
1049.42	150.276
1051.07	147.917
1052.71	146.438
1054.36	142.591
1056	138.388
1057.65	133.902
1059.3	128.289
1060.94	122.044
1062.59	116.043
1064.23	109.115
1065.87	101.628
1067.52	93.8832
1069.16	85.702
1070.8	77.5767
1072.44	68.86
1074.09	59.3392
1075.73	50.2109
1077.37	42.2828
1079.01	33.4618
1080.65	25.9827
1082.29	20.6226
1083.93	17.7147
1085.57	15.1516
1087.21	14.0032
1088.85	14.569
1090.49	16.807
1092.13	18.2067
1093.77	19.9884
1095.41	20.8481
1097.04	21.7458
1098.68	24.1481
1100.32	24.4291
1101.95	24.8121
1103.59	26.0061
1105.23	26.6749
1106.86	27.1763
1108.5	27.5237
1110.13	28.445
1111.77	28.4394
1113.4	28.1572
1115.04	27.7922
1116.67	28.9945
1118.31	28.8517
1119.94	29.6329
1121.57	27.9442
1123.2	28.2671
1124.84	27.1042
1126.47	26.2892
1128.1	26.1372
1129.73	25.969
1131.36	26.4616
1132.99	25.9052
1134.62	26.3905
1136.25	24.4253
1137.88	24.1712
1139.51	23.8261
1141.14	22.9943
1142.77	22.3826
1144.4	22.3256
1146.03	22.4505
1147.66	21.5615
1149.28	21.3053
1150.91	20.2625
1152.54	19.4273
1154.16	17.8958
1155.79	16.8249
1157.42	15.7396
1159.04	14.4484
1160.67	12.7821
1162.29	11.3778
1163.92	10.474
1165.54	9.0978
1167.17	7.59552
1168.79	7.98308
1170.41	6.7656
1172.04	5.48646
1173.66	4.80819
1175.28	4.56666
1176.9	4.91695
1178.53	5.06081
1180.15	5.73225
1181.77	5.00059
1183.39	5.02885
1185.01	4.46819
1186.63	4.44912
1188.25	4.46965
1189.87	4.35881
1191.49	4.78916
1193.11	4.89919
1194.73	5.9379
1196.35	6.96155
1197.96	8.54866
1199.58	9.34371
1201.2	10.3614
1202.82	10.9577
1204.43	12.2908
1206.05	13.4917
1207.66	15.0111
1209.28	16.1079
1210.9	17.9927
1212.51	19.7069
1214.13	22.6441
1215.74	25.6278
1217.36	28.134
1218.97	30.1487
1220.58	32.38
1222.2	33.5067
1223.81	34.9973
1225.42	36.9696
1227.04	38.9331
1228.65	40.244
1230.26	42.6172
1231.87	44.1578
1233.48	45.531
1235.1	47.1637
1236.71	48.1755
1238.32	49.2435
1239.93	50.4134
1241.53	51.9457
1243.14	53.1706
1244.75	54.1894
1246.36	56.0941
1247.97	57.3194
1249.58	58.5414
1251.19	58.0623
1252.8	58.6457
1254.4	60.016
1256.01	60.4167
1257.62	62.0642
1259.22	62.073
1260.83	61.4841
1262.43	62.4021
1264.04	62.4789
1265.64	63.4745
1267.25	64.6709
1268.85	65.3554
1270.46	66.9721
1272.06	67.9681
1273.66	68.99
1275.27	69.904
1276.87	71.2445
1278.48	72.198
1280.08	72.9584
1281.68	73.0502
1283.28	73.9133
1284.88	74.9403
1286.48	76.0269
1288.08	76.4629
1289.68	77.3513
1291.28	79.3554
1292.88	80.32
1294.48	81.2974
1296.08	80.9173
1297.68	81.081
1299.28	80.3084
1300.88	81.637
1302.48	82.4736
1304.07	84.0808
1305.67	84.7878
1307.27	85.3305
1308.87	85.5718
1310.46	85.8014
1312.06	85.359
1313.65	84.6285
1315.25	84.335
1316.85	83.5293
1318.44	83.7314
1320.03	83.0165
1321.63	83.2432
1323.22	83.0555
1324.82	82.4335
1326.41	82.0367
1328	80.7987
1329.6	79.3825
1331.19	78.6348
1332.78	78.7044
1334.37	78.1698
1335.96	77.3795
1337.56	76.3787
1339.15	74.034
1340.74	72.9368
1342.33	72.2546
1343.92	69.9447
1345.51	69.525
1347.1	67.8795
1348.69	66.4512
1350.28	65.0196
1351.86	63.0992
1353.45	61.8898
1355.04	60.7948
1356.63	60.1412
1358.21	58.973
1359.8	56.9591
1361.39	55.8797
1362.97	55.2674
1364.56	54.1725
1366.15	52.3458
1367.73	50.9583
1369.32	49.9861
1370.9	49.9558
1372.49	49.2093
1374.07	48.4815
1375.65	48.2707
1377.24	47.9494
1378.82	46.5861
1380.41	46.7686
1381.99	46.4332
1383.57	46.0372
1385.15	44.8867
1386.73	45.2334
1388.32	45.8247
1389.9	45.2081
1391.48	45.3221
1393.06	45.8999
1394.64	46.1458
1396.22	47.4692
1397.8	48.4195
1399.38	49.1247
1400.96	51.4204
1402.54	52.276
1404.11	53.5148
1405.69	55.6806
1407.27	57.5518
1408.85	58.8388
1410.43	60.8948
1412	62.0928
1413.58	62.9388
1415.16	63.405
1416.73	64.6535
1418.31	65.8417
1419.88	64.5704
1421.46	64.7311
1423.03	68.3424
1424.61	71.3306
1426.18	73.8202
1427.76	77.0073
1429.33	80.9392
1430.9	84.2069
1432.48	87.1902
1434.05	89.5126
1435.62	92.3541
1437.2	95.0878
1438.77	96.5512
1440.34	97.8822
1441.91	99.0527
1443.48	100.109
1445.05	100.259
1446.62	100.177
1448.19	100.516
1449.76	100.204
1451.33	98.7677
1452.9	98.3249
1454.47	97.6619
1456.04	95.5225
1457.61	94.2538
1459.17	92.8027
1460.74	91.3999
1462.31	90.2911
1463.88	87.5321
1465.44	85.6108
1467.01	83.2417
1468.58	80.588
1470.14	78.6064
1471.71	76.222
1473.27	73.1964
1474.84	71.2752
1476.4	68.7858
1477.97	65.817
1479.53	63.5451
1481.1	59.936
1482.66	57.7034
1484.22	56.0982
1485.78	53.3553
1487.35	50.5464
1488.91	47.9558
1490.47	44.9681
1492.03	42.5901
1493.59	40.2087
1495.16	38.5703
1496.72	36.2187
1498.28	33.3342
1499.84	34.9191
1501.4	36.5208
1502.96	35.3727
1504.52	36.0679
1506.08	36.9016
1507.64	37.0473
1509.19	35.4967
1510.75	34.9428
1512.31	34.074
1513.87	33.7736
1515.42	33.294
1516.98	32.2337
1518.54	31.3297
1520.1	31.4153
1521.65	31.2042
1523.21	30.6652
1524.76	30.573
1526.32	31.4729
1527.87	31.2842
1529.43	31.4017
1530.98	31.7221
1532.54	31.3675
1534.09	31.6022
1535.64	31.9959
1537.2	32.028
1538.75	32.7075
1540.3	33.7497
1541.85	33.7258
1543.41	34.9563
1544.96	35.2681
1546.51	35.7167
1548.06	36.6294
1549.61	37.7508
1551.16	38.691
1552.71	39.3544
1554.26	40.0192
1555.81	40.7078
1557.36	42.0141
1558.91	43.421
1560.46	44.803
1562.01	45.9931
1563.56	46.5161
1565.1	46.4996
1566.65	47.5731
1568.2	48.1331
1569.75	49.4571
1571.29	50.2543
1572.84	51.3897
1574.38	52.3085
1575.93	53.1577
1577.48	55.0302
1579.02	56.1934
1580.57	57.7865
1582.11	59.5385
1583.65	60.3666
1585.2	60.5859
1586.74	61.1016
1588.29	62.7981
1589.83	62.9081
1591.37	63.718
1592.92	64.7637
1594.46	64.7925
1596	65.0553
1597.54	65.9544
1599.08	65.5464
1600.62	65.7799
1602.16	65.2864
1603.7	65.0085
1605.24	64.3008
1606.78	63.9592
1608.32	63.3784
1609.86	62.6595
1611.4	61.7053
1612.94	60.8472
1614.48	61.2145
1616.02	61.0856
1617.56	61.3062
1619.09	61.2513
1620.63	61.3388
1622.17	61.5141
1623.71	62.2477
1625.24	62.6076
1626.78	62.3522
1628.31	62.2055
1629.85	63.0641
1631.39	63.5038
1632.92	64.2984
1634.46	64.9189
1635.99	65.6519
1637.52	66.0034
1639.06	67.4409
1640.59	68.891
1642.12	69.5984
1643.66	71.1706
1645.19	72.084
1646.72	73.3285
1648.25	74.3438
1649.79	75.613
1651.32	75.6911
1652.85	76.2055
1654.38	77.3414
1655.91	77.6872
1657.44	78.8412
1658.97	78.9856
1660.5	79.5385
1662.03	79.4632
1663.56	79.2696
1665.09	78.5379
1666.62	76.6661
1668.15	75.5421
1669.67	74.0916
1671.2	72.1897
1672.73	70.7079
1674.26	68.5792
1675.79	65.8165
1677.31	64.7262
1678.84	62.1013
1680.36	59.5904
1681.89	57.1536
1683.42	54.4947
1684.94	51.3082
1686.47	48.1549
1687.99	45.5773
1689.51	44.041
1691.04	41.503
1692.56	38.1629
1694.08	35.0591
1695.61	33.1721
1697.13	30.0679
1698.65	27.9748
1700.18	25.0838
1701.7	23.2331
1703.22	21.8973
1704.74	20.0465
1706.26	18.9735
1707.78	17.2386
1709.3	16.4501
1710.82	15.0831
1712.35	14.9186
1713.86	14.0018
1715.39	13.9812
1716.9	12.8075
1718.42	11.9568
1719.94	10.8775
1721.46	10.4752
1722.98	9.78783
1724.5	9.45271
1726.01	8.91867
1727.53	8.12274
1729.05	8.23883
1730.56	8.74809
1732.08	8.62231
1733.6	8.98468
1735.11	8.38225
1736.63	8.59765
1738.14	7.91803
1739.66	7.25759
1741.17	6.44563
1742.69	5.78296
1744.2	5.44768
1745.71	5.46497
1747.23	5.31749
1748.74	4.98113
1750.25	4.29729
1751.77	3.96088
1753.28	4.37802
1754.79	3.8139
1756.3	3.36344
1757.81	3.16824
1759.33	2.52661
1760.84	1.94542
1762.35	1.87068
1763.86	1.88272
1765.37	1.83924
1766.88	1.03197
1768.39	0.86491
1769.9	0.968598
1771.41	1.27606
1772.91	1.1272
1774.42	1.30118
1775.93	1.62464
1777.44	2.97414
1778.95	3.16613
1780.45	3.30013
1781.96	3.50612
1783.47	4.00962
1784.97	3.8598
1786.48	3.97398
1787.99	5.50135
1789.49	5.27314
1791	5.53615
1792.5	5.29355
1794.01	5.68928
1795.51	5.45785
1797.01	5.828
1798.52	5.90166
1800.02	5.92962
1801.52	5.91881
1803.03	6.05975
1804.53	6.33746
1806.03	7.06937
1807.54	7.19643
1809.04	6.8528
1810.54	6.53623
1812.04	6.79489
1813.54	6.65185
1815.04	6.39724
1816.54	6.14445
1818.04	5.71479
1819.54	5.40321
1821.04	4.97222
1822.54	5.0645
1824.04	5.17232
1825.54	5.79187
1827.04	5.92971
1828.54	6.09677
1830.03	6.38968
1831.53	6.2056
1833.03	5.81019
1834.53	6.17219
1836.02	6.27558
1837.52	6.03303
1839.02	5.6433
1840.51	5.5155
1842.01	5.71392
1843.5	5.36114
1845	4.98346
1846.49	4.74915
1847.99	4.93677
1849.48	4.57607
1850.98	5.16066
1852.47	5.31138
1853.96	4.42551
1855.46	3.40991
1856.95	2.96733
1858.44	2.8703
1859.94	2.54338
1861.43	2.92804
1862.92	3.15796
1864.41	2.67493
1865.9	2.48739
1867.39	3.04938
1868.88	2.8646
1870.37	3.31157
1871.86	3.58056
1873.35	3.58087
1874.84	3.71672
1876.33	3.75034
1877.82	3.87502
1879.31	4.23605
1880.8	4.80208
1882.29	4.04577
1882.58	3.86311
1884.08	4.40724
1885.57	5.18425
1887.06	5.15401
1888.56	5.61888
1890.05	6.42023
1891.54	6.50125
1893.04	7.09138
1894.53	7.16433
1896.02	8.06164
1897.51	8.99475
1899	9.22298
1900.5	8.85626
1901.99	8.60446
1903.48	9.15599
1904.97	9.08644
1906.46	9.17845
1907.95	9.82043
1909.44	9.32072
1910.93	9.15166
1912.42	8.59602
1913.91	8.51443
1915.4	8.67457
1916.88	9.06395
1918.37	9.36033
1919.86	9.43208
1921.35	9.35273
1922.84	9.03974
1924.32	8.58715
1925.81	7.75809
1927.3	7.41337
1928.78	6.68496
1930.27	6.6909
1931.75	6.54858
1933.24	6.21117
1934.72	5.54271
1936.21	4.77097
1937.69	4.3261
1939.18	4.21254
1940.66	3.96093
1942.15	3.30913
1943.63	3.38951
1945.11	2.37344
1946.6	2.72741
1948.08	3.16214
1949.56	3.53182
1951.04	3.7783
1952.53	3.84846
1954.01	4.26849
1955.49	3.90769
1956.97	4.86337
1958.45	5.64328
1959.93	5.9666
1961.41	6.56253
1962.89	7.31476
1964.37	7.28296
1965.85	6.47999
1967.33	6.53
1968.81	6.43498
1970.29	6.67067
1971.77	6.60719
1973.24	6.42562
1974.72	6.2846
1976.2	6.28525
1977.68	6.67759
1979.15	6.55377
1980.63	6.25595
1982.11	6.91119
1983.58	6.96325
1985.06	7.26425
1986.53	7.15547
1988.01	8.40283
1989.48	8.39996
1990.96	8.66977
1992.43	8.09925
1993.91	8.18235
1995.38	8.22469
1996.86	8.40481
1998.33	8.37348
1999.8	8.95633
2001.27	9.29423
2002.75	8.57386
2004.22	8.64209
2005.69	8.84858
2007.16	8.43232
2008.64	9.1264
2010.11	9.69852
2011.58	10.5061
2013.05	11.1122
2014.52	11.9615
2015.99	12.3836
2017.46	12.8084
2018.93	13.5045
2020.4	14.9355
2021.87	15.2847
2023.34	15.7903
2024.8	15.5917
2026.27	15.8105
2027.74	16.0409
2029.21	15.9711
2030.68	16.229
2032.14	16.847
2033.61	16.8715
2035.08	16.8803
2036.54	16.0849
2038.01	15.6511
2039.48	15.4692
2040.94	15.7805
2042.41	15.7028
2043.87	15.9951
2045.34	16.1623
2046.8	15.7866
2048.27	15.547
2049.73	16.0497
2051.19	15.8739
2052.66	16.0793
2054.12	16.3949
2055.58	16.5039
2057.05	16.2532
2058.51	16.068
2059.97	17.095
2061.43	18.1067
2062.9	18.4267
2064.36	19.7798
2065.82	19.6064
2067.28	20.4522
2068.74	20.8153
2070.2	21.4595
2071.66	22.0189
2073.12	22.1997
2074.58	22.9222
2076.04	23.2346
2077.5	24.1458
2078.95	24.8975
2080.41	25.5002
2081.87	27.363
2083.33	28.2308
2084.79	29.4004
2086.24	29.8042
2087.7	30.7922
2089.16	31.0581
2090.61	31.7498
2092.07	33.4584
2093.53	34.3211
2094.98	34.6855
2096.44	35.2353
2097.89	35.3494
2099.35	35.9847
2100.8	37.0421
2102.26	38.1918
2103.71	38.8716
2105.16	40.0552
2106.62	41.0968
2108.07	41.2582
2109.53	42.6152
2110.98	44.0491
2112.43	45.4966
2113.88	46.4982
2115.33	48.361
2116.79	49.8324
2118.24	50.8761
2119.69	52.3298
2121.14	53.7229
2122.59	55.5084
2124.04	55.9426
2125.49	57.7343
2126.94	59.523
2128.39	61.1701
2129.84	63.5612
2131.29	66.0131
2132.74	68.7043
2134.19	69.9839
2135.63	71.5472
