#Acq. time (s)=	45
#Accumulations=	2
#Range (cm-¹)=	200...3150
#Windows=	2
#Auto scanning=	Off
#Autofocus=	Off
#Macrospot=	Off
#AutoExposure=	Off
#Spike filter=	Multiple accum.
#Delay time (s)=	0
#Binning=	1
#Readout mode=	Signal
#DeNoise=	Off
#ICS correction=	On
#Dark correction=	Off
#Inst. Process=	Off
#Detector Gain=	Best Dynamic Range
#Detector ADC=	20 kHz       
#Detector temperature (°C)=	-70.08
#Instrument=	LabRAM HR Evol
#Detector=	Synapse
#Objective=	x100
#Grating=	600 gr/mm
#ND Filter=	100%
#Laser (nm)=	532 
#Hole=	100.021
#Range=	Auto
#Laser Pol.=	No
#Raman. Pol.=	No
#Laser Pol. (°)=	-0.0007625
#Raman Pol. (°)=	89.9995
#Collection=	Microscope
#StageXY=	Marzhauser
#StageZ=	Marzhauser
#X (µm)=	-2529.7
#Y (µm)=	-107.3
#Z (µm)=	-10.2
#Full time(mm:ss)=	3:19
#Project=	
#Sample=	
#Site=	
#Title=	Mb_40_24_23_2x_45s_532 nm_x100_100%_600 gr_mm
#Remark=	
#Date=	14.07.2022 12:24
#Acquired=	14.07.2022 12:24:01
#Base:Fit=	10.08.2022 10:47:00
#Base:Sub=	10.08.2022 10:47:12
#Filter:Polynom=	16.08.2022 10:11:48
#AxisType[0]=Intens
#AxisUnit[0]=Cnt
#AxisType[1]=Spectr
#AxisUnit[1]=1/cm
200.554	20.4424
202.369	20.0671
204.183	22.2948
205.999	21.2091
207.813	20.3246
209.626	19.5851
211.439	18.9629
213.253	16.9172
215.065	16.4182
216.877	14.8267
218.688	15.088
220.5	14.3333
222.312	14.9203
224.123	14.3956
225.933	14.3123
227.742	14.5884
229.552	14.4558
231.361	13.4636
233.171	12.5317
234.98	12.8508
236.787	13.5302
238.595	13.2974
240.402	13.217
242.209	12.7551
244.015	12.2158
245.822	11.667
247.627	11.5511
249.435	10.8785
251.24	10.3543
253.045	9.04673
254.849	9.77832
256.653	9.50003
258.457	9.53839
260.26	9.11305
262.063	8.36943
263.866	7.16663
265.668	7.6094
267.47	8.46571
269.271	7.85416
271.073	8.89614
272.873	9.91151
274.674	11.2883
276.474	12.6308
278.274	12.5278
280.073	11.9777
281.872	12.6417
283.671	11.4235
285.47	10.5968
287.268	10.876
289.065	11.4593
290.863	11.7044
292.66	12.1869
294.456	10.6069
296.253	13.1587
298.049	14.6258
299.844	15.1332
301.637	16.4846
303.432	17.7621
305.227	20.2523
307.021	19.4824
308.815	20.8799
310.609	20.8932
312.402	21.8956
314.195	22.1359
315.987	22.5709
317.777	23.8435
319.569	24.927
321.36	25.7459
323.151	25.9626
324.942	26.4838
326.733	27.4794
328.521	26.695
330.31	25.714
332.1	25.0585
333.889	24.5987
335.677	24.686
337.464	23.7151
339.252	21.4948
341.039	20.5616
342.826	19.365
344.611	18.3039
346.398	16.29
348.184	15.4208
349.97	14.3508
351.754	13.3278
353.539	12.8377
355.324	13.2474
357.106	12.4994
358.89	11.0887
360.674	10.7247
362.455	10.7729
364.239	11.1205
366.021	8.44127
367.804	7.29471
369.584	7.78918
371.366	6.43104
373.145	4.91091
374.926	3.91641
376.707	3.99888
378.485	2.95409
380.265	1.13151
382.045	2.55515
383.822	1.7818
385.601	4.83191
387.378	3.98572
389.156	3.55076
390.934	4.64152
392.71	4.7366
394.487	4.38539
396.262	3.63934
398.038	3.85088
399.813	4.08412
401.588	5.55511
403.362	5.76373
405.137	5.20898
406.912	6.58538
408.685	6.48932
410.459	6.13339
412.23	6.78096
414.004	8.77173
415.775	9.73872
417.548	9.66383
419.318	10.9646
421.089	11.6512
422.86	12.2915
424.63	12.4909
426.401	12.9786
428.17	14.8359
429.94	15.3367
431.708	16.1446
433.478	16.6376
435.245	18.0584
437.012	19.607
438.781	19.5308
440.547	19.9335
442.315	21.1203
444.081	21.3351
445.846	21.8444
447.613	22.0422
449.378	23.122
451.142	23.4766
452.908	23.801
454.672	23.3613
456.435	25.4979
458.2	25.3388
459.963	23.8778
461.725	24.1309
463.489	23.9587
465.251	25.0879
467.012	24.9158
468.775	25.7288
470.536	26.6604
472.296	26.5327
474.056	27.709
475.817	26.1312
477.576	27.1335
479.335	28.3276
481.094	27.016
482.854	26.4527
484.612	24.9512
486.37	23.9485
488.127	24.6109
489.886	24.287
491.642	23.1971
493.398	23.6307
495.154	24.7405
496.91	26.1945
498.667	27.5219
500.422	28.8554
502.176	29.689
503.93	30.369
505.684	31.2671
507.438	32.8388
509.191	32.8314
510.946	34.066
512.698	35.9249
514.45	37.2923
516.202	37.2361
517.954	38.2107
519.705	39.062
521.456	40.1521
523.206	41.1548
524.956	42.6052
526.706	43.8997
528.456	45.4672
530.207	46.9099
531.956	46.6465
533.704	47.8447
535.452	48.2001
537.2	48.8354
538.947	48.5923
540.694	50.3499
542.441	49.6164
544.188	49.8298
545.934	48.4763
547.68	48.5125
549.425	48.6859
551.17	47.9691
552.915	47.5003
554.659	46.6559
556.403	46.5475
558.145	43.5884
559.889	41.2538
561.632	38.6674
563.375	35.3819
565.117	35.1118
566.859	32.8869
568.601	29.093
570.342	26.8638
572.083	23.7887
573.824	21.1962
575.565	19.8705
577.303	17.3093
579.043	15.22
580.782	14.633
582.521	14.7868
584.26	14.0896
585.998	13.4451
587.734	12.4847
589.472	12.4276
591.21	11.4538
592.947	10.6035
594.684	11.5828
596.418	11.6372
598.154	11.3805
599.89	11.9465
601.626	11.9328
603.361	12.469
605.094	14.0516
606.828	14.2047
608.562	16.7233
610.296	17.7927
612.027	19.5586
613.761	20.2059
615.493	21.3861
617.224	20.9103
618.956	20.8199
620.688	22.3579
622.419	22.3835
624.149	22.1115
625.879	21.3327
627.61	22.3211
629.338	22.0762
631.068	23.3351
632.797	24.8967
634.525	25.6118
636.254	25.5016
637.98	24.4286
639.708	23.9079
641.436	23.8486
643.162	21.8605
644.889	18.6448
646.614	17.8165
648.34	17.218
650.067	16.7616
651.791	16.987
653.516	15.144
655.239	14.2242
656.964	13.1139
658.687	12.5352
660.411	12.5668
662.133	12.2396
663.857	11.3886
665.58	10.8743
667.301	10.0609
669.024	9.84059
670.744	8.71621
672.464	10.303
674.186	10.0324
675.905	10.9468
677.626	9.73723
679.345	10.6934
681.065	12.5688
682.783	12.4626
684.503	12.1962
686.22	13.1001
687.939	12.1882
689.656	11.601
691.372	11.267
693.09	10.42
694.806	12.0741
696.523	11.9669
698.239	10.6702
699.953	9.89534
701.67	10.1022
703.384	10.4009
705.098	11.678
706.813	13.6993
708.526	14.7669
710.239	15.8352
711.954	16.8233
713.666	18.765
715.378	18.7377
717.091	19.8933
718.802	20.9772
720.513	19.6685
722.226	19.8875
723.936	19.2619
725.646	20.4456
727.355	19.7646
729.067	19.8151
730.776	20.0552
732.484	21.0708
734.192	21.7497
735.902	23.5281
737.61	24.5599
739.317	26.0655
741.024	27.3321
742.731	28.5929
744.439	31.0408
746.145	32.1593
747.851	32.9893
749.556	34.5441
751.262	36.3894
752.966	38.7856
754.673	43.2288
756.377	46.4635
758.081	49.1056
759.784	49.713
761.487	51.6377
763.19	50.9266
764.892	52.7535
766.594	53.324
768.296	53.9826
770	53.5399
771.701	51.8398
773.402	51.5774
775.102	51.2631
776.803	51.8325
778.503	52.4805
780.202	53.1032
781.901	52.3206
783.6	51.5729
785.299	53.7873
786.997	55.9518
788.695	56.3814
790.393	55.8332
792.09	55.3961
793.787	54.0735
795.484	52.8199
797.18	52.9467
798.877	53.0028
800.572	53.2176
802.268	54.2104
803.963	54.5226
805.658	52.896
807.35	53.1773
809.044	54.1813
810.738	52.9816
812.432	52.2732
814.125	52.25
815.818	51.9151
817.51	54.5971
819.202	56.4183
820.894	58.7996
822.584	60.6861
824.275	63.4833
825.966	64.5024
827.657	66.5413
829.347	68.8774
831.037	70.7807
832.725	73.4274
834.414	76.949
836.103	79.0994
837.792	81.1843
839.481	83.5783
841.167	84.1361
842.854	83.0916
844.542	83.2368
846.229	82.9218
847.914	83.4506
849.6	84.6665
851.287	84.6031
852.973	84.8082
854.656	83.5648
856.341	83.6189
858.026	84.2868
859.711	82.2904
861.393	82.8948
863.077	81.9355
864.761	81.8768
866.442	81.9157
868.125	81.2331
869.808	81.5789
871.489	81.9299
873.171	80.0907
874.85	78.8537
876.532	76.5444
878.213	76.3749
879.892	75.5688
881.572	75.7394
883.251	72.687
884.931	71.5245
886.61	69.0673
888.287	66.8579
889.966	63.9886
891.643	62.4282
893.321	61.3662
894.997	58.7347
896.675	59.4426
898.352	60.4202
900.028	61.9682
901.704	63.742
903.379	62.9451
905.055	62.7967
906.729	63.1108
908.404	62.115
910.077	61.6625
911.75	62.7686
913.425	63.2035
915.097	63.5897
916.771	64.3849
918.443	64.0862
920.116	62.987
921.787	62.6886
923.46	61.8984
925.13	60.2465
926.8	60.3604
928.472	60.2997
930.141	59.7952
931.813	60.0903
933.481	58.1498
935.15	56.9779
936.82	55.1456
938.488	53.4372
940.156	51.6055
941.825	48.6991
943.492	47.1115
945.158	46.1178
946.827	43.4806
948.493	40.9424
950.158	38.9453
951.824	36.0015
953.491	33.2538
955.156	32.2711
956.82	27.9465
958.486	26.4066
960.15	23.9699
961.814	23.8626
963.477	23.5861
965.142	24.7344
966.804	25.2246
968.467	26.8555
970.129	28.3974
971.79	30.3789
973.454	32.2945
975.115	34.7447
976.776	37.6174
978.436	39.0757
980.096	41.7384
981.756	43.0694
983.417	43.6438
985.077	44.6105
986.736	45.1074
988.394	45.815
990.052	46.9965
991.71	46.8444
993.368	48.4408
995.025	48.2985
996.682	47.6864
998.341	47.6029
999.998	46.9217
1001.65	46.1825
1003.31	44.8303
1004.97	44.7976
1006.62	45.1138
1008.28	45.9347
1009.93	49.1363
1011.58	51.8741
1013.24	54.5462
1014.89	56.5609
1016.54	57.5879
1018.2	59.378
1019.85	59.9399
1021.5	64.6872
1023.16	68.4581
1024.81	72.9979
1026.46	80.328
1028.11	84.5965
1029.76	91.3999
1031.41	97.5466
1033.06	103.813
1034.71	108.392
1036.36	114.114
1038.01	119.498
1039.66	123.711
1041.31	130.156
1042.95	134.455
1044.6	138.817
1046.25	144.143
1047.9	147.564
1049.54	149.323
1051.19	150.2
1052.84	151.192
1054.48	151.069
1056.13	151.173
1057.77	151.066
1059.42	150.923
1061.06	150.881
1062.71	149.344
1064.35	146.953
1066	145.632
1067.64	143.795
1069.28	140.768
1070.93	135.669
1072.57	128.83
1074.21	123.281
1075.85	118.072
1077.49	111.739
1079.13	106.924
1080.78	101.768
1082.42	96.1836
1084.06	89.3769
1085.7	83.0149
1087.34	79.4541
1088.97	77.1968
1090.61	77.5688
1092.25	79.1302
1093.89	78.8308
1095.53	76.9251
1097.17	77.1852
1098.8	77.562
1100.44	80.2742
1102.08	82.4074
1103.71	86.4427
1105.35	88.3135
1106.99	91.9911
1108.62	92.5865
1110.26	91.0477
1111.89	90.9014
1113.52	89.466
1115.16	87.6123
1116.79	84.7251
1118.43	83.2466
1120.06	80.6891
1121.69	78.038
1123.32	76.0028
1124.96	72.4696
1126.59	69.102
1128.22	65.8111
1129.85	62.1065
1131.48	58.9988
1133.11	57.1358
1134.75	54.4875
1136.37	52.2948
1138	50.5192
1139.63	48.5537
1141.26	45.6744
1142.89	43.438
1144.52	40.0665
1146.15	37.5707
1147.78	32.5554
1149.4	27.6521
1151.03	22.76
1152.66	17.8105
1154.28	13.0704
1155.91	10.246
1157.54	6.06973
1159.16	2.04748
1160.79	-1.90205
1162.41	-6.61725
1164.04	-9.04101
1165.66	-10.7811
1167.29	-8.5275
1168.91	-5.90267
1170.53	-2.89097
1172.16	-0.196312
1173.78	0.524177
1175.4	1.80121
1177.02	1.85796
1178.65	3.25373
1180.27	3.52736
1181.89	6.21989
1183.51	7.55003
1185.13	7.89453
1186.75	8.46374
1188.37	9.50802
1189.99	8.18502
1191.61	9.34058
1193.23	11.7528
1194.85	13.9529
1196.47	14.1598
1198.08	15.6903
1199.7	17.6785
1201.32	18.2939
1202.94	21.4092
1204.55	24.3447
1206.17	24.1263
1207.79	25.3707
1209.4	27.9455
1211.02	31.899
1212.63	33.7728
1214.25	36.7378
1215.86	40.368
1217.48	43.6727
1219.09	46.2416
1220.71	49.2944
1222.32	52.2506
1223.93	55.2381
1225.54	57.9012
1227.16	59.6069
1228.77	62.559
1230.38	66.0529
1231.99	68.5968
1233.6	71.5627
1235.22	75.5659
1236.83	79.6326
1238.44	82.6926
1240.05	87.4057
1241.66	90.6183
1243.26	95.674
1244.87	99.477
1246.48	103.694
1248.09	105.721
1249.7	106.482
1251.31	107.184
1252.92	107.817
1254.52	109.313
1256.13	111.15
1257.74	114.998
1259.34	121.264
1260.95	127.944
1262.55	135.553
1264.16	141.766
1265.76	148.311
1267.37	156.14
1268.97	164.075
1270.58	170.046
1272.18	178.573
1273.78	184.725
1275.39	191.091
1276.99	197.89
1278.59	205.075
1280.2	210.887
1281.8	216.7
1283.4	222.453
1285	226.829
1286.6	229.556
1288.2	235.229
1289.8	239.824
1291.4	243.812
1293	246.619
1294.6	248.388
1296.2	249.76
1297.8	249.432
1299.4	249.006
1301	249.994
1302.6	249.647
1304.19	249.316
1305.79	250.391
1307.39	247.807
1308.99	246.888
1310.58	244.684
1312.18	242.261
1313.77	238.862
1315.37	236.111
1316.96	230.389
1318.56	225.259
1320.15	220.008
1321.75	213.577
1323.34	207.803
1324.94	201.237
1326.53	196.036
1328.12	188.669
1329.72	182.183
1331.31	177.368
1332.9	174.441
1334.49	173.386
1336.08	172.292
1337.67	173.786
1339.27	172.753
1340.86	171.41
1342.45	170.509
1344.04	170.539
1345.63	168.889
1347.22	167.858
1348.8	167.009
1350.39	166.243
1351.98	165.831
1353.57	164.09
1355.16	165.384
1356.75	165.412
1358.33	163.43
1359.92	161.563
1361.51	160.619
1363.09	160.537
1364.68	161.064
1366.27	160.069
1367.85	160.348
1369.44	159.221
1371.02	159.417
1372.61	157.726
1374.19	157.731
1375.77	159.36
1377.36	161.39
1378.94	162.385
1380.52	163.884
1382.11	165.561
1383.69	167.776
1385.27	169.845
1386.85	170.439
1388.43	172.039
1390.02	173.023
1391.6	174.739
1393.18	175.185
1394.76	178.093
1396.34	178.353
1397.92	180.117
1399.5	182.95
1401.08	188.608
1402.65	194.132
1404.23	200.408
1405.81	208.957
1407.39	216.848
1408.97	226.59
1410.54	238.898
1412.12	250.135
1413.7	261.903
1415.27	273.476
1416.85	285.994
1418.43	299.164
1420	312.362
1421.58	325.815
1423.15	338.474
1424.73	351.29
1426.3	366.743
1427.87	380.497
1429.45	393.739
1431.02	406.332
1432.6	417.858
1434.17	429.636
1435.74	438.21
1437.31	446.165
1438.89	453.806
1440.46	460.729
1442.03	466.401
1443.6	469.472
1445.17	471.425
1446.74	471.584
1448.31	471.463
1449.88	469.584
1451.45	465.481
1453.02	461.929
1454.59	454.788
1456.16	446.796
1457.72	436.376
1459.29	425.014
1460.86	413.991
1462.43	399.684
1463.99	385.367
1465.56	367.697
1467.13	349.58
1468.69	332.937
1470.26	315.216
1471.83	296.509
1473.39	280.07
1474.95	263.729
1476.52	248.37
1478.08	233.735
1479.65	220.597
1481.21	205.727
1482.78	193.642
1484.34	182.18
1485.9	169.627
1487.47	157.679
1489.03	146.538
1490.59	135.405
1492.15	126.724
1493.71	117.562
1495.27	109.658
1496.84	102.14
1498.39	94.0466
1499.96	87.9293
1501.52	83.684
1503.07	79.8239
1504.64	76.0108
1506.19	71.7721
1507.75	68.6374
1509.31	65.77
1510.87	63.3205
1512.43	61.6481
1513.98	58.1947
1515.54	58.3522
1517.1	56.9411
1518.65	58.7261
1520.21	59.587
1521.77	60.0327
1523.32	59.9138
1524.88	60.4059
1526.44	62.1345
1527.99	62.9125
1529.54	63.3404
1531.1	65.2575
1532.65	66.0704
1534.21	68.2562
1535.76	69.4685
1537.31	71.1129
1538.87	73.2292
1540.42	74.0362
1541.97	76.3459
1543.52	77.3642
1545.07	79.3642
1546.63	82.5564
1548.18	84.876
1549.73	88.539
1551.28	90.3856
1552.83	93.2817
1554.38	96.4418
1555.93	99.7631
1557.48	102.757
1559.03	105.131
1560.57	109.178
1562.12	111.162
1563.67	114.109
1565.22	117.911
1566.77	121.725
1568.31	126.151
1569.86	130.038
1571.41	132.793
1572.95	135.531
1574.5	139.946
1576.05	144.073
1577.59	149.022
1579.14	154.607
1580.68	157.214
1582.23	162.398
1583.77	168.425
1585.31	172.879
1586.86	177.892
1588.4	181.253
1589.95	184.358
1591.49	187.992
1593.03	192.693
1594.57	194.838
1596.11	198.274
1597.66	200.017
1599.2	201.923
1600.74	201.435
1602.28	204.114
1603.82	204.537
1605.36	204.776
1606.9	205.064
1608.44	207.366
1609.98	206.76
1611.52	206.981
1613.06	206.527
1614.6	205.469
1616.13	204.835
1617.67	204.382
1619.21	203.77
1620.75	203.414
1622.28	203.322
1623.82	204.364
1625.36	204.614
1626.89	205.046
1628.43	205.391
1629.96	207.566
1631.5	207.198
1633.04	205.351
1634.57	205.006
1636.11	205.373
1637.64	206.176
1639.17	205.447
1640.71	205.843
1642.24	207.249
1643.77	206.756
1645.31	207.267
1646.84	207.307
1648.37	207.962
1649.9	208.891
1651.43	209.438
1652.96	208.474
1654.5	206.885
1656.03	206.009
1657.56	204.193
1659.09	202.687
1660.62	200.4
1662.15	196.457
1663.67	192.285
1665.2	188.292
1666.73	184.673
1668.26	179.182
1669.79	174.953
1671.32	169.53
1672.84	164.301
1674.37	158.712
1675.9	153.051
1677.43	146.038
1678.95	142.325
1680.48	136.305
1682	130.628
1683.53	125.184
1685.05	119.205
1686.58	113.514
1688.1	109.337
1689.63	105.717
1691.15	100.556
1692.68	96.9342
1694.2	92.447
1695.72	89.3328
1697.25	86.3328
1698.77	83.7824
1700.29	80.6879
1701.81	77.821
1703.33	75.0573
1704.86	73.0471
1706.38	70.5485
1707.9	67.7795
1709.42	65.2762
1710.94	63.2739
1712.46	61.0217
1713.98	59.4143
1715.5	57.4368
1717.02	56.6092
1718.54	55.6534
1720.06	54.3666
1721.57	53.2202
1723.09	52.377
1724.61	51.4213
1726.13	49.9172
1727.64	47.6961
1729.16	46.1985
1730.68	44.316
1732.19	43.2886
1733.71	40.9089
1735.23	38.1337
1736.74	37.2429
1738.26	35.6417
1739.77	34.4846
1741.29	32.9845
1742.8	30.9581
1744.31	28.7466
1745.83	27.8992
1747.34	25.5115
1748.85	24.3008
1750.37	22.5726
1751.88	22.2147
1753.39	20.4216
1754.91	19.87
1756.42	18.6051
1757.93	17.5117
1759.44	16.1468
1760.95	15.0714
1762.46	15.7965
1763.97	14.9506
1765.48	14.6573
1766.99	12.2693
1768.5	11.8107
1770.01	10.4607
1771.52	10.6051
1773.03	9.64636
1774.54	9.55542
1776.04	8.61751
1777.55	8.7228
1779.06	8.97991
1780.57	8.76895
1782.07	7.9086
1783.58	7.4018
1785.09	6.33888
1786.59	6.25648
1788.1	6.21777
1789.6	5.75039
1791.11	5.19312
1792.61	4.43226
1794.12	4.3025
1795.62	4.23163
1797.13	2.9619
1798.63	3.03925
1800.13	3.02763
1801.64	2.2242
1803.14	1.42407
1804.64	0.977875
1806.15	0.816361
1807.65	0.416331
1809.15	0.592815
1810.65	0.237902
1812.15	0.428903
1813.65	0.0310823
1815.16	-0.190105
1816.66	-0.4626
1818.15	-0.489816
1819.66	-1.05245
1821.16	-0.778005
1822.65	-0.907991
1824.15	-0.794381
1825.65	-0.429543
1827.15	1.25911
1828.65	0.0209506
1830.15	0.421479
1831.64	-0.184893
1833.14	0.185121
1834.64	0.569411
1836.14	1.66819
1837.63	2.93661
1839.13	2.41891
1840.62	3.0296
1842.12	3.09297
1843.62	3.62718
1845.11	4.03078
1846.61	5.02116
1848.1	6.30025
1849.6	7.38898
1851.09	7.60251
1852.58	7.16421
1854.08	7.57015
1855.57	6.64883
1857.06	6.67841
1858.55	7.48852
1860.05	6.55953
1861.54	6.46288
1863.03	6.93755
1864.52	8.16504
1866.01	8.57417
1867.5	8.05449
1869	7.66493
1870.49	7.79063
1871.98	6.74694
1873.47	7.41333
1874.96	7.87868
1876.44	7.65769
1877.93	7.26361
1879.42	7.13193
1880.91	6.79305
1882.4	5.89026
1882.47	4.95037
1883.96	4.06383
1885.46	4.74652
1886.95	5.01718
1888.44	4.75874
1889.94	4.6068
1891.43	3.62588
1892.93	3.09278
1894.42	3.16173
1895.91	2.72656
1897.4	3.79469
1898.89	3.61283
1900.39	2.29496
1901.88	0.690865
1903.37	1.38611
1904.86	1.456
1906.35	1.79791
1907.84	2.0555
1909.33	2.26997
1910.82	2.22538
1912.31	1.56702
1913.8	2.01455
1915.29	2.02105
1916.77	2.51707
1918.26	2.36686
1919.75	1.70605
1921.24	1.37777
1922.73	0.349542
1924.21	0.382732
1925.7	0.70368
1927.19	1.83866
1928.67	1.68638
1930.16	3.22047
1931.64	3.68434
1933.13	3.58188
1934.61	4.18153
1936.1	4.7326
1937.58	4.58079
1939.07	3.75126
1940.55	3.26645
1942.04	3.98633
1943.52	4.42466
1945	3.95972
1946.49	4.44237
1947.97	4.99388
1949.45	5.15667
1950.93	4.62866
1952.42	4.99907
1953.9	5.45924
1955.38	6.26585
1956.86	7.22663
1958.34	7.86533
1959.82	8.63467
1961.3	8.44317
1962.78	8.1767
1964.26	8.57702
1965.74	9.04234
1967.22	8.03843
1968.7	8.36302
1970.18	7.81979
1971.65	7.70625
1973.13	6.51933
1974.61	6.06858
1976.09	6.26088
1977.57	6.52559
1979.04	6.54282
1980.52	5.90944
1982	6.37642
1983.47	5.57414
1984.95	5.07783
1986.42	5.40855
1987.9	5.06916
1989.37	5.43001
1990.85	4.70199
1992.32	3.70968
1993.8	3.9159
1995.27	5.1055
1996.75	5.21313
1998.22	5.2939
1999.69	5.39483
2001.17	4.99613
2002.64	4.11468
2004.11	4.70498
2005.58	4.35991
2007.05	3.99893
2008.53	3.20967
2010	3.78109
2011.47	3.64825
2012.94	4.027
2014.41	3.39519
2015.88	4.23862
2017.35	4.23826
2018.82	5.56662
2020.29	6.05496
2021.76	7.72313
2023.23	8.41062
2024.7	7.83274
2026.16	9.9019
2027.63	11.1315
2029.1	12.1557
2030.57	12.6711
2032.03	12.5184
2033.5	12.7739
2034.97	12.4324
2036.44	13.3054
2037.9	14.1662
2039.37	14.0981
2040.83	13.2735
2042.3	14.7818
2043.76	15.2315
2045.23	16.1022
2046.69	16.0103
2048.16	15.8824
2049.62	16.4161
2051.08	17.201
2052.55	17.3925
2054.01	17.7198
2055.47	18.5535
2056.94	19.3918
2058.4	20.368
2059.86	20.7066
2061.32	20.8725
2062.79	21.4082
2064.25	21.3757
2065.71	21.6834
2067.17	22.286
2068.63	23.3764
2070.09	22.9331
2071.55	24.0148
2073.01	25.664
2074.47	25.3871
2075.93	25.8295
2077.39	26.9493
2078.85	27.4573
2080.31	27.9347
2081.76	28.2285
2083.22	30.9398
2084.68	32.5958
2086.13	33.4973
2087.59	34.7848
2089.05	37.0686
2090.51	38.9878
2091.96	41.2879
2093.42	42.0663
2094.87	43.8841
2096.33	45.9507
2097.78	47.6495
2099.24	50.6664
2100.69	51.2128
2102.15	52.7063
2103.6	53.7522
2105.06	55.5245
2106.51	56.9112
2107.96	58.8204
2109.42	61.6395
2110.87	62.3796
2112.32	63.8712
2113.77	66.9161
2115.23	68.7289
2116.68	70.2893
2118.13	72.0062
2119.58	73.4311
2121.03	76.5044
2122.48	79.655
2123.93	81.7235
2125.38	83.8241
2126.83	86.9449
2128.28	89.2543
2129.73	92.3537
2131.18	94.8651
2132.63	96.5464
2134.08	99.6192
2135.53	102.851
