#Acq. time (s)=	45
#Accumulations=	2
#Range (cm-¹)=	200...3150
#Windows=	2
#Auto scanning=	Off
#Autofocus=	Off
#Macrospot=	Off
#AutoExposure=	Off
#Spike filter=	Multiple accum.
#Delay time (s)=	0
#Binning=	1
#Readout mode=	Signal
#DeNoise=	Off
#ICS correction=	On
#Dark correction=	Off
#Inst. Process=	Off
#Detector Gain=	Best Dynamic Range
#Detector ADC=	20 kHz       
#Detector temperature (°C)=	-69.85
#Instrument=	LabRAM HR Evol
#Detector=	Synapse
#Objective=	x100
#Grating=	600 gr/mm
#ND Filter=	100%
#Laser (nm)=	532 
#Hole=	100.021
#Range=	Auto
#Laser Pol.=	No
#Raman. Pol.=	No
#Laser Pol. (°)=	-0.0007625
#Raman Pol. (°)=	89.9995
#Collection=	Microscope
#StageXY=	Marzhauser
#StageZ=	Marzhauser
#X (µm)=	-1076.7
#Y (µm)=	598.4
#Z (µm)=	583.95
#Full time(mm:ss)=	3:18
#Project=	
#Sample=	
#Site=	
#Title=	Mb_40_y_39_2x_45s_532 nm_x100_100%_600 gr_mm
#Remark=	
#Date=	19.07.2022 12:38
#Acquired=	19.07.2022 12:38:29
#Base:Fit=	10.08.2022 10:52:48
#Base:Sub=	10.08.2022 10:52:53
#Filter:Polynom=	16.08.2022 10:09:04
#AxisType[0]=Intens
#AxisUnit[0]=Cnt
#AxisType[1]=Spectr
#AxisUnit[1]=1/cm
200.423	0.282372
202.238	0.992753
204.052	1.44768
205.868	1.67057
207.682	2.10678
209.495	2.7408
211.308	3.51324
213.12	3.6829
214.935	3.85896
216.746	5.03328
218.558	5.04231
220.369	5.78849
222.18	6.18481
223.992	5.69553
225.802	5.13705
227.612	5.33929
229.421	5.23074
231.23	6.67179
233.039	7.21016
234.849	7.58809
236.657	8.13058
238.465	8.80469
240.272	8.62225
242.079	8.69698
243.885	8.63727
245.691	8.13283
247.497	6.89761
249.305	6.39723
251.11	5.45959
252.915	6.08579
254.719	6.3957
256.523	6.6817
258.327	6.46696
260.13	6.70047
261.933	7.18607
263.736	8.21824
265.538	7.78904
267.34	6.96673
269.141	6.65184
270.943	6.85799
272.744	6.63282
274.544	6.73256
276.344	7.41665
278.144	7.11334
279.944	6.41546
281.743	5.9377
283.542	4.8725
285.34	5.40568
287.138	5.24062
288.936	4.76274
290.733	5.48944
292.53	4.76891
294.327	5.15248
296.123	5.10314
297.919	6.00691
299.715	6.34184
301.508	5.28717
303.303	4.84386
305.098	6.04066
306.892	6.74701
308.686	5.81824
310.479	6.24582
312.273	6.44278
314.065	6.2472
315.858	7.16837
317.648	7.91274
319.44	7.58254
321.231	8.77478
323.022	8.43819
324.813	9.40395
326.604	9.39497
328.392	9.27551
330.181	9.04907
331.971	8.66007
333.76	8.56999
335.548	7.98815
337.335	8.18136
339.123	9.24341
340.91	9.84599
342.698	11.1346
344.483	12.6024
346.269	12.2763
348.055	12.1787
349.841	12.5192
351.625	13.862
353.41	14.5342
355.195	14.5166
356.977	13.1106
358.762	12.9506
360.545	12.0336
362.329	12.2425
364.11	12.1175
365.893	11.0769
367.675	9.75097
369.455	9.91758
371.237	9.98855
373.017	9.02979
374.798	9.45005
376.578	10.2714
378.357	9.8183
380.137	9.99063
381.917	9.33341
383.694	10.3086
385.473	10.7523
387.249	10.3404
389.028	9.70688
390.806	9.93999
392.581	10.4723
394.359	10.9448
396.134	10.2953
397.91	9.58977
399.684	9.45887
401.46	9.60833
403.234	8.38391
405.009	7.85937
406.784	7.70256
408.557	7.51802
410.331	8.38921
412.103	8.71557
413.876	9.05444
415.647	7.65993
417.42	7.50749
419.191	7.01121
420.961	6.52616
422.733	7.41655
424.502	6.18533
426.273	6.94847
428.042	7.78855
429.812	7.92897
431.58	7.70093
433.35	6.90822
435.118	4.98726
436.885	4.33372
438.653	4.35586
440.42	3.87405
442.188	3.93453
443.954	4.03451
445.719	3.24167
447.486	3.12708
449.251	2.52307
451.015	2.17368
452.781	2.28984
454.545	2.2215
456.308	3.20939
458.073	3.7964
459.836	4.36298
461.598	4.44808
463.362	6.00238
465.124	7.26671
466.885	7.0668
468.648	8.13599
470.408	8.21782
472.169	8.9768
473.929	8.63619
475.69	8.26132
477.45	9.73355
479.208	11.0397
480.967	11.8031
482.727	12.8664
484.485	13.7804
486.243	14.4484
488	15.042
489.759	15.094
491.515	15.8129
493.272	17.2181
495.028	18.711
496.783	18.9726
498.54	19.202
500.295	18.7078
502.05	17.0901
503.804	16.5844
505.558	17.1318
507.311	16.8965
509.064	17.4044
510.819	18.311
512.572	16.9102
514.324	17.8476
516.076	16.6667
517.827	16.1294
519.578	15.5634
521.329	15.537
523.08	14.6058
524.83	14.5923
526.58	14.4256
528.329	13.4183
530.08	14.2117
531.829	13.6522
533.578	12.3699
535.326	12.7285
537.074	12.1633
538.821	12.127
540.568	12.0753
542.315	11.2492
544.062	10.734
545.808	10.1707
547.554	10.0224
549.299	9.15521
551.044	9.49023
552.789	8.74286
554.533	7.467
556.278	7.30604
558.019	6.03017
559.763	5.20301
561.506	5.80004
563.249	6.64143
564.991	7.38241
566.733	7.41688
568.475	6.76435
570.217	6.91047
571.958	5.84968
573.699	5.66671
575.439	5.31927
577.177	5.04184
578.917	5.58909
580.656	4.4587
582.396	3.55914
584.134	2.10434
585.873	0.618603
587.609	0.0882438
589.347	0.056924
591.084	0.702846
592.822	1.06242
594.558	0.373528
596.295	0.661354
598.029	1.0821
599.765	1.19476
601.5	1.90892
603.235	1.49936
604.968	2.99583
606.703	2.37004
608.437	2.72742
610.171	1.36795
611.902	2.52096
613.635	3.87387
615.368	4.24078
617.099	4.44884
618.831	4.74812
620.563	4.76624
622.294	6.17963
624.024	5.31731
625.755	5.55119
627.485	5.71405
629.213	6.64411
630.943	7.34025
632.673	8.26736
634.4	8.75125
636.129	9.1094
637.855	9.6019
639.584	8.75574
641.312	8.08446
643.037	8.91719
644.764	9.11333
646.491	10.6329
648.216	12.3096
649.942	12.0933
651.666	11.4422
653.392	11.6296
655.115	13.1767
656.84	14.5909
658.563	14.16
660.287	14.0241
662.011	13.028
663.732	13.028
665.456	13.2317
667.177	13.4029
668.899	13.3122
670.62	14.0874
672.342	14.3842
674.061	15.98
675.781	15.8373
677.502	17.0465
679.22	17.2808
680.941	19.1107
682.659	21.0699
684.379	22.051
686.096	22.9321
687.815	22.9338
689.532	23.2179
691.248	23.7206
692.966	24.0569
694.682	25.9793
696.4	26.6247
698.115	28.3916
699.829	27.9587
701.546	28.5029
703.26	29.5741
704.974	31.2874
706.689	32.1672
708.402	33.2106
710.115	33.9729
711.83	35.0831
713.542	36.288
715.254	37.4242
716.967	38.2383
718.679	39.3583
720.39	39.4783
722.102	39.6373
723.812	40.8605
725.522	41.6816
727.232	42.8513
728.943	44.8423
730.652	45.8394
732.361	46.8382
734.069	46.7377
735.779	46.6642
737.487	47.4717
739.194	48.532
740.901	48.27
742.608	47.9632
744.316	46.9221
746.022	46.607
747.728	46.9794
749.433	47.6155
751.138	47.6489
752.843	47.616
754.549	47.9456
756.254	48.997
757.957	48.2443
759.661	48.5247
761.364	47.9101
763.067	48.5004
764.769	48.6785
766.471	50.9634
768.175	50.6487
769.877	51.079
771.578	51.3353
773.279	51.2249
774.98	51.9757
776.68	52.6089
778.38	53.6451
780.079	53.051
781.779	52.4712
783.478	52.8431
785.176	52.5206
786.875	54.311
788.573	53.7714
790.27	54.0625
791.968	54.5022
793.665	55.2529
795.361	55.682
797.058	56.4097
798.754	57.0731
800.45	57.829
802.145	58.7051
803.84	58.8515
805.535	58.7511
807.23	59.1717
808.922	60.1217
810.616	61.3654
812.309	61.935
814.002	61.6218
815.695	61.7444
817.388	61.6918
819.08	61.2718
820.772	61.7809
822.464	61.381
824.153	60.4926
825.844	59.1378
827.535	58.2241
829.225	56.2074
830.915	54.8327
832.605	54.0294
834.292	53.4833
835.981	53.212
837.67	52.6719
839.359	51.5376
841.047	50.417
842.732	49.1454
844.42	48.1147
846.107	46.798
847.794	47.1277
849.479	46.9953
851.165	47.0918
852.851	46.1824
854.534	44.7953
856.22	44.003
857.905	44.0038
859.589	44.4402
861.272	43.056
862.956	42.3627
864.639	41.345
866.321	41.5116
868.004	41.6096
869.687	41.8566
871.367	42.4822
873.049	41.6162
874.731	41.1569
876.41	41.4053
878.092	41.8832
879.771	42.4153
881.451	42.7368
883.131	42.2084
884.809	42.2932
886.489	41.8965
888.166	41.9524
889.845	42.3593
891.522	42.9271
893.2	43.8787
894.878	44.6246
896.554	44.4419
898.231	42.9942
899.906	43.2216
901.583	43.0301
903.258	43.19
904.934	42.9562
906.608	41.5885
908.283	41.0946
909.956	39.9486
911.631	39.8364
913.304	40.2346
914.976	40.1368
916.65	40.2374
918.322	39.9631
919.995	39.9089
921.666	39.0021
923.339	38.6536
925.009	38.1266
926.679	37.5513
928.351	37.7504
930.021	37.2884
931.692	38.4159
933.361	37.669
935.029	38.2536
936.699	37.9426
938.367	37.8986
940.035	39.101
941.704	38.9578
943.371	39.1202
945.038	37.502
946.706	36.9937
948.372	36.758
950.038	35.9891
951.705	35.2155
953.37	34.5275
955.035	33.2163
956.7	31.617
958.366	30.541
960.03	31.2372
961.693	30.886
963.357	29.3829
965.021	27.5269
966.684	27.4245
968.346	27.127
970.008	26.7586
971.67	26.644
973.334	25.9629
974.995	25.7622
976.655	25.7245
978.316	24.8232
979.976	23.3904
981.638	22.3449
983.297	23.3722
984.957	23.6889
986.616	23.8553
988.274	22.7204
989.932	22.0297
991.59	21.8819
993.248	20.4139
994.907	19.6324
996.565	17.9023
998.221	14.8653
999.878	14.1013
1001.53	12.7755
1003.19	11.5909
1004.85	11.6046
1006.5	12.2925
1008.16	14.4252
1009.81	19.8702
1011.46	25.2648
1013.12	31.6763
1014.77	40.6814
1016.43	48.621
1018.08	57.2381
1019.73	65.0148
1021.38	72.0681
1023.04	79.2487
1024.69	87.0847
1026.34	93.7974
1027.99	99.2323
1029.64	105.393
1031.29	110.261
1032.94	114.397
1034.59	118.34
1036.24	122.09
1037.89	124.861
1039.54	127.837
1041.19	130.571
1042.84	132.669
1044.48	133.585
1046.13	133.622
1047.78	133.155
1049.42	133.222
1051.07	131.862
1052.72	129.91
1054.36	127.086
1056.01	122.853
1057.66	119.261
1059.3	115.294
1060.94	109.606
1062.59	103.837
1064.23	98.1082
1065.88	91.647
1067.52	84.006
1069.16	76.3412
1070.81	67.6884
1072.45	58.6467
1074.09	50.8185
1075.73	42.4838
1077.38	34.2703
1079.02	26.1697
1080.66	19.7238
1082.3	14.5871
1083.94	9.90829
1085.58	7.45044
1087.22	6.99409
1088.86	6.42334
1090.5	9.6008
1092.13	12.6797
1093.77	14.6185
1095.41	16.7051
1097.05	18.761
1098.68	18.6868
1100.32	18.5871
1101.96	19.3114
1103.6	20.0987
1105.23	22.0494
1106.87	23.2928
1108.5	22.7794
1110.14	23.2453
1111.77	23.8721
1113.41	24.3072
1115.04	24.8417
1116.67	24.5544
1118.31	25.3058
1119.94	25.1649
1121.58	25.6141
1123.21	25.8364
1124.84	25.8306
1126.47	25.5169
1128.1	25.7329
1129.73	25.5195
1131.37	25.8051
1133	25.2269
1134.63	23.2004
1136.26	22.2256
1137.89	21.1505
1139.52	20.7913
1141.14	18.9944
1142.77	17.7669
1144.4	16.6322
1146.03	15.2966
1147.66	14.5175
1149.29	13.3283
1150.91	11.877
1152.54	10.1503
1154.17	9.17015
1155.79	9.2867
1157.42	7.54034
1159.04	6.4891
1160.67	6.57928
1162.3	6.4532
1163.92	6.06172
1165.55	6.55665
1167.17	7.25916
1168.79	7.86359
1170.42	8.24719
1172.04	9.73164
1173.66	9.97205
1175.28	9.61799
1176.91	8.25559
1178.53	8.83934
1180.15	8.43021
1181.77	9.23776
1183.39	9.83673
1185.01	11.3456
1186.63	12.0766
1188.25	12.9535
1189.87	13.3533
1191.49	14.1002
1193.11	14.6187
1194.73	15.0857
1196.35	15.3651
1197.97	15.6972
1199.59	16.5819
1201.2	16.3402
1202.82	16.9578
1204.44	17.2042
1206.05	17.9537
1207.67	17.89
1209.29	18.322
1210.9	17.297
1212.52	17.7955
1214.13	17.6468
1215.75	17.5905
1217.36	18.3358
1218.97	18.6344
1220.59	18.7199
1222.2	18.4342
1223.82	19.2862
1225.43	19.2958
1227.04	20.3971
1228.65	21.2509
1230.26	21.4476
1231.88	22.8072
1233.49	24.0282
1235.1	26.0228
1236.71	27.8609
1238.32	28.2587
1239.93	30.8402
1241.54	32.4857
1243.15	32.9107
1244.76	32.674
1246.37	33.4754
1247.97	34.8626
1249.58	35.2151
1251.19	36.1204
1252.8	37.6998
1254.41	37.6458
1256.01	38.3807
1257.62	39.4821
1259.23	41.7294
1260.83	43.1981
1262.44	44.8142
1264.04	46.8938
1265.65	50.0769
1267.25	51.0982
1268.86	52.6782
1270.46	53.2836
1272.07	55.1269
1273.67	55.7444
1275.27	57.1454
1276.88	58.0563
1278.48	59.6345
1280.08	60.7205
1281.68	62.1571
1283.28	62.3924
1284.89	63.1916
1286.49	64.3226
1288.09	63.8215
1289.69	64.8878
1291.29	64.2385
1292.89	65.953
1294.49	65.1937
1296.09	65.0091
1297.69	64.1416
1299.29	63.8028
1300.88	63.8697
1302.48	63.3579
1304.08	64.0936
1305.68	63.6596
1307.27	63.9374
1308.87	63.8824
1310.47	64.1117
1312.06	64.3605
1313.66	64.2702
1315.25	63.6618
1316.85	63.1204
1318.44	61.558
1320.04	60.5724
1321.63	59.4997
1323.23	58.1787
1324.82	58.0448
1326.41	57.5216
1328.01	57.4685
1329.6	56.5697
1331.19	57.351
1332.78	56.2313
1334.38	55.0143
1335.97	55.4548
1337.56	54.618
1339.15	54.5182
1340.74	55.356
1342.33	55.7321
1343.92	55.2874
1345.51	54.7489
1347.1	54.2086
1348.69	53.2161
1350.28	53.0536
1351.87	53.1274
1353.46	53.2336
1355.04	53.0679
1356.63	52.9617
1358.22	52.6473
1359.81	51.4918
1361.39	50.4698
1362.98	48.7257
1364.57	48.2824
1366.15	47.2675
1367.74	45.8153
1369.32	45.2114
1370.91	43.3345
1372.49	42.5204
1374.07	40.757
1375.66	40.0911
1377.24	39.8934
1378.83	39.2506
1380.41	39.2477
1381.99	38.5595
1383.57	38.8846
1385.16	39.2128
1386.74	39.4398
1388.32	38.9782
1389.9	39.0302
1391.48	38.6867
1393.06	39.2592
1394.64	38.5574
1396.22	39.6356
1397.8	40.4075
1399.38	40.2666
1400.96	41.6422
1402.54	42.1892
1404.12	42.7214
1405.7	42.9882
1407.28	45.196
1408.85	46.9236
1410.43	48.1794
1412.01	48.5594
1413.58	50.5475
1415.16	52.2882
1416.74	53.824
1418.31	56.1073
1419.89	59.1394
1421.46	60.9831
1423.04	62.9345
1424.61	64.514
1426.19	66.6604
1427.76	69.1168
1429.33	71.207
1430.91	72.5921
1432.48	74.9026
1434.05	76.9078
1435.63	79.4968
1437.2	81.2131
1438.77	82.3766
1440.34	83.2696
1441.91	83.8758
1443.49	85.113
1445.05	84.8125
1446.63	85.3321
1448.2	85.3993
1449.77	84.6934
1451.34	84.7222
1452.91	85.7631
1454.47	85.0599
1456.04	83.7406
1457.61	82.7883
1459.18	82.8031
1460.75	82.2855
1462.31	81.3346
1463.88	80.3368
1465.45	78.59
1467.01	77.9167
1468.58	77.391
1470.15	76.8957
1471.71	76.5668
1473.28	75.0021
1474.84	74.1347
1476.41	73.0338
1477.97	70.0513
1479.54	69.8614
1481.1	68.5183
1482.66	66.507
1484.23	65.2711
1485.79	64.0634
1487.35	63.1756
1488.91	59.2113
1490.48	57.5279
1492.04	55.5197
1493.6	53.9085
1495.16	52.0393
1496.72	50.6942
1498.28	49.089
1499.84	47.0088
1501.4	44.7978
1502.96	42.8425
1504.52	42.9288
1506.08	41.5572
1507.64	39.959
1509.2	39.7074
1510.76	38.2741
1512.31	37.6529
1513.87	36.0616
1515.43	34.6024
1516.99	32.6269
1518.54	31.5682
1520.1	30.7699
1521.66	29.94
1523.21	28.2023
1524.77	27.8153
1526.32	26.7421
1527.88	27.1063
1529.43	27.6088
1530.99	27.6164
1532.54	26.8597
1534.09	26.4288
1535.65	26.9942
1537.2	27.3357
1538.75	28.0668
1540.31	28.8979
1541.86	30.3318
1543.41	30.4218
1544.96	30.9321
1546.51	32.211
1548.06	33.0942
1549.62	33.3053
1551.17	32.6228
1552.72	33.2315
1554.27	34.1251
1555.82	33.037
1557.36	34.0312
1558.91	33.6899
1560.46	33.5596
1562.01	33.2789
1563.56	32.7765
1565.11	33.4153
1566.66	32.7735
1568.2	33.7679
1569.75	33.9747
1571.3	33.6509
1572.84	33.5035
1574.39	33.6964
1575.93	34.6303
1577.48	35.2227
1579.02	36.0341
1580.57	37.154
1582.11	37.6699
1583.66	37.3298
1585.2	38.3143
1586.75	38.5865
1588.29	38.5384
1589.83	41.0107
1591.38	41.8211
1592.92	41.6763
1594.46	42.5306
1596	43.6033
1597.54	44.5762
1599.09	44.74
1600.63	45.6731
1602.17	45.9933
1603.71	46.4957
1605.25	46.7474
1606.79	46.1773
1608.33	45.8023
1609.87	44.5929
1611.41	44.8306
1612.95	45.0459
1614.48	45.1839
1616.02	45.3057
1617.56	45.5874
1619.1	45.6229
1620.64	44.6177
1622.17	44.7135
1623.71	44.6712
1625.25	44.1722
1626.78	43.8362
1628.32	43.9245
1629.86	44.7954
1631.39	45.2629
1632.92	45.521
1634.46	46.4729
1635.99	47.0105
1637.53	47.5675
1639.06	48.0312
1640.59	48.0396
1642.13	49.6585
1643.66	49.7176
1645.19	49.4675
1646.73	50.3185
1648.26	49.7797
1649.79	50.7692
1651.32	51.2976
1652.85	51.833
1654.38	51.6556
1655.92	52.3814
1657.45	52.3388
1658.98	51.1774
1660.51	51.7944
1662.04	52.2949
1663.57	51.4323
1665.09	50.971
1666.62	49.5273
1668.15	48.0399
1669.68	45.925
1671.21	44.7301
1672.73	43.3018
1674.26	40.6277
1675.79	38.313
1677.31	36.1826
1678.84	34.2658
1680.37	32.1491
1681.89	30.9422
1683.42	30.201
1684.94	28.9413
1686.47	25.9418
1687.99	24.9901
1689.52	22.4031
1691.04	21.3934
1692.57	19.7941
1694.09	18.3556
1695.61	16.1646
1697.14	14.0022
1698.66	13.7293
1700.18	13.0985
1701.7	12.7633
1703.22	12.1209
1704.75	12.2116
1706.27	12.2174
1707.79	11.5833
1709.31	10.7992
1710.83	9.98202
1712.35	9.84544
1713.87	9.50909
1715.39	8.17583
1716.91	7.49234
1718.43	8.26674
1719.95	8.32325
1721.46	8.43449
1722.98	8.58533
1724.5	8.91777
1726.02	9.63923
1727.53	9.81293
1729.05	9.91924
1730.57	10.0044
1732.08	9.8506
1733.6	9.26855
1735.12	8.62893
1736.63	8.96228
1738.15	8.09324
1739.66	5.11225
1741.18	4.81414
1742.69	4.61895
1744.21	5.60295
1745.72	5.5299
1747.23	5.80896
1748.74	5.88735
1750.26	5.47284
1751.77	6.30662
1753.28	6.68884
1754.8	6.89187
1756.31	6.84346
1757.82	8.00137
1759.33	8.00529
1760.84	7.24221
1762.35	6.69069
1763.86	7.37738
1765.37	7.6478
1766.88	7.60381
1768.39	6.95813
1769.9	7.18541
1771.41	7.28825
1772.92	7.62423
1774.43	7.40506
1775.93	6.68138
1777.44	6.05914
1778.95	6.05243
1780.46	5.64997
1781.96	5.48145
1783.47	4.98467
1784.98	5.315
1786.48	5.66024
1787.99	6.07431
1789.49	6.20619
1791	5.54329
1792.5	6.34334
1794.01	7.11003
1795.51	7.36934
1797.02	7.41051
1798.52	7.11375
1800.03	7.71375
1801.53	6.61084
1803.03	7.13619
1804.53	6.73165
1806.04	6.85968
1807.54	5.7704
1809.04	5.31676
1810.54	4.95105
1812.04	5.32869
1813.54	4.83722
1815.05	4.61582
1816.55	6.56316
1818.05	6.77338
1819.55	6.9219
1821.05	6.93739
1822.55	6.76067
1824.05	6.40116
1825.54	6.5634
1827.04	6.70251
1828.54	7.17292
1830.04	6.75139
1831.54	7.46926
1833.03	7.55826
1834.53	6.9725
1836.03	6.50751
1837.52	6.20739
1839.02	6.26383
1840.52	5.5139
1842.01	5.20826
1843.51	5.11408
1845	4.65977
1846.5	4.21299
1847.99	3.47768
1849.49	3.37418
1850.98	4.06529
1852.47	3.79232
1853.97	4.34238
1855.46	3.85521
1856.95	4.56471
1858.45	4.72874
1859.94	4.70942
1861.43	5.27854
1862.92	5.80551
1864.41	6.00944
1865.91	6.10233
1867.4	6.14505
1868.89	6.72757
1870.38	6.02496
1871.87	6.31987
1873.36	6.27049
1874.85	7.21919
1876.34	6.87326
1877.83	7.46895
1879.31	7.07695
1880.8	7.22957
1882.29	6.66303
1882.56	7.3285
1884.05	7.74871
1885.54	7.77276
1887.04	7.38608
1888.53	8.17844
1890.03	7.78232
1891.52	8.068
1893.01	7.61905
1894.5	7.61999
1895.99	6.69395
1897.49	6.29001
1898.98	6.57821
1900.47	6.45852
1901.96	6.13908
1903.45	5.29445
1904.94	5.80657
1906.43	5.20739
1907.92	5.21275
1909.41	4.78045
1910.9	3.91503
1912.39	4.09916
1913.88	3.30624
1915.37	3.7749
1916.86	3.33236
1918.35	2.83591
1919.84	2.63718
1921.32	2.66948
1922.81	3.0206
1924.3	3.39995
1925.78	3.04047
1927.27	3.54168
1928.76	2.97903
1930.24	2.46297
1931.73	2.17959
1933.21	2.52482
1934.7	2.10959
1936.18	1.69624
1937.67	2.05391
1939.15	1.60894
1940.64	1.47601
1942.12	2.27832
1943.6	2.3003
1945.09	3.77631
1946.57	3.67829
1948.05	4.25891
1949.54	4.3833
1951.02	4.69599
1952.5	4.96755
1953.98	5.02421
1955.46	5.2488
1956.94	5.28386
1958.42	4.64676
1959.91	4.30835
1961.39	5.06468
1962.87	5.43707
1964.34	4.50777
1965.82	4.53319
1967.3	3.45963
1968.78	3.53033
1970.26	3.62432
1971.74	4.14561
1973.22	3.92882
1974.7	3.61779
1976.17	2.55181
1977.65	2.08566
1979.13	1.97831
1980.6	2.05757
1982.08	1.70435
1983.56	1.12648
1985.03	0.549908
1986.51	0.950975
1987.98	0.293535
1989.46	1.39923
1990.93	1.36942
1992.41	0.646443
1993.88	0.712202
1995.36	0.840443
1996.83	1.2605
1998.3	1.20388
1999.78	0.786426
2001.25	0.417412
2002.72	0.669417
2004.2	0.697853
2005.67	1.8306
2007.14	0.824401
2008.61	0.742682
2010.08	2.21668
2011.55	2.97287
2013.02	2.42893
2014.49	3.24541
2015.97	3.78602
2017.43	4.50123
2018.9	4.87296
2020.37	4.07123
2021.84	4.33393
2023.31	4.37346
2024.78	4.55152
2026.25	4.91122
2027.72	4.90258
2029.19	5.32879
2030.65	5.72603
2032.12	5.37712
2033.59	6.73788
2035.05	7.01066
2036.52	7.62439
2037.98	7.55974
2039.45	8.34595
2040.92	8.36755
2042.38	8.61551
2043.85	9.29955
2045.31	9.46746
2046.78	9.82994
2048.24	9.54662
2049.71	9.02805
2051.17	10.2469
2052.63	10.7401
2054.1	11.6974
2055.56	10.9121
2057.02	10.9526
2058.48	10.8759
2059.95	11.7722
2061.41	12.1822
2062.87	13.0849
2064.33	12.421
2065.79	12.7672
2067.25	13.98
2068.71	14.9131
2070.17	16.0257
2071.63	15.779
2073.09	16.3517
2074.55	16.559
2076.01	17.5641
2077.47	17.4157
2078.93	16.8515
2080.39	15.9157
2081.85	17.083
2083.3	17.8423
2084.76	18.3391
2086.22	18.9705
2087.68	20.7113
2089.13	21.4735
2090.59	21.7936
2092.05	21.3473
2093.5	21.6816
2094.96	22.8883
2096.41	24.5192
2097.87	26.0889
2099.32	26.5222
2100.78	26.6721
2102.23	27.4513
2103.69	27.9464
2105.14	27.7448
2106.59	29.2424
2108.05	29.6189
2109.5	31.1186
2110.95	31.3822
2112.41	32.1766
2113.86	33.5403
2115.31	33.8068
2116.76	35.4655
2118.21	36.5547
2119.67	36.6835
2121.12	37.5793
2122.57	38.5244
2124.02	40.8079
2125.47	41.9437
2126.92	43.3742
2128.37	44.5446
2129.82	45.4942
2131.27	46.2282
2132.71	48.3134
2134.16	49.7322
2135.61	51.2576
