#Acq. time (s)=	45
#Accumulations=	2
#Range (cm-¹)=	200...3150
#Windows=	2
#Auto scanning=	Off
#Autofocus=	Off
#Macrospot=	Off
#AutoExposure=	Off
#Spike filter=	Multiple accum.
#Delay time (s)=	0
#Binning=	1
#Readout mode=	Signal
#DeNoise=	Off
#ICS correction=	On
#Dark correction=	Off
#Inst. Process=	Off
#Detector Gain=	Best Dynamic Range
#Detector ADC=	20 kHz       
#Detector temperature (°C)=	-70.08
#Instrument=	LabRAM HR Evol
#Detector=	Synapse
#Objective=	x100
#Grating=	600 gr/mm
#ND Filter=	100%
#Laser (nm)=	532 
#Hole=	100.021
#Range=	Auto
#Laser Pol.=	No
#Raman. Pol.=	No
#Laser Pol. (°)=	-0.0007625
#Raman Pol. (°)=	89.9995
#Collection=	Microscope
#StageXY=	Marzhauser
#StageZ=	Marzhauser
#X (µm)=	-2557.3
#Y (µm)=	-91.6
#Z (µm)=	-10.75
#Full time(mm:ss)=	3:18
#Project=	
#Sample=	
#Site=	
#Title=	Mb_40_24_16_2x_45s_532 nm_x100_100%_600 gr_mm
#Remark=	
#Date=	14.07.2022 11:51
#Acquired=	14.07.2022 11:51:04
#Base:Fit=	10.08.2022 10:47:00
#Base:Sub=	10.08.2022 10:47:12
#Filter:Polynom=	16.08.2022 10:11:48
#AxisType[0]=Intens
#AxisUnit[0]=Cnt
#AxisType[1]=Spectr
#AxisUnit[1]=1/cm
200.554	30.0418
202.369	25.8257
204.183	21.4819
205.999	20.8049
207.813	19.379
209.626	18.3204
211.439	17.5993
213.253	16.6112
215.065	18.2671
216.877	19.8966
218.688	19.5968
220.5	19.669
222.312	19.6245
224.123	21.1314
225.933	21.2566
227.742	24.418
229.552	26.1353
231.361	27.1916
233.171	28.1948
234.98	28.3654
236.787	28.8744
238.595	30.8962
240.402	33.1446
242.209	32.1374
244.015	32.917
245.822	35.942
247.627	37.9508
249.435	39.4804
251.24	43.2905
253.045	45.585
254.849	47.9626
256.653	49.4671
258.457	52.8901
260.26	54.377
262.063	56.5975
263.866	57.8453
265.668	58.1033
267.47	57.9488
269.271	57.3453
271.073	58.9113
272.873	60.3865
274.674	61.1397
276.474	61.7937
278.274	61.7738
280.073	63.9043
281.872	66.8802
283.671	67.3149
285.47	68.8932
287.268	70.8084
289.065	72.7016
290.863	74.2702
292.66	74.3147
294.456	77.5268
296.253	79.1906
298.049	80.9114
299.844	82.3628
301.637	86.3935
303.432	87.7926
305.227	90.7898
307.021	90.3558
308.815	91.5288
310.609	93.6428
312.402	94.6591
314.195	95.6141
315.987	96.4314
317.777	97.0116
319.569	96.3864
321.36	94.8282
323.151	94.7614
324.942	93.7481
326.733	92.876
328.521	92.0145
330.31	87.4599
332.1	85.1298
333.889	87.3137
335.677	87.3346
337.464	84.9174
339.252	83.568
341.039	83.5804
342.826	80.3581
344.611	78.6792
346.398	76.3384
348.184	73.3149
349.97	70.2484
351.754	67.4427
353.539	62.5686
355.324	59.3155
357.106	56.1534
358.89	53.6291
360.674	49.7267
362.455	44.7339
364.239	41.6576
366.021	39.2939
367.804	39.3569
369.584	36.8832
371.366	33.3791
373.145	30.6091
374.926	29.0677
376.707	26.9941
378.485	26.0945
380.265	26.4461
382.045	25.0043
383.822	26.8322
385.601	26.8587
387.378	26.294
389.156	25.7319
390.934	26.0716
392.71	24.6606
394.487	25.0546
396.262	23.178
398.038	23.1972
399.813	20.8582
401.588	19.8246
403.362	19.8061
405.137	20.1414
406.912	19.799
408.685	19.0115
410.459	18.6219
412.23	20.0998
414.004	18.7014
415.775	19.3272
417.548	19.8322
419.318	19.7801
421.089	23.9861
422.86	25.6617
424.63	24.4483
426.401	23.9051
428.17	23.6416
429.94	23.6183
431.708	23.0994
433.478	23.0469
435.245	23.3462
437.012	22.3831
438.781	22.4065
440.547	19.4019
442.315	17.4252
444.081	16.9563
445.846	16.2525
447.613	14.5936
449.378	14.6102
451.142	12.0842
452.908	11.122
454.672	11.4955
456.435	10.3983
458.2	7.91031
459.963	7.82943
461.725	8.29809
463.489	9.02201
465.251	8.15609
467.012	8.22361
468.775	8.51906
470.536	7.8293
472.296	8.07554
474.056	6.83529
475.817	4.38564
477.576	2.47214
479.335	2.6062
481.094	0.986827
482.854	-0.124114
484.612	-1.7487
486.37	-0.29915
488.127	-0.473999
489.886	1.30475
491.642	1.96012
493.398	3.03821
495.154	5.60976
496.91	6.67957
498.667	11.1451
500.422	12.9757
502.176	13.3425
503.93	16.8403
505.684	18.8827
507.438	21.3425
509.191	24.7493
510.946	26.9555
512.698	26.1698
514.45	27.491
516.202	29.4029
517.954	31.3938
519.705	32.4685
521.456	31.3818
523.206	33.2137
524.956	31.749
526.706	33.0877
528.456	34.3175
530.207	35.0798
531.956	35.0584
533.704	34.6017
535.452	33.395
537.2	32.4519
538.947	30.7867
540.694	31.1873
542.441	31.1193
544.188	30.1887
545.934	29.8458
547.68	29.8893
549.425	28.8868
551.17	27.5381
552.915	27.042
554.659	26.5615
556.403	25.466
558.145	24.6106
559.889	22.2863
561.632	21.4589
563.375	20.5762
565.117	20.7912
566.859	19.2158
568.601	18.8773
570.342	17.5855
572.083	16.8794
573.824	16.9083
575.565	17.0676
577.303	17.5165
579.043	18.8771
580.782	19.7293
582.521	22.0049
584.26	21.7486
585.998	22.5423
587.734	21.8096
589.472	22.0135
591.21	23.6526
592.947	23.7778
594.684	24.0924
596.418	23.6023
598.154	23.4431
599.89	21.4015
601.626	22.4005
603.361	22.8711
605.094	23.1024
606.828	21.9405
608.562	21.5935
610.296	23.9771
612.027	23.805
613.761	26.0659
615.493	24.9703
617.224	23.3791
618.956	23.5716
620.688	23.4354
622.419	23.8611
624.149	23.9842
625.879	25.3131
627.61	25.1793
629.338	27.5864
631.068	29.0262
632.797	27.9318
634.525	29.414
636.254	30.3515
637.98	30.8948
639.708	30.9289
641.436	28.9245
643.162	27.3826
644.889	26.4078
646.614	24.3992
648.34	25.2729
650.067	23.8045
651.791	24.0107
653.516	21.0196
655.239	20.946
656.964	18.871
658.687	18.5654
660.411	18.1222
662.133	17.8497
663.857	16.5231
665.58	17.4338
667.301	15.0801
669.024	15.5556
670.744	12.65
672.464	12.7689
674.186	12.2893
675.905	12.8383
677.626	13.1982
679.345	13.3374
681.065	15.0975
682.783	13.9531
684.503	15.2365
686.22	15.4843
687.939	16.7915
689.656	17.7215
691.372	19.4397
693.09	20.4632
694.806	21.4441
696.523	21.4305
698.239	20.1723
699.953	19.9508
701.67	19.7962
703.384	20.9037
705.098	24.3229
706.813	25.8125
708.526	28.7751
710.239	30.3901
711.954	31.8992
713.666	33.0951
715.378	34.3281
717.091	33.6633
718.802	33.481
720.513	35.1672
722.226	34.3486
723.936	34.3341
725.646	33.1776
727.355	32.0611
729.067	33.7855
730.776	35.2656
732.484	36.2042
734.192	36.2868
735.902	37.3577
737.61	39.5945
739.317	38.8451
741.024	40.081
742.731	39.6873
744.439	40.0603
746.145	39.727
747.851	40.2849
749.556	42.3696
751.262	44.6153
752.966	46.4625
754.673	48.4627
756.377	49.429
758.081	51.6772
759.784	51.6105
761.487	53.5145
763.19	53.7163
764.892	54.7776
766.594	56.2727
768.296	56.2537
770	57.9333
771.701	57.3605
773.402	56.2821
775.102	56.1545
776.803	55.9739
778.503	55.0396
780.202	54.6277
781.901	54.5441
783.6	55.7268
785.299	56.9483
786.997	57.9604
788.695	59.3145
790.393	62.1043
792.09	61.6313
793.787	62.5562
795.484	62.6222
797.18	63.4366
798.877	64.7011
800.572	65.314
802.268	66.0009
803.963	66.0045
805.658	66.6998
807.35	67.0411
809.044	66.7521
810.738	67.0419
812.432	67.423
814.125	68.8704
815.818	67.886
817.51	69.6203
819.202	70.8213
820.894	73.2895
822.584	72.0898
824.275	71.514
825.966	72.8728
827.657	74.2663
829.347	75.314
831.037	77.5126
832.725	81.6483
834.414	84.3692
836.103	84.9471
837.792	85.7531
839.481	85.5939
841.167	86.9662
842.854	86.9586
844.542	86.9961
846.229	88.2445
847.914	87.7673
849.6	90.1993
851.287	92.0217
852.973	92.0311
854.656	91.6226
856.341	91.4866
858.026	92.8221
859.711	93.5587
861.393	93.0151
863.077	91.7035
864.761	91.2865
866.442	90.6983
868.125	91.4841
869.808	89.5909
871.489	88.9016
873.171	88.1603
874.85	87.6081
876.532	85.2691
878.213	83.7749
879.892	81.6008
881.572	79.6264
883.251	75.8726
884.931	72.1005
886.61	69.1429
888.287	67.1655
889.966	63.0057
891.643	60.5523
893.321	57.4224
894.997	56.9389
896.675	54.289
898.352	52.1409
900.028	51.3039
901.704	50.824
903.379	48.9826
905.055	47.5006
906.729	47.1983
908.404	47.6141
910.077	47.4273
911.75	46.806
913.425	46.8757
915.097	46.6507
916.771	47.4192
918.443	47.2427
920.116	46.1368
921.787	45.1894
923.46	45.0095
925.13	44.5257
926.8	44.3275
928.472	45.6076
930.141	45.6051
931.813	45.9524
933.481	48.0314
935.15	44.5865
936.82	42.4759
938.488	41.1606
940.156	39.3516
941.825	39.7842
943.492	37.3847
945.158	37.9449
946.827	36.0391
948.493	35.8992
950.158	34.3838
951.824	31.5589
953.491	26.9736
955.156	25.9467
956.82	23.3743
958.486	20.7873
960.15	18.2705
961.814	17.5789
963.477	17.3691
965.142	18.881
966.804	19.1678
968.467	20.6557
970.129	22.5662
971.79	22.2841
973.454	21.7251
975.115	24.4924
976.776	24.4839
978.436	25.8566
980.096	26.132
981.756	28.22
983.417	30.6401
985.077	30.7692
986.736	32.3198
988.394	32.5103
990.052	32.8259
991.71	32.2721
993.368	32.5579
995.025	33.6611
996.682	34.4788
998.341	34.2208
999.998	34.3961
1001.65	32.6366
1003.31	31.8205
1004.97	31.4524
1006.62	33.2068
1008.28	36.2336
1009.93	38.1421
1011.58	40.1004
1013.24	39.8161
1014.89	43.3616
1016.54	46.6339
1018.2	46.5587
1019.85	49.8167
1021.5	53.3972
1023.16	57.9278
1024.81	60.4532
1026.46	61.4198
1028.11	64.4511
1029.76	64.1829
1031.41	67.2809
1033.06	68.5598
1034.71	69.172
1036.36	71.5661
1038.01	74.0238
1039.66	75.5704
1041.31	77.1838
1042.95	81.5468
1044.6	84.0857
1046.25	85.3733
1047.9	88.3606
1049.54	88.4991
1051.19	87.982
1052.84	88.0205
1054.48	86.9531
1056.13	86.6068
1057.77	85.365
1059.42	83.0281
1061.06	81.9645
1062.71	80.4393
1064.35	78.0801
1066	76.1219
1067.64	72.2947
1069.28	68.8875
1070.93	64.8837
1072.57	61.0324
1074.21	58.0191
1075.85	55.0597
1077.49	53.0093
1079.13	48.6066
1080.78	44.9037
1082.42	40.867
1084.06	38.7243
1085.7	39.6686
1087.34	37.649
1088.97	38.8158
1090.61	40.4726
1092.25	38.7443
1093.89	39.6877
1095.53	38.9055
1097.17	39.8046
1098.8	39.2655
1100.44	37.4115
1102.08	38.0859
1103.71	39.3472
1105.35	38.8775
1106.99	35.5838
1108.62	35.763
1110.26	34.1814
1111.89	32.6589
1113.52	31.4424
1115.16	29.5306
1116.79	27.8607
1118.43	27.1514
1120.06	26.0906
1121.69	24.7882
1123.32	21.7671
1124.96	21.4292
1126.59	21.1966
1128.22	21.8383
1129.85	22.97
1131.48	20.9771
1133.11	20.0011
1134.75	18.6906
1136.37	17.7171
1138	15.8237
1139.63	15.3684
1141.26	14.5915
1142.89	15.9244
1144.52	14.6754
1146.15	14.4639
1147.78	13.6103
1149.4	12.4908
1151.03	11.2851
1152.66	10.8155
1154.28	11.4406
1155.91	10.352
1157.54	10.3911
1159.16	9.74855
1160.79	7.67913
1162.41	6.9686
1164.04	5.96761
1165.66	5.83976
1167.29	5.6719
1168.91	5.12323
1170.53	6.20427
1172.16	5.20289
1173.78	4.834
1175.4	6.42943
1177.02	4.92308
1178.65	6.2364
1180.27	6.92756
1181.89	6.60234
1183.51	7.23922
1185.13	7.2638
1186.75	6.01666
1188.37	4.9512
1189.99	6.61436
1191.61	5.35485
1193.23	5.58314
1194.85	6.18657
1196.47	7.41914
1198.08	7.44645
1199.7	7.60694
1201.32	7.42896
1202.94	8.27095
1204.55	8.9723
1206.17	11.0355
1207.79	14.0886
1209.4	16.325
1211.02	20.5912
1212.63	23.1903
1214.25	25.3879
1215.86	29.534
1217.48	35.1599
1219.09	38.8135
1220.71	44.0095
1222.32	48.5944
1223.93	53.2707
1225.54	57.3584
1227.16	63.1286
1228.77	66.342
1230.38	71.9845
1231.99	74.4483
1233.6	78.2792
1235.22	83.11
1236.83	87.4802
1238.44	91.7361
1240.05	94.0465
1241.66	97.0984
1243.26	99.4221
1244.87	102.426
1246.48	104.234
1248.09	107.141
1249.7	111.607
1251.31	113.766
1252.92	116.757
1254.52	121.004
1256.13	122.974
1257.74	122.945
1259.34	125.562
1260.95	126.058
1262.55	128.218
1264.16	129.813
1265.76	130.645
1267.37	130.828
1268.97	131.865
1270.58	132.327
1272.18	132.226
1273.78	133.127
1275.39	134.644
1276.99	134.576
1278.59	133.77
1280.2	132.651
1281.8	133.914
1283.4	136.589
1285	137.82
1286.6	141.353
1288.2	143.981
1289.8	147.891
1291.4	150.789
1293	151.213
1294.6	153.135
1296.2	155.435
1297.8	156.777
1299.4	157.463
1301	159.009
1302.6	161.968
1304.19	163.027
1305.79	163.592
1307.39	164.105
1308.99	163.507
1310.58	164.235
1312.18	165.013
1313.77	166.626
1315.37	167.839
1316.96	166.26
1318.56	164.203
1320.15	163.457
1321.75	162.093
1323.34	160.312
1324.94	159.757
1326.53	158.19
1328.12	158.922
1329.72	158.101
1331.31	155.947
1332.9	153.284
1334.49	151.726
1336.08	149.863
1337.67	146.599
1339.27	146.246
1340.86	145.199
1342.45	144.339
1344.04	141.606
1345.63	139.887
1347.22	137.737
1348.8	136.736
1350.39	134.976
1351.98	134.898
1353.57	133.938
1355.16	133.379
1356.75	131.581
1358.33	130.845
1359.92	131.877
1361.51	134.034
1363.09	133.722
1364.68	133.39
1366.27	134.504
1367.85	133.548
1369.44	136.231
1371.02	135.524
1372.61	134.243
1374.19	133.079
1375.77	134.153
1377.36	135.813
1378.94	136.931
1380.52	138.55
1382.11	139.561
1383.69	139.536
1385.27	140.919
1386.85	143.516
1388.43	144.739
1390.02	146.726
1391.6	149.458
1393.18	149.257
1394.76	150.002
1396.34	149.455
1397.92	153.18
1399.5	155.76
1401.08	158.505
1402.65	162.346
1404.23	167.194
1405.81	169.894
1407.39	174.361
1408.97	177.737
1410.54	181.827
1412.12	186.73
1413.7	193.878
1415.27	199.461
1416.85	204.601
1418.43	211.579
1420	217.934
1421.58	226.726
1423.15	234.263
1424.73	241.025
1426.3	249.315
1427.87	258.013
1429.45	266.196
1431.02	275.189
1432.6	281.746
1434.17	288.75
1435.74	294.67
1437.31	301.512
1438.89	306.919
1440.46	310.336
1442.03	312.546
1443.6	314.676
1445.17	315.586
1446.74	315.85
1448.31	315.163
1449.88	312.066
1451.45	310.611
1453.02	308.846
1454.59	306.604
1456.16	300.952
1457.72	295.483
1459.29	290.841
1460.86	283.822
1462.43	276.022
1463.99	267.894
1465.56	258.486
1467.13	249.892
1468.69	239.411
1470.26	228.711
1471.83	215.894
1473.39	206.417
1474.95	196.386
1476.52	188.774
1478.08	178.818
1479.65	169.154
1481.21	160.256
1482.78	149.919
1484.34	140.126
1485.9	132.619
1487.47	123.606
1489.03	116.817
1490.59	110.85
1492.15	103.697
1493.71	97.1297
1495.27	90.6171
1496.84	84.7127
1498.39	81.7938
1499.96	79.392
1501.52	74.4391
1503.07	72.5559
1504.64	70.4238
1506.19	67.3915
1507.75	65.4887
1509.31	64.9781
1510.87	63.4757
1512.43	62.6158
1513.98	61.0063
1515.54	60.6184
1517.1	59.8198
1518.65	59.1226
1520.21	57.8107
1521.77	57.4079
1523.32	57.3683
1524.88	57.4694
1526.44	58.7736
1527.99	60.4619
1529.54	61.7827
1531.1	61.5595
1532.65	61.0182
1534.21	62.4183
1535.76	65.2434
1537.31	67.8203
1538.87	69.4939
1540.42	71.4182
1541.97	74.8577
1543.52	78.748
1545.07	81.0668
1546.63	82.1821
1548.18	85.5794
1549.73	89.5744
1551.28	94.9953
1552.83	98.3501
1554.38	101.972
1555.93	105.317
1557.48	109.161
1559.03	112.431
1560.57	115.708
1562.12	121.188
1563.67	123.693
1565.22	126.995
1566.77	130.64
1568.31	133.828
1569.86	136.859
1571.41	142.305
1572.95	145.804
1574.5	150.121
1576.05	155.449
1577.59	159.97
1579.14	163.71
1580.68	168.596
1582.23	171.399
1583.77	174.736
1585.31	178.901
1586.86	182.156
1588.4	183.091
1589.95	186.225
1591.49	187.969
1593.03	189.94
1594.57	191.653
1596.11	191.206
1597.66	191.252
1599.2	192.973
1600.74	193.185
1602.28	194.062
1603.82	195.394
1605.36	193.509
1606.9	190.996
1608.44	190.11
1609.98	188.155
1611.52	188.044
1613.06	188.942
1614.6	188.21
1616.13	189.113
1617.67	187.496
1619.21	186.683
1620.75	187.215
1622.28	186.407
1623.82	185.376
1625.36	184.98
1626.89	183.876
1628.43	182.788
1629.96	182.999
1631.5	182.06
1633.04	182.994
1634.57	183.132
1636.11	181.598
1637.64	180.743
1639.17	180.206
1640.71	179.997
1642.24	180.237
1643.77	180.264
1645.31	180.533
1646.84	179.619
1648.37	179.494
1649.9	177.305
1651.43	175.584
1652.96	174.988
1654.5	175.762
1656.03	173.053
1657.56	170.573
1659.09	167.456
1660.62	164.168
1662.15	163.058
1663.67	159.653
1665.2	155.664
1666.73	152.561
1668.26	147.592
1669.79	144.509
1671.32	140.056
1672.84	134.642
1674.37	129.992
1675.9	124.326
1677.43	116.811
1678.95	111.591
1680.48	105.78
1682	100.649
1683.53	95.3876
1685.05	91.604
1686.58	86.4706
1688.1	83.3383
1689.63	80.4954
1691.15	74.36
1692.68	71.3056
1694.2	66.2093
1695.72	64.4526
1697.25	61.4893
1698.77	57.2267
1700.29	52.3545
1701.81	49.7405
1703.33	48.0215
1704.86	46.4218
1706.38	44.546
1707.9	41.8247
1709.42	40.9594
1710.94	37.4159
1712.46	36.032
1713.98	35.0349
1715.5	36.0193
1717.02	36.3698
1718.54	35.1314
1720.06	35.2526
1721.57	34.6581
1723.09	34.0551
1724.61	34.6353
1726.13	33.2553
1727.64	32.3201
1729.16	33.3738
1730.68	32.428
1732.19	29.6412
1733.71	29.6594
1735.23	29.4608
1736.74	29.1839
1738.26	27.7833
1739.77	25.8513
1741.29	25.5239
1742.8	24.571
1744.31	24.1458
1745.83	23.9762
1747.34	22.8473
1748.85	20.689
1750.37	18.6046
1751.88	17.6558
1753.39	17.021
1754.91	17.5028
1756.42	17.1305
1757.93	17.0478
1759.44	14.9464
1760.95	13.2736
1762.46	11.8498
1763.97	10.9073
1765.48	9.39749
1766.99	7.73277
1768.5	8.13548
1770.01	6.65432
1771.52	5.87876
1773.03	3.7836
1774.54	2.40549
1776.04	1.35912
1777.55	1.36805
1779.06	1.23376
1780.57	0.245736
1782.07	1.09666
1783.58	1.81767
1785.09	1.59593
1786.59	1.43273
1788.1	2.68234
1789.6	2.77101
1791.11	4.10936
1792.61	4.22927
1794.12	3.82814
1795.62	4.03646
1797.13	4.01827
1798.63	3.25615
1800.13	2.66704
1801.64	1.86142
1803.14	1.76357
1804.64	1.45402
1806.15	-0.00564992
1807.65	0.0635814
1809.15	-0.0155481
1810.65	-0.305069
1812.15	-0.317292
1813.65	-0.506692
1815.16	0.395543
1816.66	1.35335
1818.15	0.567447
1819.66	1.36097
1821.16	1.6017
1822.65	0.843704
1824.15	0.0419556
1825.65	0.630473
1827.15	1.51365
1828.65	0.989
1830.15	1.71595
1831.64	2.77094
1833.14	2.90974
1834.64	2.34299
1836.14	3.0989
1837.63	4.50696
1839.13	5.79643
1840.62	5.41251
1842.12	6.27845
1843.62	7.30451
1845.11	7.41009
1846.61	7.56532
1848.1	7.64758
1849.6	7.84119
1851.09	9.04245
1852.58	9.47284
1854.08	9.06348
1855.57	9.59839
1857.06	10.7035
1858.55	10.0068
1860.05	10.0545
1861.54	10.0609
1863.03	10.3386
1864.52	11.2472
1866.01	11.4789
1867.5	11.2965
1869	10.3204
1870.49	10.9897
1871.98	11.2986
1873.47	10.295
1874.96	10.5311
1876.44	11.3368
1877.93	10.8068
1879.42	10.057
1880.91	10.2067
1882.4	9.84431
1882.47	10.6886
1883.96	10.3616
1885.46	10.3717
1886.95	10.7734
1888.44	10.5521
1889.94	10.216
1891.43	9.28133
1892.93	8.94042
1894.42	8.9808
1895.91	8.86199
1897.4	9.69997
1898.89	10.2469
1900.39	9.91518
1901.88	9.36097
1903.37	9.69056
1904.86	10.4675
1906.35	9.9496
1907.84	9.45395
1909.33	9.15413
1910.82	9.2439
1912.31	8.72533
1913.8	7.77107
1915.29	7.74193
1916.77	7.95964
1918.26	6.49434
1919.75	5.59205
1921.24	3.93121
1922.73	4.2329
1924.21	3.78764
1925.7	3.05423
1927.19	3.52452
1928.67	4.38132
1930.16	4.70538
1931.64	4.42026
1933.13	4.49098
1934.61	3.84254
1936.1	4.88886
1937.58	5.60465
1939.07	5.83475
1940.55	7.20514
1942.04	7.66423
1943.52	8.40048
1945	8.91417
1946.49	9.90735
1947.97	9.50897
1949.45	9.80383
1950.93	9.42691
1952.42	9.78819
1953.9	10.6646
1955.38	10.6035
1956.86	10.6608
1958.34	9.70015
1959.82	9.82542
1961.3	9.88481
1962.78	8.84876
1964.26	7.9307
1965.74	7.67594
1967.22	7.14779
1968.7	6.92233
1970.18	7.30063
1971.65	8.43604
1973.13	7.81601
1974.61	7.28127
1976.09	7.49396
1977.57	7.51608
1979.04	6.82789
1980.52	5.52704
1982	4.31087
1983.47	4.04593
1984.95	4.18899
1986.42	3.75844
1987.9	2.14281
1989.37	2.21264
1990.85	2.26342
1992.32	1.63744
1993.8	2.16363
1995.27	3.16572
1996.75	4.36313
1998.22	4.19248
1999.69	5.90425
2001.17	5.87015
2002.64	6.09785
2004.11	6.74958
2005.58	7.17348
2007.05	8.5386
2008.53	8.74984
2010	10.4185
2011.47	10.3515
2012.94	10.9889
2014.41	10.6587
2015.88	9.31763
2017.35	10.0143
2018.82	10.3342
2020.29	10.366
2021.76	9.39227
2023.23	11.0216
2024.7	11.1968
2026.16	11.5241
2027.63	11.0913
2029.1	11.2981
2030.57	11.7122
2032.03	11.4239
2033.5	12.701
2034.97	13.5915
2036.44	13.3105
2037.9	13.8731
2039.37	14.3213
2040.83	15.822
2042.3	17.2731
2043.76	19.1977
2045.23	20.4873
2046.69	20.815
2048.16	22.4778
2049.62	23.449
2051.08	23.6721
2052.55	24.6891
2054.01	25.3515
2055.47	26.2074
2056.94	27.5716
2058.4	28.9437
2059.86	31.6532
2061.32	31.9399
2062.79	35.3127
2064.25	36.7615
2065.71	38.0352
2067.17	38.9398
2068.63	39.8699
2070.09	40.2844
2071.55	41.9156
2073.01	42.9907
2074.47	42.7108
2075.93	43.3244
2077.39	43.9539
2078.85	43.7096
2080.31	43.2257
2081.76	42.6683
2083.22	43.6865
2084.68	42.7978
2086.13	42.9151
2087.59	43.3716
2089.05	43.6238
2090.51	43.2513
2091.96	42.5011
2093.42	43.3755
2094.87	43.7736
2096.33	43.7884
2097.78	43.4613
2099.24	43.6902
2100.69	43.5023
2102.15	44.6963
2103.6	43.6159
2105.06	43.3661
2106.51	45.4367
2107.96	45.2686
2109.42	45.4006
2110.87	47.2048
2112.32	48.7675
2113.77	50.8447
2115.23	52.7078
2116.68	55.3818
2118.13	58.0823
2119.58	59.7721
2121.03	62.4169
2122.48	64.055
2123.93	66.2157
2125.38	69.6988
2126.83	70.8208
2128.28	72.5262
2129.73	75.6942
2131.18	79.4608
2132.63	83.0079
2134.08	84.9593
2135.53	88.2257
