#Acq. time (s)=	45
#Accumulations=	2
#Range (cm-¹)=	200...3150
#Windows=	2
#Auto scanning=	Off
#Autofocus=	Off
#Macrospot=	Off
#AutoExposure=	Off
#Spike filter=	Multiple accum.
#Delay time (s)=	0
#Binning=	1
#Readout mode=	Signal
#DeNoise=	Off
#ICS correction=	On
#Dark correction=	Off
#Inst. Process=	Off
#Detector Gain=	Best Dynamic Range
#Detector ADC=	20 kHz       
#Detector temperature (°C)=	-70.08
#Instrument=	LabRAM HR Evol
#Detector=	Synapse
#Objective=	x100
#Grating=	600 gr/mm
#ND Filter=	100%
#Laser (nm)=	532 
#Hole=	100.021
#Range=	Auto
#Laser Pol.=	No
#Raman. Pol.=	No
#Laser Pol. (°)=	-0.0007625
#Raman Pol. (°)=	89.9995
#Collection=	Microscope
#StageXY=	Marzhauser
#StageZ=	Marzhauser
#X (µm)=	-2558
#Y (µm)=	-86.2
#Z (µm)=	-10.7
#Full time(mm:ss)=	3:18
#Project=	
#Sample=	
#Site=	
#Title=	Mb_40_24_13_2x_45s_532 nm_x100_100%_600 gr_mm
#Remark=	
#Date=	14.07.2022 11:38
#Acquired=	14.07.2022 11:38:36
#Edit:Spike=	14.07.2022 11:41:56
#Edit:Spike=	14.07.2022 11:41:58
#Base:Fit=	10.08.2022 10:47:00
#Base:Sub=	10.08.2022 10:47:12
#Filter:Polynom=	16.08.2022 10:11:48
#AxisType[0]=Intens
#AxisUnit[0]=Cnt
#AxisType[1]=Spectr
#AxisUnit[1]=1/cm
200.554	37.3067
202.369	40.0541
204.183	40.6089
205.999	40.3674
207.813	38.9273
209.626	37.3243
211.439	35.3143
213.253	32.3965
215.065	30.0829
216.877	28.4626
218.688	26.4256
220.5	24.3357
222.312	23.1246
224.123	21.9558
225.933	21.1201
227.742	19.2584
229.552	17.9673
231.361	16.3668
233.171	15.7337
234.98	14.4496
236.787	14.6497
238.595	13.1368
240.402	11.9267
242.209	10.6617
244.015	10.8141
245.822	10.3053
247.627	9.53382
249.435	8.1497
251.24	7.67441
253.045	7.60281
254.849	7.58512
256.653	7.87747
258.457	7.8229
260.26	7.57684
262.063	7.77515
263.866	7.47753
265.668	8.65891
267.47	10.1856
269.271	11.3557
271.073	12.3116
272.873	12.8388
274.674	12.8861
276.474	13.4917
278.274	14.6048
280.073	14.9406
281.872	14.8791
283.671	13.4872
285.47	12.2613
287.268	11.9133
289.065	11.644
290.863	10.1268
292.66	8.91342
294.456	9.62138
296.253	9.19082
298.049	9.86325
299.844	8.58484
301.637	7.92327
303.432	8.03913
305.227	9.58887
307.021	9.6793
308.815	9.99735
310.609	10.1609
312.402	10.2744
314.195	9.62507
315.987	9.45215
317.777	9.62349
319.569	10.1518
321.36	10.3178
323.151	11.3521
324.942	11.5392
326.733	11.498
328.521	9.87737
330.31	10.5938
332.1	11.7919
333.889	14.1779
335.677	14.4408
337.464	14.2542
339.252	14.292
341.039	15.0449
342.826	14.8804
344.611	14.947
346.398	14.8134
348.184	14.7078
349.97	13.44
351.754	12.9611
353.539	12.3432
355.324	13.0682
357.106	12.3702
358.89	12.9394
360.674	12.0732
362.455	11.107
364.239	10.2948
366.021	10.6563
367.804	11.095
369.584	9.39643
371.366	8.32768
373.145	6.76431
374.926	6.43461
376.707	6.83509
378.485	7.02183
380.265	7.08693
382.045	8.47444
383.822	9.27292
385.601	9.06757
387.378	9.46183
389.156	9.80365
390.934	9.9474
392.71	11.0027
394.487	11.8414
396.262	11.2186
398.038	11.6364
399.813	11.4377
401.588	12.3164
403.362	13.1321
405.137	14.0619
406.912	14.3037
408.685	13.6236
410.459	13.9469
412.23	13.5656
414.004	12.6231
415.775	12.6175
417.548	12.9718
419.318	14.4219
421.089	14.6518
422.86	14.9317
424.63	13.0069
426.401	11.7084
428.17	11.7373
429.94	11.6232
431.708	11.6371
433.478	10.0141
435.245	9.18342
437.012	8.32818
438.781	6.81872
440.547	6.49648
442.315	6.87701
444.081	7.16479
445.846	7.30125
447.613	7.82399
449.378	6.76767
451.142	6.60184
452.908	6.90142
454.672	7.83792
456.435	7.84564
458.2	6.81772
459.963	7.21945
461.725	7.74002
463.489	9.09194
465.251	8.855
467.012	9.7375
468.775	10.7523
470.536	11.9199
472.296	12.8547
474.056	14.2458
475.817	16.2437
477.576	17.0952
479.335	18.0435
481.094	20.394
482.854	22.1193
484.612	23.4248
486.37	25.7181
488.127	26.8788
489.886	27.1575
491.642	27.5696
493.398	29.1007
495.154	30.1443
496.91	32.2102
498.667	34.5337
500.422	34.9178
502.176	35.753
503.93	38.503
505.684	38.7052
507.438	40.22
509.191	40.9402
510.946	42.4834
512.698	43.4186
514.45	44.3753
516.202	45.5617
517.954	46.7031
519.705	47.4469
521.456	45.9725
523.206	47.2268
524.956	47.919
526.706	48.5183
528.456	49.2646
530.207	49.8293
531.956	49.3945
533.704	49.0811
535.452	48.3155
537.2	47.6977
538.947	47.3301
540.694	47.8207
542.441	46.6818
544.188	44.4603
545.934	42.5107
547.68	40.7229
549.425	39.1225
551.17	37.6035
552.915	35.55
554.659	35.3554
556.403	34.889
558.145	33.0719
559.889	31.1679
561.632	30.1395
563.375	29.7348
565.117	27.4623
566.859	26.2749
568.601	25.0753
570.342	23.4936
572.083	21.6491
573.824	19.245
575.565	16.4934
577.303	14.9108
579.043	14.3907
580.782	13.2353
582.521	11.9585
584.26	11.5449
585.998	10.4618
587.734	8.94313
589.472	9.43504
591.21	9.93768
592.947	8.93005
594.684	10.4615
596.418	10.4701
598.154	11.5669
599.89	11.3774
601.626	11.7079
603.361	11.6699
605.094	11.9874
606.828	12.0146
608.562	11.8173
610.296	13.5855
612.027	13.7671
613.761	15.6642
615.493	15.8135
617.224	15.1039
618.956	17.1413
620.688	18.3644
622.419	19.4401
624.149	20.2286
625.879	21.1245
627.61	21.8708
629.338	21.2943
631.068	21.9539
632.797	22.5468
634.525	22.1941
636.254	23.1791
637.98	22.6023
639.708	22.0848
641.436	23.7774
643.162	23.4284
644.889	22.7801
646.614	22.7102
648.34	22.1584
650.067	21.6695
651.791	19.6788
653.516	18.5036
655.239	17.5786
656.964	15.9384
658.687	14.6029
660.411	12.3168
662.133	10.2602
663.857	9.66472
665.58	8.19686
667.301	7.77793
669.024	8.61985
670.744	7.87325
672.464	7.05516
674.186	6.57929
675.905	6.44318
677.626	5.97574
679.345	6.80746
681.065	7.04383
682.783	6.51756
684.503	5.19226
686.22	4.42923
687.939	3.66037
689.656	1.63425
691.372	2.114
693.09	1.35194
694.806	0.996684
696.523	1.31124
698.239	1.51763
699.953	2.80824
701.67	2.38297
703.384	3.07939
705.098	5.0558
706.813	5.96298
708.526	7.97824
710.239	8.93439
711.954	10.6454
713.666	11.6128
715.378	12.5547
717.091	14.4013
718.802	14.7001
720.513	15.0303
722.226	16.4977
723.936	16.6528
725.646	17.3422
727.355	18.2146
729.067	17.3684
730.776	17.5819
732.484	17.3605
734.192	17.004
735.902	17.9119
737.61	17.3765
739.317	17.6598
741.024	17.8176
742.731	18.567
744.439	18.9518
746.145	19.3689
747.851	21.6729
749.556	22.2558
751.262	22.7014
752.966	25.1936
754.673	26.407
756.377	27.611
758.081	29.1815
759.784	30.6666
761.487	32.4549
763.19	33.4908
764.892	34.3831
766.594	35.2636
768.296	35.3942
770	35.063
771.701	36.2366
773.402	36.8944
775.102	37.1183
776.803	38.4883
778.503	37.4111
780.202	38.4587
781.901	40.0772
783.6	41.3787
785.299	43.196
786.997	45.1791
788.695	45.5417
790.393	46.3223
792.09	48.0957
793.787	47.7836
795.484	47.2446
797.18	46.8921
798.877	47.5106
800.572	47.2126
802.268	47.5947
803.963	47.4621
805.658	47.3747
807.35	47.2428
809.044	47.1055
810.738	47.0221
812.432	46.1084
814.125	46.3694
815.818	46.5405
817.51	47.143
819.202	47.083
820.894	48.422
822.584	49.1514
824.275	51.156
825.966	52.756
827.657	54.8455
829.347	55.6157
831.037	57.2585
832.725	58.403
834.414	58.4826
836.103	60.534
837.792	60.9004
839.481	61.4832
841.167	62.8082
842.854	62.5939
844.542	62.9733
846.229	63.3641
847.914	62.9355
849.6	63.1964
851.287	62.1474
852.973	61.0057
854.656	59.422
856.341	58.0535
858.026	57.5285
859.711	55.381
861.393	55.0229
863.077	52.8367
864.761	52.2937
866.442	51.0072
868.125	49.9826
869.808	49.0544
871.489	45.6379
873.171	41.9669
874.85	39.7745
876.532	38.3213
878.213	36.8386
879.892	35.1624
881.572	34.5209
883.251	33.4309
884.931	31.6709
886.61	30.4899
888.287	28.4364
889.966	26.5036
891.643	26.2006
893.321	25.6919
894.997	24.1759
896.675	23.8998
898.352	25.0805
900.028	25.9242
901.704	26.826
903.379	27.2358
905.055	29.0048
906.729	29.4841
908.404	31.0342
910.077	30.8853
911.75	32.5384
913.425	33.1502
915.097	34.6889
916.771	33.2269
918.443	33.6026
920.116	33.9541
921.787	34.2351
923.46	35.8692
925.13	35.5545
926.8	35.2477
928.472	34.9384
930.141	33.9669
931.813	33.041
933.481	31.8074
935.15	30.312
936.82	29.9014
938.488	28.3534
940.156	27.8816
941.825	27.8736
943.492	26.2808
945.158	24.5119
946.827	22.7248
948.493	22.6804
950.158	22.6234
951.824	20.9736
953.491	19.3162
955.156	15.8062
956.82	15.8975
958.486	15.6038
960.15	14.0186
961.814	14.1951
963.477	13.5991
965.142	14.6278
966.804	13.9259
968.467	15.2776
970.129	16.5038
971.79	18.0506
973.454	18.9673
975.115	21.2223
976.776	20.7719
978.436	21.2453
980.096	22.464
981.756	22.3322
983.417	22.7499
985.077	22.7587
986.736	22.9124
988.394	22.8295
990.052	22.6902
991.71	23.5889
993.368	21.7457
995.025	22.4917
996.682	20.8446
998.341	19.424
999.998	18.1929
1001.65	19.019
1003.31	19.0387
1004.97	18.5137
1006.62	19.0454
1008.28	19.319
1009.93	20.9262
1011.58	23.006
1013.24	25.3035
1014.89	28.2387
1016.54	31.4132
1018.2	34.4757
1019.85	37.8488
1021.5	41.0585
1023.16	44.1465
1024.81	47.6076
1026.46	51.0829
1028.11	53.7984
1029.76	57.9272
1031.41	60.3092
1033.06	62.2001
1034.71	63.5529
1036.36	66.0792
1038.01	67.5204
1039.66	70.5961
1041.31	72.2092
1042.95	74.0876
1044.6	77.9276
1046.25	79.4835
1047.9	81.5815
1049.54	82.3363
1051.19	84.1222
1052.84	83.287
1054.48	82.7522
1056.13	81.569
1057.77	80.9113
1059.42	79.3159
1061.06	78.3666
1062.71	76.2004
1064.35	74.318
1066	71.5176
1067.64	68.8668
1069.28	65.3007
1070.93	61.2947
1072.57	58.791
1074.21	54.7983
1075.85	50.3136
1077.49	47.9347
1079.13	44.2704
1080.78	41.482
1082.42	39.7521
1084.06	37.2707
1085.7	36.0141
1087.34	35.3958
1088.97	35.4312
1090.61	35.682
1092.25	36.3906
1093.89	37.4838
1095.53	37.5612
1097.17	37.7638
1098.8	39.1972
1100.44	39.2754
1102.08	39.5057
1103.71	38.9709
1105.35	40.096
1106.99	39.8362
1108.62	39.3919
1110.26	37.2521
1111.89	36.5589
1113.52	35.1433
1115.16	34.9711
1116.79	33.7797
1118.43	32.1212
1120.06	30.8448
1121.69	30.5414
1123.32	29.9348
1124.96	30.0825
1126.59	29.1854
1128.22	28.285
1129.85	27.9465
1131.48	26.2558
1133.11	24.8285
1134.75	22.7621
1136.37	21.872
1138	20.3397
1139.63	19.626
1141.26	18.7048
1142.89	16.5824
1144.52	15.5247
1146.15	13.9431
1147.78	12.1247
1149.4	11.5921
1151.03	10.3855
1152.66	8.7083
1154.28	8.27226
1155.91	7.03243
1157.54	6.97265
1159.16	6.06177
1160.79	5.31906
1162.41	5.11507
1164.04	5.46738
1165.66	5.14368
1167.29	5.07492
1168.91	4.69387
1170.53	5.16478
1172.16	4.93054
1173.78	4.85621
1175.4	6.29588
1177.02	6.55449
1178.65	6.26709
1180.27	7.15222
1181.89	6.28471
1183.51	6.84586
1185.13	7.54493
1186.75	8.5995
1188.37	7.44678
1189.99	7.37795
1191.61	7.9024
1193.23	9.02065
1194.85	10.4141
1196.47	11.3289
1198.08	12.954
1199.7	14.8779
1201.32	17.5583
1202.94	20.0497
1204.55	21.1981
1206.17	24.0371
1207.79	24.7928
1209.4	26.5022
1211.02	28.6506
1212.63	30.1345
1214.25	32.9002
1215.86	35.4798
1217.48	38.2284
1219.09	41.8735
1220.71	45.8467
1222.32	48.6598
1223.93	52.2538
1225.54	55.9667
1227.16	58.5877
1228.77	61.2996
1230.38	64.3895
1231.99	67.4166
1233.6	69.8972
1235.22	73.6134
1236.83	75.2673
1238.44	77.8742
1240.05	80.5849
1241.66	84.0409
1243.26	87.582
1244.87	89.3175
1246.48	90.9918
1248.09	92.5099
1249.7	95.0818
1251.31	97.7191
1252.92	99.6323
1254.52	101.806
1256.13	104.997
1257.74	106.334
1259.34	108.544
1260.95	111.667
1262.55	114.257
1264.16	116.928
1265.76	119.106
1267.37	121.317
1268.97	124.041
1270.58	127.321
1272.18	130.74
1273.78	133.245
1275.39	136.292
1276.99	139.944
1278.59	144.03
1280.2	145.681
1281.8	147.83
1283.4	149.713
1285	151.896
1286.6	154.947
1288.2	155.944
1289.8	158.335
1291.4	161.227
1293	162.506
1294.6	164.517
1296.2	166.778
1297.8	167.621
1299.4	168.274
1301	169.554
1302.6	169.637
1304.19	169.813
1305.79	168.585
1307.39	167.923
1308.99	166.888
1310.58	166.791
1312.18	165.778
1313.77	164.274
1315.37	162.427
1316.96	160.416
1318.56	160.161
1320.15	159.415
1321.75	157.58
1323.34	155.377
1324.94	151.924
1326.53	150.252
1328.12	148.924
1329.72	147.495
1331.31	145.758
1332.9	144.848
1334.49	143.047
1336.08	141.624
1337.67	139.974
1339.27	138.482
1340.86	136.735
1342.45	136.019
1344.04	134.2
1345.63	133.311
1347.22	133.023
1348.8	132.57
1350.39	132.228
1351.98	131.043
1353.57	131.451
1355.16	131.993
1356.75	133.211
1358.33	133.092
1359.92	132.989
1361.51	133.749
1363.09	133.556
1364.68	134.573
1366.27	134.74
1367.85	135.428
1369.44	136.544
1371.02	138.309
1372.61	139.025
1374.19	140.353
1375.77	140.917
1377.36	141.059
1378.94	142.355
1380.52	143.877
1382.11	145.294
1383.69	147.376
1385.27	148.828
1386.85	151.263
1388.43	153.214
1390.02	154.679
1391.6	155.697
1393.18	157.134
1394.76	159.064
1396.34	160.925
1397.92	163.58
1399.5	165.486
1401.08	166.887
1402.65	169.274
1404.23	172.642
1405.81	176.01
1407.39	179.578
1408.97	182.274
1410.54	186.157
1412.12	190.383
1413.7	193.132
1415.27	197.696
1416.85	203.906
1418.43	210.071
1420	215.729
1421.58	222.662
1423.15	228.303
1424.73	234.938
1426.3	240.921
1427.87	246.704
1429.45	252.262
1431.02	257.529
1432.6	264.072
1434.17	268.624
1435.74	273.77
1437.31	276.482
1438.89	278.8
1440.46	281.219
1442.03	282.671
1443.6	284.876
1445.17	284.614
1446.74	284.841
1448.31	284.077
1449.88	282.956
1451.45	279.39
1453.02	276.321
1454.59	272.577
1456.16	268.98
1457.72	264.138
1459.29	258.612
1460.86	252.451
1462.43	246.103
1463.99	238.191
1465.56	230.659
1467.13	222.924
1468.69	214.977
1470.26	206.953
1471.83	199.117
1473.39	191.638
1474.95	182.941
1476.52	174.858
1478.08	166.264
1479.65	158.492
1481.21	150.656
1482.78	144.064
1484.34	137.268
1485.9	131.78
1487.47	126.149
1489.03	121.342
1490.59	116.598
1492.15	111.582
1493.71	108.673
1495.27	105.915
1496.84	102.433
1498.39	99.013
1499.96	97.2634
1501.52	94.1498
1503.07	91.6601
1504.64	90.1614
1506.19	89.8474
1507.75	89.5365
1509.31	90.0318
1510.87	89.8784
1512.43	88.7121
1513.98	88.2421
1515.54	87.5702
1517.1	87.6702
1518.65	88.7865
1520.21	87.9425
1521.77	88.1609
1523.32	87.8599
1524.88	88.7618
1526.44	89.3794
1527.99	89.3454
1529.54	89.698
1531.1	90.8455
1532.65	91.3871
1534.21	92.1333
1535.76	92.8745
1537.31	93.2559
1538.87	95.6606
1540.42	98.8127
1541.97	99.7476
1543.52	102.539
1545.07	104.664
1546.63	106.269
1548.18	106.605
1549.73	107.617
1551.28	108.751
1552.83	109.254
1554.38	110.499
1555.93	112.288
1557.48	114.327
1559.03	116.399
1560.57	118.779
1562.12	120.878
1563.67	122.526
1565.22	124.888
1566.77	126.107
1568.31	128.9
1569.86	130.774
1571.41	132.412
1572.95	135.023
1574.5	137.824
1576.05	140.977
1577.59	145.438
1579.14	148.552
1580.68	151.237
1582.23	155.155
1583.77	158.243
1585.31	161.11
1586.86	164.102
1588.4	166.045
1589.95	168.562
1591.49	171.162
1593.03	174.756
1594.57	176.736
1596.11	179.608
1597.66	181.235
1599.2	183.099
1600.74	184.884
1602.28	185.803
1603.82	187.335
1605.36	187.066
1606.9	187.775
1608.44	187.943
1609.98	189.661
1611.52	190.086
1613.06	190.825
1614.6	190.087
1616.13	190.943
1617.67	190.412
1619.21	190.016
1620.75	190.241
1622.28	189.705
1623.82	189.023
1625.36	188.067
1626.89	187.956
1628.43	188.937
1629.96	188.5
1631.5	189.352
1633.04	190.21
1634.57	190.608
1636.11	190.76
1637.64	191.418
1639.17	191.777
1640.71	192.33
1642.24	192.614
1643.77	192.524
1645.31	193.638
1646.84	193.539
1648.37	194.391
1649.9	195.041
1651.43	195.834
1652.96	196.222
1654.5	195.701
1656.03	193.889
1657.56	192.176
1659.09	190.409
1660.62	187.649
1662.15	187.051
1663.67	186.656
1665.2	183.846
1666.73	181.282
1668.26	178.456
1669.79	176.462
1671.32	173.208
1672.84	169.527
1674.37	166.506
1675.9	161.593
1677.43	156.158
1678.95	151.068
1680.48	147.061
1682	141.818
1683.53	137.956
1685.05	134.677
1686.58	131.735
1688.1	126.855
1689.63	122.748
1691.15	118.515
1692.68	115.588
1694.2	111.838
1695.72	108.38
1697.25	104.534
1698.77	100.964
1700.29	97.4782
1701.81	94.3886
1703.33	91.37
1704.86	89.291
1706.38	86.3641
1707.9	85.4167
1709.42	83.2874
1710.94	81.3279
1712.46	79.9365
1713.98	77.6593
1715.5	75.7201
1717.02	74.4638
1718.54	73.9654
1720.06	73.9257
1721.57	72.9171
1723.09	71.8757
1724.61	70.7135
1726.13	69.6163
1727.64	69.74
1729.16	68.8868
1730.68	67.4968
1732.19	66.4729
1733.71	65.2624
1735.23	65.0891
1736.74	65.0105
1738.26	65.7971
1739.77	64.9905
1741.29	63.0173
1742.8	62.8363
1744.31	62.9997
1745.83	62.6774
1747.34	60.9456
1748.85	59.2709
1750.37	58.7543
1751.88	56.3876
1753.39	55.1404
1754.91	55.9575
1756.42	55.7911
1757.93	55.3586
1759.44	55.3458
1760.95	55.3627
1762.46	54.6431
1763.97	53.3532
1765.48	52.4488
1766.99	51.8172
1768.5	50.9743
1770.01	49.9163
1771.52	48.7664
1773.03	48.1343
1774.54	47.434
1776.04	46.8499
1777.55	45.8025
1779.06	45.3801
1780.57	45.6187
1782.07	45.4814
1783.58	45.4823
1785.09	44.4729
1786.59	44.0529
1788.1	43.6983
1789.6	43.0818
1791.11	43.2135
1792.61	43.06
1794.12	43.0441
1795.62	41.7357
1797.13	40.4874
1798.63	40.1472
1800.13	40.3241
1801.64	40.1656
1803.14	39.9781
1804.64	39.4936
1806.15	39.2497
1807.65	38.9149
1809.15	39.2705
1810.65	38.9084
1812.15	36.8408
1813.65	36.3826
1815.16	36.567
1816.66	36.4471
1818.15	36.2927
1819.66	35.8137
1821.16	35.0989
1822.65	34.7429
1824.15	35.3187
1825.65	35.159
1827.15	35.3683
1828.65	35.7163
1830.15	36.3449
1831.64	36.1255
1833.14	35.1945
1834.64	35.1898
1836.14	34.1269
1837.63	33.4856
1839.13	33.6283
1840.62	32.7948
1842.12	32.4049
1843.62	31.6356
1845.11	31.3598
1846.61	31.0672
1848.1	30.9387
1849.6	29.7262
1851.09	28.4261
1852.58	27.3436
1854.08	26.8323
1855.57	25.6044
1857.06	24.8418
1858.55	24.1756
1860.05	22.2112
1861.54	22.6262
1863.03	21.4902
1864.52	20.5667
1866.01	19.5989
1867.5	19.0598
1869	18.819
1870.49	17.8963
1871.98	18.2727
1873.47	18.6497
1874.96	18.392
1876.44	18.0437
1877.93	18.0353
1879.42	18.0926
1880.91	18.5318
1882.4	18.2911
1882.47	18.0934
1883.96	17.5058
1885.46	17.0383
1886.95	18.043
1888.44	19.8943
1889.94	20.1052
1891.43	21.3862
1892.93	21.6346
1894.42	22.2978
1895.91	23.0053
1897.4	23.3634
1898.89	22.9107
1900.39	23.3027
1901.88	23.5719
1903.37	24.0066
1904.86	23.6734
1906.35	23.3197
1907.84	23.6304
1909.33	23.2034
1910.82	23.5931
1912.31	22.8459
1913.8	21.021
1915.29	21.5283
1916.77	20.9264
1918.26	19.8276
1919.75	18.3702
1921.24	16.8023
1922.73	16.0658
1924.21	15.6354
1925.7	14.8674
1927.19	14.8075
1928.67	14.5297
1930.16	14.2813
1931.64	13.8343
1933.13	12.9138
1934.61	13.2657
1936.1	11.725
1937.58	11.4502
1939.07	11.2491
1940.55	10.7357
1942.04	10.7956
1943.52	10.1112
1945	11.4896
1946.49	10.1542
1947.97	9.64593
1949.45	9.63796
1950.93	9.92618
1952.42	9.82941
1953.9	9.29671
1955.38	8.28432
1956.86	7.64612
1958.34	7.78818
1959.82	8.21659
1961.3	8.90257
1962.78	9.02294
1964.26	7.82116
1965.74	7.94143
1967.22	6.80201
1968.7	6.4674
1970.18	6.39641
1971.65	5.84268
1973.13	5.6854
1974.61	5.60181
1976.09	5.14676
1977.57	4.92834
1979.04	3.66169
1980.52	2.69847
1982	1.99856
1983.47	2.29295
1984.95	1.77257
1986.42	1.16809
1987.9	0.561747
1989.37	1.09283
1990.85	0.75433
1992.32	0.190537
1993.8	1.09732
1995.27	1.26106
1996.75	1.92388
1998.22	1.52325
1999.69	1.45923
2001.17	2.09496
2002.64	2.54344
2004.11	2.28314
2005.58	2.06164
2007.05	2.33429
2008.53	3.01196
2010	3.24294
2011.47	4.20796
2012.94	3.94526
2014.41	3.96928
2015.88	4.30258
2017.35	4.52703
2018.82	3.83219
2020.29	2.42851
2021.76	2.06369
2023.23	2.05131
2024.7	2.28501
2026.16	2.26605
2027.63	2.67294
2029.1	3.05001
2030.57	2.60605
2032.03	2.88287
2033.5	2.66326
2034.97	2.48415
2036.44	2.16844
2037.9	1.89398
2039.37	2.32477
2040.83	2.29247
2042.3	1.97084
2043.76	1.99046
2045.23	1.29817
2046.69	1.10731
2048.16	0.35704
2049.62	0.213865
2051.08	0.0274191
2052.55	0.288247
2054.01	0.327471
2055.47	1.68994
2056.94	1.99729
2058.4	1.76171
2059.86	1.99468
2061.32	1.26814
2062.79	2.3288
2064.25	2.79287
2065.71	2.76772
2067.17	3.87324
2068.63	3.78291
2070.09	4.5744
2071.55	5.42342
2073.01	6.41341
2074.47	7.43259
2075.93	9.07669
2077.39	10.0927
2078.85	10.164
2080.31	11.4055
2081.76	12.1265
2083.22	12.1262
2084.68	12.8995
2086.13	13.2347
2087.59	13.9715
2089.05	14.874
2090.51	15.7453
2091.96	16.3398
2093.42	18.2154
2094.87	19.1111
2096.33	21.6605
2097.78	23.0694
2099.24	24.2147
2100.69	25.1459
2102.15	26.6233
2103.6	27.3645
2105.06	30.0645
2106.51	31.0681
2107.96	32.5242
2109.42	34.529
2110.87	35.1763
2112.32	37.134
2113.77	38.1516
2115.23	39.2186
2116.68	40.5346
2118.13	42.0455
2119.58	43.7508
2121.03	45.1851
2122.48	46.9115
2123.93	48.6683
2125.38	50.9395
2126.83	52.1633
2128.28	54.4014
2129.73	55.5572
2131.18	58.0022
2132.63	60.4293
