#Acq. time (s)=	45
#Accumulations=	2
#Range (cm-¹)=	200...3150
#Windows=	2
#Auto scanning=	Off
#Autofocus=	Off
#Macrospot=	Off
#AutoExposure=	Off
#Spike filter=	Multiple accum.
#Delay time (s)=	0
#Binning=	1
#Readout mode=	Signal
#DeNoise=	Off
#ICS correction=	On
#Dark correction=	Off
#Inst. Process=	Off
#Detector Gain=	Best Dynamic Range
#Detector ADC=	20 kHz       
#Detector temperature (°C)=	-69.85
#Instrument=	LabRAM HR Evol
#Detector=	Synapse
#Objective=	x100
#Grating=	600 gr/mm
#ND Filter=	100%
#Laser (nm)=	532 
#Hole=	100.021
#Range=	Auto
#Laser Pol.=	No
#Raman. Pol.=	No
#Laser Pol. (°)=	-0.0007625
#Raman Pol. (°)=	89.9995
#Collection=	Microscope
#StageXY=	Marzhauser
#StageZ=	Marzhauser
#X (µm)=	-1077.6
#Y (µm)=	600.9
#Z (µm)=	584.45
#Full time(mm:ss)=	3:18
#Project=	
#Sample=	
#Site=	
#Title=	Mb_40_y_40_2x_45s_532 nm_x100_100%_600 gr_mm
#Remark=	
#Date=	19.07.2022 12:42
#Acquired=	19.07.2022 12:42:42
#Base:Fit=	10.08.2022 10:52:48
#Base:Sub=	10.08.2022 10:52:53
#Filter:Polynom=	16.08.2022 10:09:04
#AxisType[0]=Intens
#AxisUnit[0]=Cnt
#AxisType[1]=Spectr
#AxisUnit[1]=1/cm
200.423	39.8292
202.238	36.7073
204.052	32.5516
205.868	29.9017
207.682	27.6053
209.495	25.5928
211.308	23.6209
213.12	21.1786
214.935	19.1006
216.746	16.9718
218.558	15.0875
220.369	12.7236
222.18	11.8551
223.992	11.4044
225.802	11.2908
227.612	11.7702
229.421	11.7459
231.23	10.681
233.039	9.52256
234.849	8.60204
236.657	7.41122
238.465	5.79155
240.272	5.87755
242.079	6.44832
243.885	5.84505
245.691	6.03526
247.497	5.67942
249.305	6.24496
251.11	7.02205
252.915	7.1705
254.719	7.01163
256.523	8.19292
258.327	8.54533
260.13	9.08306
261.933	9.52845
263.736	9.159
265.538	9.47088
267.34	10.0488
269.141	11.2916
270.943	11.7942
272.744	12.7616
274.544	12.95
276.344	13.6237
278.144	13.8209
279.944	13.4277
281.743	13.2295
283.542	12.5373
285.34	12.1632
287.138	12.0423
288.936	12.8684
290.733	13.7736
292.53	14.3623
294.327	15.1361
296.123	14.5679
297.919	14.5521
299.715	15.6317
301.508	16.0287
303.303	16.4323
305.098	17.5602
306.892	18.2432
308.686	18.9107
310.479	19.4192
312.273	20.0869
314.065	20.6208
315.858	21.2365
317.648	20.9086
319.44	19.5138
321.231	18.7614
323.022	19.5709
324.813	19.5043
326.604	18.9305
328.392	18.9858
330.181	20.1324
331.971	19.8922
333.76	19.9876
335.548	20.2915
337.335	20.7628
339.123	21.3741
340.91	21.3617
342.698	21.2786
344.483	20.7488
346.269	20.4686
348.055	19.4738
349.841	18.4529
351.625	17.4623
353.41	16.2996
355.195	16.9277
356.977	16.1644
358.762	15.1218
360.545	14.7827
362.329	13.7525
364.11	12.6663
365.893	12.7063
367.675	11.4653
369.455	10.2569
371.237	9.81759
373.017	9.62304
374.798	9.34273
376.578	9.20484
378.357	10.1796
380.137	9.95818
381.917	9.91441
383.694	10.3296
385.473	10.6558
387.249	11.3651
389.028	12.2242
390.806	12.1224
392.581	11.6309
394.359	11.4085
396.134	10.3955
397.91	9.39216
399.684	8.39126
401.46	8.38617
403.234	9.19325
405.009	8.95926
406.784	8.47076
408.557	9.05457
410.331	9.1968
412.103	8.99124
413.876	7.73709
415.647	7.57553
417.42	7.71874
419.191	7.73154
420.961	7.54415
422.733	7.9445
424.502	6.90705
426.273	6.81085
428.042	5.78065
429.812	5.84258
431.58	6.03091
433.35	4.84312
435.118	5.07762
436.885	4.9075
438.653	3.87167
440.42	4.1652
442.188	4.18896
443.954	5.03626
445.719	3.46105
447.486	4.25948
449.251	4.41626
451.015	4.23412
452.781	5.35521
454.545	6.69022
456.308	6.41428
458.073	7.00168
459.836	7.34946
461.598	7.8905
463.362	8.48266
465.124	9.41372
466.885	10.7392
468.648	10.3844
470.408	10.4103
472.169	11.2364
473.929	12.0331
475.69	11.7653
477.45	12.3624
479.208	11.9622
480.967	11.9314
482.727	11.6602
484.485	11.8472
486.243	13.0147
488	13.8326
489.759	14.7472
491.515	15.058
493.272	15.4426
495.028	15.8177
496.783	16.3382
498.54	15.9661
500.295	16.6529
502.05	16.8637
503.804	17.7435
505.558	18.5131
507.311	18.7314
509.064	18.4687
510.819	18.8045
512.572	18.809
514.324	19.7713
516.076	21.2087
517.827	21.6187
519.578	21.9867
521.329	20.9505
523.08	20.9645
524.83	21.2596
526.58	20.299
528.329	20.1844
530.08	19.3717
531.829	19.4167
533.578	18.7868
535.326	19.1621
537.074	18.3484
538.821	16.996
540.568	16.7856
542.315	16.3213
544.062	15.1595
545.808	14.3295
547.554	12.693
549.299	11.9718
551.044	10.2233
552.789	9.77705
554.533	8.40818
556.278	7.32135
558.019	6.45294
559.763	5.73585
561.506	5.08053
563.249	3.44129
564.991	3.26319
566.733	2.09424
568.475	1.8747
570.217	1.37848
571.958	1.61743
573.699	1.43942
575.439	0.717193
577.177	0.526334
578.917	1.10985
580.656	1.16709
582.396	0.771505
584.134	0.975106
585.873	0.648185
587.609	1.16166
589.347	0.554376
591.084	0.80577
592.822	0.951341
594.558	0.474689
596.295	1.40239
598.029	2.01699
599.765	2.54294
601.5	3.34613
603.235	3.96699
604.968	3.56702
606.703	4.64849
608.437	4.26884
610.171	4.77166
611.902	4.52058
613.635	3.83234
615.368	4.14584
617.099	3.58923
618.831	4.10176
620.563	4.2313
622.294	3.97071
624.024	4.41394
625.755	4.04748
627.485	5.10483
629.213	5.2865
630.943	5.75548
632.673	5.40576
634.4	5.14263
636.129	5.38652
637.855	6.05789
639.584	6.16448
641.312	6.29497
643.037	6.67312
644.764	6.96691
646.491	7.31176
648.216	7.77677
649.942	7.3273
651.666	7.95873
653.392	8.54792
655.115	8.78798
656.84	9.16435
658.563	9.58809
660.287	9.47971
662.011	9.44371
663.732	9.63455
665.456	9.70484
667.177	9.01991
668.899	9.62112
670.62	10.6875
672.342	11.0282
674.061	11.7554
675.781	12.6088
677.502	14.0557
679.22	15.8686
680.941	17.1647
682.659	17.9406
684.379	18.2705
686.096	20.2859
687.815	21.9034
689.532	22.802
691.248	23.6436
692.966	24.9944
694.682	26.3672
696.4	27.5736
698.115	28.1335
699.829	28.9864
701.546	29.9687
703.26	31.2174
704.974	33.541
706.689	34.3913
708.402	35.3273
710.115	35.7774
711.83	35.4513
713.542	36.6758
715.254	37.6771
716.967	39.1492
718.679	38.6406
720.39	38.2532
722.102	38.6311
723.812	39.0666
725.522	39.4698
727.232	40.4063
728.943	39.5748
730.652	39.5818
732.361	39.0001
734.069	38.7105
735.779	39.7956
737.487	39.9928
739.194	40.348
740.901	40.2137
742.608	40.0115
744.316	40.4935
746.022	39.791
747.728	40.1388
749.433	40.6629
751.138	41.5955
752.843	42.1021
754.549	43.1389
756.254	42.6097
757.957	43.1643
759.661	44.2486
761.364	45.0013
763.067	45.6601
764.769	45.8228
766.471	46.8296
768.175	47.6732
769.877	49.0389
771.578	50.2666
773.279	51.2519
774.98	51.9999
776.68	52.7631
778.38	53.8403
780.079	54.9752
781.779	55.2422
783.478	56.7543
785.176	58.558
786.875	59.7868
788.573	61.4281
790.27	61.3755
791.968	61.9935
793.665	61.6996
795.361	61.9769
797.058	62.2339
798.754	63.4594
800.45	63.6224
802.145	63.1619
803.84	62.1378
805.535	61.9715
807.23	62.4231
808.922	62.964
810.616	62.7715
812.309	61.9488
814.002	61.1467
815.695	61.8273
817.388	62.2083
819.08	62.7284
820.772	62.6998
822.464	61.7842
824.153	61.743
825.844	61.9478
827.535	61.2768
829.225	61.1837
830.915	59.338
832.605	59.6567
834.292	58.9948
835.981	58.4547
837.67	57.4393
839.359	55.9542
841.047	55.0952
842.732	55.0399
844.42	53.4074
846.107	52.1434
847.794	51.0142
849.479	50.1032
851.165	50.6377
852.851	50.6592
854.534	49.6749
856.22	48.5445
857.905	46.8634
859.589	45.8095
861.272	45.6588
862.956	45.9912
864.639	46.0753
866.321	46.579
868.004	46.8745
869.687	45.5348
871.367	44.6431
873.049	44.5287
874.731	43.4788
876.41	43.1655
878.092	41.9952
879.771	41.4968
881.451	40.8106
883.131	41.2782
884.809	41.0421
886.489	40.5791
888.166	40.0375
889.845	40.6453
891.522	41.5682
893.2	41.3772
894.878	41.3085
896.554	41.1499
898.231	40.7848
899.906	40.815
901.583	40.6779
903.258	40.4287
904.934	40.2619
906.608	41.1584
908.283	41.226
909.956	41.695
911.631	40.6461
913.304	39.8475
914.976	39.7636
916.65	40.1349
918.322	39.0654
919.995	38.4567
921.666	38.0568
923.339	38.3505
925.009	38.7636
926.679	37.7286
928.351	37.4605
930.021	36.9917
931.692	37.4952
933.361	37.5639
935.029	37.6022
936.699	37.3095
938.367	36.204
940.035	35.9638
941.704	35.7002
943.371	36.2486
945.038	35.8959
946.706	34.8789
948.372	34.8707
950.038	34.8283
951.705	34.2533
953.37	33.7189
955.035	33.8392
956.7	33.4773
958.366	32.9214
960.03	31.9793
961.693	31.8097
963.357	31.8554
965.021	31.9769
966.684	32.2294
968.346	31.4611
970.008	30.3305
971.67	29.6518
973.334	29.9825
974.995	29.5385
976.655	28.9018
978.316	28.3045
979.976	27.9632
981.638	28.3548
983.297	28.7582
984.957	28.493
986.616	27.7385
988.274	27.1536
989.932	26.4191
991.59	25.2143
993.248	23.6588
994.907	21.8977
996.565	20.0296
998.221	18.5506
999.878	15.6003
1001.53	13.5389
1003.19	12.0295
1004.85	12.4408
1006.5	13.8243
1008.16	15.4349
1009.81	18.8739
1011.46	24.048
1013.12	30.7122
1014.77	38.0484
1016.43	45.35
1018.08	53.5154
1019.73	60.8713
1021.38	68.4641
1023.04	75.1921
1024.69	80.9376
1026.34	87.7325
1027.99	94.4923
1029.64	101.12
1031.29	107.564
1032.94	112.449
1034.59	117.112
1036.24	119.956
1037.89	122.956
1039.54	125.6
1041.19	128.352
1042.84	129.149
1044.48	130.011
1046.13	130.348
1047.78	130.124
1049.42	129.754
1051.07	127.533
1052.72	124.592
1054.36	122.328
1056.01	119.989
1057.66	116.488
1059.3	111.906
1060.94	106.395
1062.59	101.244
1064.23	94.6357
1065.88	87.5351
1067.52	79.476
1069.16	72.5783
1070.81	64.4959
1072.45	56.497
1074.09	48.3824
1075.73	39.9486
1077.38	32.2664
1079.02	25.2454
1080.66	18.9069
1082.3	13.6856
1083.94	10.376
1085.58	8.21093
1087.22	8.09501
1088.86	7.95319
1090.5	8.94967
1092.13	8.92433
1093.77	9.94348
1095.41	10.8449
1097.05	11.3823
1098.68	12.1279
1100.32	13.0251
1101.96	14.0124
1103.6	15.0166
1105.23	15.9861
1106.87	16.7458
1108.5	18.4377
1110.14	19.4165
1111.77	19.5926
1113.41	19.4223
1115.04	19.3486
1116.67	19.9299
1118.31	19.3393
1119.94	18.9515
1121.58	19.6849
1123.21	19.8214
1124.84	18.6918
1126.47	19.2335
1128.1	19.6072
1129.73	19.0256
1131.37	16.94
1133	16.0096
1134.63	15.3934
1136.26	16.0098
1137.89	15.268
1139.52	13.7944
1141.14	13.6554
1142.77	12.893
1144.4	12.5487
1146.03	12.189
1147.66	11.6497
1149.29	10.8092
1150.91	10.6698
1152.54	9.32599
1154.17	8.43976
1155.79	8.46042
1157.42	8.33615
1159.04	7.19466
1160.67	6.93399
1162.3	6.36017
1163.92	5.15224
1165.55	4.04402
1167.17	2.85443
1168.79	2.06261
1170.42	0.44572
1172.04	-0.159797
1173.66	-1.78272
1175.28	-1.87598
1176.91	-2.18585
1178.53	-0.888568
1180.15	-1.03077
1181.77	0.259062
1183.39	0.654887
1185.01	1.09273
1186.63	1.40801
1188.25	0.613708
1189.87	1.16267
1191.49	1.52577
1193.11	1.44072
1194.73	1.54601
1196.35	2.28346
1197.97	2.84435
1199.59	2.35017
1201.2	2.92176
1202.82	3.74806
1204.44	2.94508
1206.05	3.3073
1207.67	5.10306
1209.29	5.06807
1210.9	5.73198
1212.52	5.75902
1214.13	7.86992
1215.75	8.35755
1217.36	8.436
1218.97	9.09936
1220.59	10.5847
1222.2	13.1
1223.82	13.505
1225.43	15.2022
1227.04	16.5995
1228.65	17.9453
1230.26	19.5786
1231.88	20.16
1233.49	21.8868
1235.1	23.6512
1236.71	25.3414
1238.32	25.9957
1239.93	26.6725
1241.54	28.4973
1243.15	30.0019
1244.76	30.2608
1246.37	31.1281
1247.97	31.6731
1249.58	32.0815
1251.19	32.7147
1252.8	33.3939
1254.41	34.0069
1256.01	35.1859
1257.62	36.4639
1259.23	37.6842
1260.83	38.4467
1262.44	40.2235
1264.04	40.9849
1265.65	41.4838
1267.25	41.7087
1268.86	42.2558
1270.46	42.8855
1272.07	42.7676
1273.67	42.1939
1275.27	42.7882
1276.88	43.7207
1278.48	44.5454
1280.08	45.2819
1281.68	45.677
1283.28	45.5914
1284.89	46.4843
1286.49	48.5618
1288.09	49.3425
1289.69	49.108
1291.29	49.6148
1292.89	49.376
1294.49	49.1068
1296.09	49.8963
1297.69	49.8633
1299.29	51.3497
1300.88	51.9913
1302.48	52.3587
1304.08	51.3515
1305.68	52.2834
1307.27	52.3136
1308.87	52.0037
1310.47	51.5366
1312.06	51.0943
1313.66	52.0484
1315.25	51.7082
1316.85	50.8398
1318.44	50.7926
1320.04	50.6874
1321.63	50.5459
1323.23	49.6413
1324.82	48.5717
1326.41	48.5309
1328.01	48.7311
1329.6	48.1208
1331.19	48.0438
1332.78	47.8692
1334.38	47.304
1335.97	46.8823
1337.56	46.7366
1339.15	46.398
1340.74	46.6311
1342.33	46.402
1343.92	45.419
1345.51	44.7606
1347.1	43.8343
1348.69	43.3414
1350.28	43.2503
1351.87	43.4218
1353.46	44.1161
1355.04	44.294
1356.63	43.9652
1358.22	43.8379
1359.81	43.0347
1361.39	42.6737
1362.98	42.5156
1364.57	41.7244
1366.15	41.3849
1367.74	41.2247
1369.32	41.692
1370.91	40.4887
1372.49	39.6925
1374.07	38.8393
1375.66	39.2302
1377.24	38.1971
1378.83	38.0856
1380.41	36.8045
1381.99	35.8348
1383.57	35.1974
1385.16	36.268
1386.74	35.3778
1388.32	34.9325
1389.9	35.6322
1391.48	35.4174
1393.06	35.0778
1394.64	34.4967
1396.22	34.7052
1397.8	35.6387
1399.38	36.6195
1400.96	36.6645
1402.54	37.5187
1404.12	39.395
1405.7	40.8107
1407.28	42.3566
1408.85	42.938
1410.43	44.6774
1412.01	45.9385
1413.58	46.8419
1415.16	48.6331
1416.74	49.9693
1418.31	51.5309
1419.89	53.5064
1421.46	54.1654
1423.04	56.1059
1424.61	57.5875
1426.19	59.2059
1427.76	61.0099
1429.33	62.5954
1430.91	63.9353
1432.48	65.002
1434.05	66.168
1435.63	68.2027
1437.2	69.2705
1438.77	70.3553
1440.34	71.4994
1441.91	70.7817
1443.49	71.0972
1445.05	72.7286
1446.63	72.9188
1448.2	71.7016
1449.77	70.7539
1451.34	70.4565
1452.91	70.2688
1454.47	69.2998
1456.04	68.4705
1457.61	67.7491
1459.18	67.1214
1460.75	66.6668
1462.31	64.801
1463.88	63.4071
1465.45	61.103
1467.01	59.4596
1468.58	58.1129
1470.15	55.7824
1471.71	54.387
1473.28	53.3519
1474.84	52.3608
1476.41	51.5888
1477.97	50.214
1479.54	48.0583
1481.1	47.4782
1482.66	46.7521
1484.23	44.6917
1485.79	42.7623
1487.35	40.4325
1488.91	39.6869
1490.48	38.0436
1492.04	36.1925
1493.6	34.4939
1495.16	32.5938
1496.72	31.6047
1498.28	30.6648
1499.84	30.4151
1501.4	30.3933
1502.96	28.2737
1504.52	27.7525
1506.08	27.2783
1507.64	27.097
1509.2	27.0271
1510.76	26.0952
1512.31	25.2097
1513.87	24.8123
1515.43	24.3558
1516.99	24.4326
1518.54	23.7993
1520.1	24.004
1521.66	24.5741
1523.21	24.6631
1524.77	24.6345
1526.32	24.8848
1527.88	25.57
1529.43	25.5294
1530.99	26.062
1532.54	25.9212
1534.09	26.3044
1535.65	26.4061
1537.2	26.5012
1538.75	26.1725
1540.31	26.0465
1541.86	27.1283
1543.41	28.2717
1544.96	28.8552
1546.51	29.9578
1548.06	31.2824
1549.62	31.8346
1551.17	32.489
1552.72	33.282
1554.27	34.5564
1555.82	34.5857
1557.36	34.3609
1558.91	34.7443
1560.46	35.1052
1562.01	34.2336
1563.56	34.9229
1565.11	35.3856
1566.66	36.1801
1568.2	36.4079
1569.75	36.9218
1571.3	38.136
1572.84	38.6662
1574.39	39.5867
1575.93	40.1155
1577.48	40.5304
1579.02	40.8852
1580.57	41.1227
1582.11	41.6523
1583.66	41.7832
1585.2	42.4234
1586.75	42.1498
1588.29	41.7571
1589.83	41.8191
1591.38	42.447
1592.92	42.8518
1594.46	42.3823
1596	41.9059
1597.54	42.0942
1599.09	41.7452
1600.63	41.752
1602.17	41.525
1603.71	41.027
1605.25	41.1902
1606.79	40.5999
1608.33	39.9408
1609.87	39.4305
1611.41	39.5082
1612.95	40.4648
1614.48	40.7986
1616.02	40.1199
1617.56	40.0429
1619.1	40.1248
1620.64	40.7829
1622.17	41.2853
1623.71	42.2796
1625.25	43.2342
1626.78	43.6624
1628.32	44.8032
1629.86	45.8363
1631.39	46.5128
1632.92	47.1056
1634.46	46.729
1635.99	47.7543
1637.53	48.5758
1639.06	48.4633
1640.59	49.5101
1642.13	49.6125
1643.66	50.4433
1645.19	51.0482
1646.73	51.3247
1648.26	52.3911
1649.79	51.6801
1651.32	51.7016
1652.85	51.8292
1654.38	51.7735
1655.92	52.0546
1657.45	51.2577
1658.98	50.1714
1660.51	49.1038
1662.04	48.5926
1663.57	46.8319
1665.09	45.6632
1666.62	45.3572
1668.15	44.1664
1669.68	43.8602
1671.21	42.1863
1672.73	41.0094
1674.26	39.5418
1675.79	37.5501
1677.31	35.8821
1678.84	34.471
1680.37	32.5098
1681.89	30.3075
1683.42	27.5948
1684.94	26.0803
1686.47	25.2415
1687.99	24.3307
1689.52	22.7862
1691.04	20.9209
1692.57	19.3883
1694.09	18.8528
1695.61	18.6358
1697.14	17.9846
1698.66	17.6558
1700.18	17.1443
1701.7	15.6821
1703.22	14.9133
1704.75	14.0365
1706.27	12.8616
1707.79	11.4252
1709.31	10.8156
1710.83	9.4208
1712.35	9.69606
1713.87	8.93979
1715.39	8.36377
1716.91	8.45055
1718.43	8.41591
1719.95	8.08426
1721.46	8.21043
1722.98	8.48509
1724.5	8.63171
1726.02	7.40544
1727.53	8.1678
1729.05	7.93587
1730.57	7.93761
1732.08	7.68116
1733.6	6.64486
1735.12	5.75794
1736.63	5.46777
1738.15	5.65511
1739.66	5.72054
1741.18	5.7607
1742.69	6.44478
1744.21	5.22798
1745.72	5.2199
1747.23	4.36231
1748.74	3.71281
1750.26	3.25323
1751.77	3.14761
1753.28	3.11688
1754.8	2.76567
1756.31	1.92166
1757.82	1.61821
1759.33	1.45763
1760.84	1.93916
1762.35	1.93011
1763.86	1.43837
1765.37	0.951039
1766.88	1.10295
1768.39	0.65348
1769.9	0.581194
1771.41	0.521397
1772.92	-0.00619358
1774.43	0.0744193
1775.93	-0.0587817
1777.44	-0.225095
1778.95	0.275324
1780.46	0.53124
1781.96	0.600793
1783.47	1.14069
1784.98	2.21849
1786.48	2.11687
1787.99	2.83958
1789.49	3.15212
1791	3.60701
1792.5	3.67675
1794.01	3.80149
1795.51	3.49815
1797.02	4.00595
1798.52	4.22133
1800.03	4.06278
1801.53	4.16966
1803.03	4.62477
1804.53	4.02926
1806.04	3.96888
1807.54	3.43511
1809.04	3.64218
1810.54	4.29112
1812.04	4.45472
1813.54	4.65765
1815.05	4.80115
1816.55	4.25648
1818.05	4.20397
1819.55	3.96276
1821.05	4.32293
1822.55	4.89087
1824.05	5.03058
1825.54	4.90098
1827.04	4.57649
1828.54	4.2417
1830.04	4.6635
1831.54	4.47505
1833.03	4.65687
1834.53	4.78805
1836.03	4.33539
1837.52	4.08443
1839.02	3.84776
1840.52	4.12491
1842.01	4.27459
1843.51	4.20399
1845	4.12815
1846.5	4.0419
1847.99	4.37963
1849.49	5.04407
1850.98	5.54585
1852.47	5.36361
1853.97	5.68391
1855.46	6.22401
1856.95	6.74366
1858.45	7.0407
1859.94	6.94175
1861.43	6.03301
1862.92	5.92697
1864.41	5.81881
1865.91	5.51725
1867.4	5.26295
1868.89	5.18419
1870.38	5.4395
1871.87	5.67412
1873.36	5.54852
1874.85	5.36542
1876.34	5.16388
1877.83	5.05134
1879.31	5.19562
1880.8	5.10819
1882.29	5.05292
1882.56	5.46826
1884.05	5.31214
1885.54	4.91039
1887.04	4.89069
1888.53	5.25835
1890.03	4.94677
1891.52	5.61588
1893.01	6.16946
1894.5	6.65233
1895.99	6.74905
1897.49	6.54696
1898.98	6.26395
1900.47	6.52481
1901.96	6.44705
1903.45	6.98555
1904.94	6.82274
1906.43	6.35829
1907.92	6.22956
1909.41	6.28414
1910.9	6.83145
1912.39	7.9941
1913.88	8.40363
1915.37	8.76322
1916.86	8.80305
1918.35	8.91776
1919.84	9.16461
1921.32	9.48798
1922.81	9.68781
1924.3	9.02312
1925.78	9.26408
1927.27	9.37759
1928.76	9.18602
1930.24	8.55485
1931.73	7.73041
1933.21	7.15645
1934.7	6.6906
1936.18	6.63106
1937.67	6.65283
1939.15	6.34281
1940.64	6.0244
1942.12	6.1979
1943.6	6.09465
1945.09	5.67398
1946.57	5.04068
1948.05	4.8358
1949.54	5.02377
1951.02	5.09244
1952.5	5.26604
1953.98	4.38788
1955.46	4.14459
1956.94	4.32482
1958.42	3.62051
1959.91	3.89364
1961.39	5.10036
1962.87	5.29892
1964.34	5.26688
1965.82	5.60677
1967.3	6.08266
1968.78	6.564
1970.26	6.14763
1971.74	6.71796
1973.22	7.05497
1974.7	7.83223
1976.17	7.74602
1977.65	8.74535
1979.13	8.65766
1980.6	9.53474
1982.08	10.811
1983.56	11.3176
1985.03	11.7007
1986.51	12.2789
1987.98	11.863
1989.46	12.1334
1990.93	12.1287
1992.41	12.7335
1993.88	12.962
1995.36	13.3485
1996.83	14.1863
1998.3	14.0793
1999.78	14.6453
2001.25	14.5421
2002.72	14.765
2004.2	14.4314
2005.67	14.504
2007.14	14.5061
2008.61	14.8802
2010.08	14.9914
2011.55	15.1933
2013.02	15.7873
2014.49	16.2171
2015.97	16.7783
2017.43	16.4118
2018.9	16.0994
2020.37	15.8131
2021.84	16.8276
2023.31	17.3257
2024.78	16.929
2026.25	17.054
2027.72	16.9122
2029.19	17.7037
2030.65	18.1303
2032.12	18.1046
2033.59	18.9038
2035.05	19.4018
2036.52	18.9917
2037.98	19.0244
2039.45	18.9655
2040.92	19.7803
2042.38	19.8424
2043.85	19.7205
2045.31	20.2958
2046.78	20.5108
2048.24	20.0682
2049.71	19.8189
2051.17	20.3666
2052.63	20.2162
2054.1	21.1733
2055.56	20.991
2057.02	20.6397
2058.48	21.0251
2059.95	21.2418
2061.41	21.9513
2062.87	22.6342
2064.33	22.6124
2065.79	22.7949
2067.25	22.6068
2068.71	22.7982
2070.17	22.8778
2071.63	22.4616
2073.09	23.5981
2074.55	24.2184
2076.01	24.155
2077.47	24.4889
2078.93	25.0396
2080.39	25.866
2081.85	26.5596
2083.3	27.4582
2084.76	27.6427
2086.22	28.4587
2087.68	28.321
2089.13	28.5847
2090.59	28.9755
2092.05	29.9242
2093.5	30.5331
2094.96	31.4819
2096.41	31.413
2097.87	32.1175
2099.32	32.9624
2100.78	33.4727
2102.23	34.3289
2103.69	34.6833
2105.14	35.0184
2106.59	35.8872
2108.05	36.3224
2109.5	37.2489
2110.95	37.6136
2112.41	38.5264
2113.86	39.1298
2115.31	40.0765
2116.76	41.329
2118.21	42.5072
2119.67	42.8085
2121.12	43.31
2122.57	44.5891
2124.02	44.7955
2125.47	45.7237
2126.92	46.7599
2128.37	47.2816
2129.82	48.479
2131.27	50.4251
2132.71	51.1337
