#Acq. time (s)=	45
#Accumulations=	2
#Range (cm-¹)=	200...3150
#Windows=	2
#Auto scanning=	Off
#Autofocus=	Off
#Macrospot=	Off
#AutoExposure=	Off
#Spike filter=	Multiple accum.
#Delay time (s)=	0
#Binning=	1
#Readout mode=	Signal
#DeNoise=	Off
#ICS correction=	On
#Dark correction=	Off
#Inst. Process=	Off
#Detector Gain=	Best Dynamic Range
#Detector ADC=	20 kHz       
#Detector temperature (°C)=	-70.08
#Instrument=	LabRAM HR Evol
#Detector=	Synapse
#Objective=	x100
#Grating=	600 gr/mm
#ND Filter=	100%
#Laser (nm)=	532 
#Hole=	100.021
#Range=	Auto
#Laser Pol.=	No
#Raman. Pol.=	No
#Laser Pol. (°)=	-0.0007625
#Raman Pol. (°)=	89.9995
#Collection=	Microscope
#StageXY=	Marzhauser
#StageZ=	Marzhauser
#X (µm)=	-2515.4
#Y (µm)=	-23.3
#Z (µm)=	-10.2
#Full time(mm:ss)=	3:18
#Project=	
#Sample=	
#Site=	
#Title=	Mb_40_24_07_2x_45s_532 nm_x100_100%_600 gr_mm
#Remark=	
#Date=	14.07.2022 11:14
#Acquired=	14.07.2022 11:14:12
#Base:Fit=	10.08.2022 10:47:00
#Base:Sub=	10.08.2022 10:47:12
#Filter:Polynom=	16.08.2022 10:11:48
#AxisType[0]=Intens
#AxisUnit[0]=Cnt
#AxisType[1]=Spectr
#AxisUnit[1]=1/cm
200.554	76.578
202.369	72.5005
204.183	68.0482
205.999	62.6264
207.813	57.5693
209.626	52.6355
211.439	48.4999
213.253	43.5503
215.065	39.5804
216.877	36.588
218.688	31.6144
220.5	27.4176
222.312	25.2059
224.123	21.9436
225.933	19.7023
227.742	17.3947
229.552	16.9879
231.361	13.803
233.171	13.9183
234.98	14.6159
236.787	14.3113
238.595	13.185
240.402	10.8866
242.209	10.8746
244.015	10.5832
245.822	10.2952
247.627	10.1821
249.435	9.7671
251.24	10.8115
253.045	9.80657
254.849	8.35688
256.653	9.82346
258.457	12.1101
260.26	13.8697
262.063	14.6008
263.866	14.0895
265.668	13.0022
267.47	13.1868
269.271	13.8044
271.073	13.8113
272.873	15.5855
274.674	15.8464
276.474	16.9768
278.274	16.455
280.073	17.0054
281.872	16.3618
283.671	16.5329
285.47	16.282
287.268	15.491
289.065	14.0245
290.863	13.8482
292.66	14.0797
294.456	13.8195
296.253	13.4713
298.049	12.1107
299.844	11.9987
301.637	12.5126
303.432	11.1155
305.227	11.9021
307.021	10.9946
308.815	9.7739
310.609	10.2924
312.402	11.367
314.195	11.4842
315.987	12.5727
317.777	13.5253
319.569	13.4505
321.36	12.8678
323.151	14.4413
324.942	15.2452
326.733	14.2877
328.521	14.3938
330.31	13.8575
332.1	14.913
333.889	14.3525
335.677	13.7441
337.464	13.2628
339.252	13.1375
341.039	14.1346
342.826	13.0037
344.611	12.1718
346.398	13.5282
348.184	13.4118
349.97	11.6556
351.754	10.4107
353.539	9.32285
355.324	8.94817
357.106	8.47717
358.89	7.65574
360.674	7.00885
362.455	6.2323
364.239	4.11707
366.021	4.68947
367.804	4.07392
369.584	4.85149
371.366	4.29958
373.145	4.75485
374.926	3.65587
376.707	3.94276
378.485	3.24555
380.265	3.99775
382.045	3.47369
383.822	3.19948
385.601	2.41284
387.378	2.35167
389.156	2.74705
390.934	3.60966
392.71	4.34476
394.487	3.83351
396.262	3.99451
398.038	4.25168
399.813	5.40094
401.588	6.48244
403.362	7.41649
405.137	7.61313
406.912	7.62874
408.685	7.32198
410.459	8.43762
412.23	9.33255
414.004	9.98403
415.775	8.42999
417.548	8.23547
419.318	6.85472
421.089	7.06659
422.86	7.02272
424.63	7.53334
426.401	8.16198
428.17	8.07728
429.94	8.50715
431.708	7.52487
433.478	7.81269
435.245	6.84545
437.012	5.15204
438.781	5.08567
440.547	5.7617
442.315	6.20394
444.081	6.03574
445.846	7.49736
447.613	8.12426
449.378	8.42633
451.142	8.40707
452.908	9.17831
454.672	9.89155
456.435	9.62733
458.2	10.9719
459.963	11.4468
461.725	12.1085
463.489	12.5592
465.251	13.5984
467.012	13.0824
468.775	13.1431
470.536	13.8511
472.296	14.9659
474.056	15.0564
475.817	15.5834
477.576	16.3862
479.335	18.1176
481.094	18.4091
482.854	17.8914
484.612	18.9175
486.37	18.7943
488.127	19.62
489.886	18.9156
491.642	19.0955
493.398	18.9738
495.154	20.2229
496.91	20.4828
498.667	20.8135
500.422	20.9795
502.176	21.1496
503.93	20.6992
505.684	22.1475
507.438	22.8261
509.191	23.4241
510.946	23.3474
512.698	23.8306
514.45	23.8154
516.202	23.23
517.954	23.3131
519.705	23.8861
521.456	24.6758
523.206	24.8057
524.956	25.6558
526.706	27.0193
528.456	26.6305
530.207	26.2876
531.956	27.1696
533.704	27.3604
535.452	26.6983
537.2	26.815
538.947	25.8333
540.694	26.1109
542.441	27.0505
544.188	28.4477
545.934	29.2214
547.68	27.6598
549.425	26.7366
551.17	25.6769
552.915	24.7565
554.659	23.679
556.403	23.1818
558.145	23.7471
559.889	23.5155
561.632	22.3523
563.375	20.7697
565.117	21.4068
566.859	20.4256
568.601	20.0233
570.342	18.1892
572.083	17.6634
573.824	17.5368
575.565	16.4154
577.303	16.3256
579.043	16.2826
580.782	16.8437
582.521	16.5066
584.26	15.0441
585.998	14.3372
587.734	14.298
589.472	13.1827
591.21	11.6643
592.947	12.0847
594.684	10.7984
596.418	9.53561
598.154	9.61683
599.89	10.1509
601.626	9.86376
603.361	10.0347
605.094	11.0603
606.828	11.9504
608.562	11.5053
610.296	11.0213
612.027	10.2576
613.761	9.10373
615.493	8.85558
617.224	9.33981
618.956	10.5557
620.688	9.8933
622.419	9.13392
624.149	9.47264
625.879	8.73116
627.61	9.37041
629.338	9.5431
631.068	8.58356
632.797	6.98908
634.525	5.83848
636.254	5.25069
637.98	4.72624
639.708	3.85274
641.436	3.84051
643.162	4.62109
644.889	5.50619
646.614	4.33554
648.34	2.63751
650.067	3.0826
651.791	4.05525
653.516	3.3916
655.239	3.64475
656.964	3.02513
658.687	4.07554
660.411	3.03371
662.133	3.10733
663.857	3.29342
665.58	2.87845
667.301	3.1142
669.024	2.52992
670.744	3.64274
672.464	3.90473
674.186	3.30896
675.905	3.22254
677.626	4.63162
679.345	5.96302
681.065	6.1695
682.783	7.46842
684.503	9.81585
686.22	9.68563
687.939	10.2175
689.656	11.1821
691.372	12.0023
693.09	12.2282
694.806	11.6235
696.523	11.499
698.239	11.684
699.953	12.3976
701.67	13.2398
703.384	12.8915
705.098	14.9659
706.813	15.254
708.526	14.3339
710.239	15.0221
711.954	14.3455
713.666	13.1925
715.378	13.1284
717.091	13.081
718.802	12.8554
720.513	12.5178
722.226	12.1201
723.936	11.9418
725.646	12.1783
727.355	12.4736
729.067	12.1491
730.776	11.5562
732.484	10.7394
734.192	11.2022
735.902	13.1201
737.61	13.3817
739.317	14.3412
741.024	15.9307
742.731	17.0824
744.439	19.0021
746.145	19.9709
747.851	22.6297
749.556	24.4809
751.262	26.0324
752.966	27.9499
754.673	30.5612
756.377	32.3855
758.081	33.3453
759.784	35.0413
761.487	37.6231
763.19	39.5541
764.892	41.4879
766.594	43.7637
768.296	46.2775
770	48.3532
771.701	49.4148
773.402	52.3829
775.102	54.2686
776.803	56.0788
778.503	56.505
780.202	57.5719
781.901	59.9454
783.6	62.0163
785.299	62.4695
786.997	63.5388
788.695	64.5007
790.393	67.1015
792.09	67.3882
793.787	67.3828
795.484	68.5159
797.18	68.7766
798.877	68.4586
800.572	69.6543
802.268	69.0825
803.963	68.002
805.658	66.5825
807.35	65.2752
809.044	63.3471
810.738	62.0234
812.432	60.7635
814.125	59.5303
815.818	58.6714
817.51	57.7808
819.202	57.2511
820.894	57.1639
822.584	56.7593
824.275	58.1535
825.966	58.0679
827.657	57.6202
829.347	58.2186
831.037	58.8995
832.725	60.0169
834.414	59.7902
836.103	58.5093
837.792	60.4231
839.481	61.9702
841.167	62.1632
842.854	63.0396
844.542	62.2841
846.229	63.108
847.914	64.0097
849.6	65.0985
851.287	64.5794
852.973	64.9402
854.656	64.0706
856.341	64.0345
858.026	64.6505
859.711	63.8529
861.393	63.624
863.077	62.6186
864.761	62.1054
866.442	61.3905
868.125	61.0867
869.808	60.6632
871.489	60.9631
873.171	60.8068
874.85	59.8977
876.532	58.5594
878.213	56.6986
879.892	55.4538
881.572	52.7061
883.251	50.0985
884.931	47.0309
886.61	44.789
888.287	43.4118
889.966	41.4679
891.643	40.0456
893.321	38.7987
894.997	38.5283
896.675	36.7017
898.352	35.6191
900.028	34.49
901.704	34.4873
903.379	34.3719
905.055	34.4085
906.729	35.1886
908.404	35.6855
910.077	35.4094
911.75	36.5832
913.425	37.4336
915.097	38.5733
916.771	37.9668
918.443	37.8426
920.116	39.5225
921.787	40.9406
923.46	39.2687
925.13	38.7232
926.8	38.1325
928.472	37.2631
930.141	38.1696
931.813	37.3407
933.481	37.6889
935.15	36.2545
936.82	36.6941
938.488	36.6897
940.156	38.3607
941.825	38.4128
943.492	37.9969
945.158	37.5456
946.827	36.3441
948.493	34.489
950.158	34.2273
951.824	34.574
953.491	33.4052
955.156	32.5206
956.82	32.1686
958.486	30.3741
960.15	30.2023
961.814	29.268
963.477	27.9665
965.142	27.5615
966.804	28.9567
968.467	29.7934
970.129	31.0082
971.79	31.7104
973.454	31.6425
975.115	32.2598
976.776	33.6942
978.436	33.4527
980.096	30.9433
981.756	32.0418
983.417	30.9852
985.077	31.3377
986.736	31.0185
988.394	31.5426
990.052	31.2807
991.71	30.8879
993.368	30.67
995.025	31.2471
996.682	31.0753
998.341	30.3414
999.998	28.7642
1001.65	29.0638
1003.31	29.0557
1004.97	27.7956
1006.62	27.6107
1008.28	30.0198
1009.93	31.4314
1011.58	33.9193
1013.24	36.3997
1014.89	38.4481
1016.54	41.598
1018.2	43.7825
1019.85	47.4658
1021.5	49.7394
1023.16	52.6485
1024.81	54.2749
1026.46	55.3684
1028.11	55.4274
1029.76	56.3886
1031.41	57.3544
1033.06	59.6681
1034.71	61.6479
1036.36	62.8271
1038.01	64.9727
1039.66	66.9496
1041.31	67.5281
1042.95	68.8619
1044.6	70.4103
1046.25	71.3874
1047.9	73.7376
1049.54	74.1373
1051.19	73.5621
1052.84	71.9334
1054.48	71.5566
1056.13	70.1003
1057.77	68.8755
1059.42	67.236
1061.06	63.996
1062.71	63.0241
1064.35	63.2888
1066	60.6199
1067.64	58.6477
1069.28	56.1635
1070.93	54.5184
1072.57	49.569
1074.21	47.5291
1075.85	44.2937
1077.49	42.2532
1079.13	38.9506
1080.78	35.8008
1082.42	33.7674
1084.06	32.4097
1085.7	30.5431
1087.34	29.1801
1088.97	28.7488
1090.61	29.4872
1092.25	29.6899
1093.89	28.8342
1095.53	27.9221
1097.17	27.0831
1098.8	26.4152
1100.44	24.4733
1102.08	23.6499
1103.71	22.7805
1105.35	22.6469
1106.99	21.19
1108.62	21.02
1110.26	20.4497
1111.89	20.7654
1113.52	20.6552
1115.16	20.9533
1116.79	20.8901
1118.43	20.5428
1120.06	19.7641
1121.69	19.3512
1123.32	17.7865
1124.96	17.2855
1126.59	17.5168
1128.22	16.6381
1129.85	14.9563
1131.48	13.2414
1133.11	13.327
1134.75	12.144
1136.37	12.981
1138	12.199
1139.63	12.4854
1141.26	12.2926
1142.89	12.3268
1144.52	12.0484
1146.15	10.8766
1147.78	9.02584
1149.4	7.99679
1151.03	7.76022
1152.66	7.38238
1154.28	6.38112
1155.91	5.59242
1157.54	3.96914
1159.16	4.93607
1160.79	4.15872
1162.41	4.40191
1164.04	3.44935
1165.66	2.59878
1167.29	1.77752
1168.91	1.02914
1170.53	1.17064
1172.16	0.746107
1173.78	0.897886
1175.4	0.384007
1177.02	0.848768
1178.65	1.15695
1180.27	1.03826
1181.89	1.19507
1183.51	1.95847
1185.13	2.58987
1186.75	3.72317
1188.37	4.49718
1189.99	5.014
1191.61	4.93882
1193.23	5.7262
1194.85	6.29235
1196.47	7.08752
1198.08	7.94528
1199.7	9.6794
1201.32	10.5339
1202.94	10.8786
1204.55	11.6311
1206.17	12.4296
1207.79	12.2022
1209.4	12.1781
1211.02	12.7394
1212.63	14.5128
1214.25	15.1356
1215.86	14.229
1217.48	16.0941
1219.09	15.379
1220.71	16.8055
1222.32	16.7383
1223.93	17.4502
1225.54	18.0101
1227.16	17.585
1228.77	17.8018
1230.38	19.0321
1231.99	20.0154
1233.6	21.6344
1235.22	22.7041
1236.83	21.7353
1238.44	24.398
1240.05	26.3303
1241.66	27.2314
1243.26	27.6654
1244.87	28.3816
1246.48	29.2691
1248.09	29.8643
1249.7	31.1672
1251.31	32.5535
1252.92	33.9962
1254.52	37.0947
1256.13	37.7623
1257.74	38.8015
1259.34	40.2133
1260.95	41.9527
1262.55	44.2293
1264.16	46.5726
1265.76	49.8154
1267.37	52.5979
1268.97	56.2302
1270.58	57.5306
1272.18	59.9892
1273.78	62.3287
1275.39	65.8502
1276.99	68.7301
1278.59	71.2304
1280.2	72.3937
1281.8	72.8221
1283.4	73.0551
1285	75.1329
1286.6	75.3901
1288.2	76.2874
1289.8	78.3842
1291.4	78.6996
1293	79.1287
1294.6	78.9398
1296.2	80.5679
1297.8	81.9905
1299.4	81.3783
1301	81.5526
1302.6	80.8433
1304.19	81.0403
1305.79	81.2582
1307.39	80.2652
1308.99	81.3465
1310.58	82.2514
1312.18	83.5935
1313.77	84.0181
1315.37	81.4164
1316.96	80.1558
1318.56	79.0965
1320.15	78.0945
1321.75	76.7442
1323.34	75.5106
1324.94	76.1393
1326.53	74.6248
1328.12	73.808
1329.72	74.0871
1331.31	73.21
1332.9	73.3019
1334.49	74.215
1336.08	72.7454
1337.67	72.8987
1339.27	73.2451
1340.86	73.7276
1342.45	73.8096
1344.04	73.8047
1345.63	74.8595
1347.22	75.2253
1348.8	75.8785
1350.39	74.14
1351.98	74.9961
1353.57	75.8636
1355.16	76.1292
1356.75	75.5646
1358.33	75.5891
1359.92	75.226
1361.51	75.1797
1363.09	75.3686
1364.68	76.4528
1366.27	77.1635
1367.85	77.0915
1369.44	77.0195
1371.02	77.104
1372.61	78.0851
1374.19	78.283
1375.77	78.5173
1377.36	78.2262
1378.94	79.1878
1380.52	78.623
1382.11	79.1161
1383.69	79.7069
1385.27	80.4033
1386.85	79.5715
1388.43	80.4022
1390.02	81.6893
1391.6	82.1216
1393.18	81.7828
1394.76	81.5766
1396.34	83.1254
1397.92	83.574
1399.5	85.7526
1401.08	87.6706
1402.65	89.9195
1404.23	92.1994
1405.81	93.6463
1407.39	95.7915
1408.97	98.7942
1410.54	101.271
1412.12	105.454
1413.7	109.829
1415.27	111.677
1416.85	115.817
1418.43	119.238
1420	122.192
1421.58	126.4
1423.15	130.139
1424.73	134.619
1426.3	137.424
1427.87	140.68
1429.45	143.808
1431.02	147.116
1432.6	150.876
1434.17	153.556
1435.74	156.31
1437.31	158.535
1438.89	160.511
1440.46	161.906
1442.03	163.117
1443.6	164.439
1445.17	163.908
1446.74	161.879
1448.31	162.156
1449.88	161.65
1451.45	159.876
1453.02	157.855
1454.59	155.362
1456.16	153.433
1457.72	150.47
1459.29	145.686
1460.86	142.033
1462.43	137.765
1463.99	132.964
1465.56	128.199
1467.13	125.007
1468.69	120.979
1470.26	115.42
1471.83	110.873
1473.39	105.896
1474.95	101.093
1476.52	96.6575
1478.08	91.5108
1479.65	87.6885
1481.21	83.0609
1482.78	78.8475
1484.34	75.091
1485.9	71.6648
1487.47	68.7704
1489.03	65.4176
1490.59	60.2902
1492.15	55.8478
1493.71	50.9118
1495.27	47.4976
1496.84	43.4616
1498.39	39.8212
1499.96	37.8332
1501.52	34.4125
1503.07	32.9596
1504.64	29.8501
1506.19	27.9277
1507.75	26.6037
1509.31	25.3435
1510.87	23.7444
1512.43	21.6505
1513.98	20.9885
1515.54	19.4737
1517.1	18.9456
1518.65	17.242
1520.21	16.6932
1521.77	15.8939
1523.32	14.8279
1524.88	15.2649
1526.44	16.156
1527.99	16.1344
1529.54	16.68
1531.1	17.2513
1532.65	17.9566
1534.21	19.3314
1535.76	19.613
1537.31	20.3541
1538.87	22.2495
1540.42	23.4381
1541.97	25.505
1543.52	27.6472
1545.07	29.7039
1546.63	31.0347
1548.18	32.7844
1549.73	35.6337
1551.28	37.6418
1552.83	39.846
1554.38	41.8876
1555.93	42.5047
1557.48	45.3047
1559.03	46.7053
1560.57	48.1357
1562.12	50.6608
1563.67	52.5501
1565.22	53.9131
1566.77	54.7138
1568.31	55.4451
1569.86	58.5393
1571.41	59.9181
1572.95	61.605
1574.5	63.9137
1576.05	66.8704
1577.59	70.1095
1579.14	73.0101
1580.68	77.2348
1582.23	79.1113
1583.77	81.6788
1585.31	83.8898
1586.86	84.9664
1588.4	86.4397
1589.95	87.6767
1591.49	90.1166
1593.03	90.0595
1594.57	91.2248
1596.11	92.3116
1597.66	94.344
1599.2	95.5314
1600.74	97.9682
1602.28	99.5911
1603.82	99.8502
1605.36	100.063
1606.9	100.609
1608.44	100.374
1609.98	100.55
1611.52	100.661
1613.06	100.039
1614.6	100.388
1616.13	99.8205
1617.67	98.4369
1619.21	99.2825
1620.75	98.2789
1622.28	97.8286
1623.82	97.3404
1625.36	96.4805
1626.89	95.9015
1628.43	94.1826
1629.96	94.378
1631.5	93.2935
1633.04	92.2639
1634.57	92.7346
1636.11	91.5435
1637.64	91.2686
1639.17	91.1951
1640.71	90.7014
1642.24	90.2885
1643.77	89.4415
1645.31	89.3972
1646.84	88.4905
1648.37	88.4433
1649.9	88.3399
1651.43	89.0667
1652.96	88.4526
1654.5	87.6765
1656.03	87.0471
1657.56	85.8853
1659.09	82.5873
1660.62	79.5814
1662.15	77.1146
1663.67	75.7509
1665.2	74.6536
1666.73	72.4331
1668.26	70.886
1669.79	68.3526
1671.32	67.5765
1672.84	66.6643
1674.37	64.9389
1675.9	63.0835
1677.43	62.4047
1678.95	59.5716
1680.48	56.7828
1682	54.3129
1683.53	52.926
1685.05	50.9747
1686.58	50.0983
1688.1	48.7688
1689.63	46.7695
1691.15	44.9789
1692.68	44.027
1694.2	42.3501
1695.72	41.421
1697.25	38.9484
1698.77	37.229
1700.29	35.7116
1701.81	33.6493
1703.33	32.2781
1704.86	31.2538
1706.38	31.5229
1707.9	29.87
1709.42	28.6865
1710.94	28.7499
1712.46	27.7923
1713.98	27.3416
1715.5	26.6891
1717.02	26.1383
1718.54	25.9392
1720.06	24.7568
1721.57	24.5632
1723.09	24.0808
1724.61	24.1761
1726.13	22.8278
1727.64	23.329
1729.16	21.7875
1730.68	21.2651
1732.19	20.1731
1733.71	18.3862
1735.23	16.8328
1736.74	16.4639
1738.26	16.8462
1739.77	17.6824
1741.29	17.2277
1742.8	17.1094
1744.31	17.2196
1745.83	16.8804
1747.34	17.3083
1748.85	17.034
1750.37	16.5548
1751.88	17.1729
1753.39	17.2943
1754.91	15.6864
1756.42	14.6274
1757.93	14.265
1759.44	14.3138
1760.95	13.5311
1762.46	13.364
1763.97	12.8313
1765.48	12.4619
1766.99	12.0155
1768.5	11.5333
1770.01	9.62096
1771.52	8.97962
1773.03	7.80804
1774.54	6.93143
1776.04	6.28895
1777.55	4.99615
1779.06	4.88808
1780.57	4.61972
1782.07	4.05792
1783.58	3.05946
1785.09	2.86312
1786.59	3.19749
1788.1	2.55371
1789.6	2.64873
1791.11	2.91508
1792.61	2.27408
1794.12	1.68919
1795.62	1.14072
1797.13	0.963632
1798.63	1.11543
1800.13	0.767167
1801.64	0.350759
1803.14	0.553572
1804.64	-0.251254
1806.15	-0.436394
1807.65	-0.300758
1809.15	0.115747
1810.65	0.401352
1812.15	1.11116
1813.65	2.27066
1815.16	3.68988
1816.66	3.66147
1818.15	3.70188
1819.66	3.25555
1821.16	3.58871
1822.65	3.77661
1824.15	3.86511
1825.65	3.6829
1827.15	4.08027
1828.65	3.69179
1830.15	2.94688
1831.64	2.88516
1833.14	3.83419
1834.64	4.08616
1836.14	4.49974
1837.63	4.66702
1839.13	5.11291
1840.62	4.07521
1842.12	3.58002
1843.62	3.52706
1845.11	2.66796
1846.61	2.04717
1848.1	1.62943
1849.6	1.92111
1851.09	0.538672
1852.58	0.737823
1854.08	1.59052
1855.57	1.78369
1857.06	1.86322
1858.55	2.00911
1860.05	2.83642
1861.54	3.57303
1863.03	4.3971
1864.52	4.19469
1866.01	3.49862
1867.5	3.04131
1869	2.74993
1870.49	2.94077
1871.98	3.2109
1873.47	3.59316
1874.96	4.07263
1876.44	3.68738
1877.93	4.82714
1879.42	4.87465
1880.91	4.75276
1882.4	4.76936
1882.47	5.14834
1883.96	5.28628
1885.46	5.96038
1886.95	6.71343
1888.44	7.03609
1889.94	6.69264
1891.43	7.14549
1892.93	7.19052
1894.42	6.82676
1895.91	6.53649
1897.4	7.30394
1898.89	7.52652
1900.39	7.79198
1901.88	8.01904
1903.37	8.44648
1904.86	8.72801
1906.35	8.59882
1907.84	8.53145
1909.33	8.11573
1910.82	7.18388
1912.31	6.65855
1913.8	5.61495
1915.29	6.21882
1916.77	6.49997
1918.26	6.66525
1919.75	7.42315
1921.24	8.26271
1922.73	8.79816
1924.21	8.71462
1925.7	10.8034
1927.19	11.2135
1928.67	10.6683
1930.16	10.2034
1931.64	10.5236
1933.13	10.8371
1934.61	10.9482
1936.1	11.413
1937.58	10.6396
1939.07	10.23
1940.55	11.0579
1942.04	11.4336
1943.52	12.4683
1945	12.9411
1946.49	12.5331
1947.97	12.475
1949.45	11.9377
1950.93	12.3874
1952.42	12.1541
1953.9	12.5807
1955.38	12.0207
1956.86	12.959
1958.34	12.804
1959.82	12.3267
1961.3	12.1705
1962.78	11.9566
1964.26	11.5375
1965.74	10.284
1967.22	9.73424
1968.7	9.67365
1970.18	9.77826
1971.65	9.95949
1973.13	9.82668
1974.61	9.43712
1976.09	9.45074
1977.57	9.29113
1979.04	8.40049
1980.52	8.4732
1982	8.40657
1983.47	8.67285
1984.95	7.87652
1986.42	8.49086
1987.9	9.11033
1989.37	9.73015
1990.85	9.29725
1992.32	9.0313
1993.8	9.08131
1995.27	9.46935
1996.75	9.64565
1998.22	10.3611
1999.69	10.9282
2001.17	10.0623
2002.64	10.1914
2004.11	10.7312
2005.58	10.9984
2007.05	11.3363
2008.53	11.9094
2010	12.3488
2011.47	11.9617
2012.94	12.4584
2014.41	13.1523
2015.88	13.1244
2017.35	12.5034
2018.82	11.4484
2020.29	11.4512
2021.76	11.1542
2023.23	10.7562
2024.7	11.4419
2026.16	11.4274
2027.63	11.1003
2029.1	10.5259
2030.57	11.4425
2032.03	10.8477
2033.5	10.1803
2034.97	10.7407
2036.44	10.9918
2037.9	10.6617
2039.37	10.1626
2040.83	11.4342
2042.3	11.1402
2043.76	10.8068
2045.23	10.8352
2046.69	10.2372
2048.16	10.1647
2049.62	10.1771
2051.08	9.84889
2052.55	9.14046
2054.01	9.31107
2055.47	9.38031
2056.94	9.21433
2058.4	8.64608
2059.86	9.24881
2061.32	9.52359
2062.79	9.60404
2064.25	9.86597
2065.71	10.9121
2067.17	11.6094
2068.63	12.2363
2070.09	13.2357
2071.55	13.9416
2073.01	14.2563
2074.47	13.9179
2075.93	14.508
2077.39	14.9908
2078.85	15.1631
2080.31	15.9055
2081.76	15.7528
2083.22	15.9384
2084.68	16.4841
2086.13	17.4291
2087.59	17.4664
2089.05	17.9395
2090.51	17.7644
2091.96	18.3849
2093.42	19.2399
2094.87	19.9314
2096.33	22.2492
2097.78	23.8006
2099.24	24.4442
2100.69	25.4544
2102.15	25.4706
2103.6	26.5357
2105.06	27.3128
2106.51	28.5093
2107.96	29.3793
2109.42	29.8083
2110.87	30.1768
2112.32	30.8145
2113.77	31.712
2115.23	31.1683
2116.68	31.5489
2118.13	32.4603
2119.58	33.0204
2121.03	34.1958
2122.48	33.8985
2123.93	34.6865
2125.38	35.639
2126.83	37.3756
2128.28	38.2726
2129.73	38.9181
2131.18	40.59
2132.63	41.7842
2134.08	42.8988
2135.53	44.049
2136.97	45.2775
