#Acq. time (s)=	45
#Accumulations=	2
#Range (cm-¹)=	200...3150
#Windows=	2
#Auto scanning=	Off
#Autofocus=	Off
#Macrospot=	Off
#AutoExposure=	Off
#Spike filter=	Multiple accum.
#Delay time (s)=	0
#Binning=	1
#Readout mode=	Signal
#DeNoise=	Off
#ICS correction=	On
#Dark correction=	Off
#Inst. Process=	Off
#Detector Gain=	Best Dynamic Range
#Detector ADC=	20 kHz       
#Detector temperature (°C)=	-69.85
#Instrument=	LabRAM HR Evol
#Detector=	Synapse
#Objective=	x100
#Grating=	600 gr/mm
#ND Filter=	100%
#Laser (nm)=	532 
#Hole=	100.021
#Range=	Auto
#Laser Pol.=	No
#Raman. Pol.=	No
#Laser Pol. (°)=	-0.0007625
#Raman Pol. (°)=	89.9995
#Collection=	Microscope
#StageXY=	Marzhauser
#StageZ=	Marzhauser
#X (µm)=	-1106.5
#Y (µm)=	575.8
#Z (µm)=	584.1
#Full time(mm:ss)=	3:18
#Project=	
#Sample=	
#Site=	
#Title=	Mb_40_y_33_2x_45s_532 nm_x100_100%_600 gr_mm
#Remark=	
#Date=	19.07.2022 12:08
#Acquired=	19.07.2022 12:08:01
#Base:Fit=	10.08.2022 10:52:48
#Base:Sub=	10.08.2022 10:52:53
#Filter:Polynom=	16.08.2022 10:09:04
#AxisType[0]=Intens
#AxisUnit[0]=Cnt
#AxisType[1]=Spectr
#AxisUnit[1]=1/cm
200.423	51.2246
202.238	46.0333
204.052	41.8832
205.868	37.5827
207.682	34.2457
209.495	31.2773
211.308	28.6242
213.12	25.4813
214.935	22.9797
216.746	20.4752
218.558	18.6195
220.369	15.3067
222.18	12.7561
223.992	11.1241
225.802	10.0881
227.612	8.34281
229.421	7.38524
231.23	6.74025
233.039	5.39085
234.849	5.80563
236.657	6.39888
238.465	6.2672
240.272	6.08039
242.079	5.85436
243.885	5.63342
245.691	5.58996
247.497	6.34148
249.305	5.81631
251.11	6.42333
252.915	6.84568
254.719	6.15529
256.523	6.31958
258.327	6.97938
260.13	7.23011
261.933	7.3661
263.736	7.43502
265.538	8.01749
267.34	8.32626
269.141	8.40074
270.943	8.61467
272.744	8.92326
274.544	8.77925
276.344	7.97553
278.144	7.66236
279.944	6.91049
281.743	6.05018
283.542	6.28848
285.34	5.79189
287.138	5.74042
288.936	5.13999
290.733	5.01452
292.53	6.42099
294.327	6.4973
296.123	6.5657
297.919	6.12719
299.715	5.69724
301.508	4.82792
303.303	4.35682
305.098	4.53247
306.892	3.37436
308.686	2.86095
310.479	2.64648
312.273	3.73134
314.065	3.84663
315.858	4.50189
317.648	4.61124
319.44	5.25839
321.231	5.94112
323.022	6.76444
324.813	8.63091
326.604	9.17089
328.392	9.483
330.181	9.90173
331.971	10.1099
333.76	10.3296
335.548	10.7105
337.335	10.8766
339.123	10.4525
340.91	12.054
342.698	12.5917
344.483	12.3066
346.269	13.0054
348.055	13.2156
349.841	13.7673
351.625	13.9399
353.41	14.0827
355.195	14.25
356.977	13.3125
358.762	12.6679
360.545	12.4071
362.329	11.7326
364.11	11.6592
365.893	11.0986
367.675	11.3702
369.455	10.4142
371.237	11.4113
373.017	11.6339
374.798	10.4182
376.578	9.84472
378.357	9.65858
380.137	9.91847
381.917	9.12639
383.694	8.01152
385.473	7.13731
387.249	6.78856
389.028	5.91909
390.806	4.96642
392.581	4.21427
394.359	3.06815
396.134	2.20998
397.91	2.56693
399.684	2.7187
401.46	1.75246
403.234	0.930884
405.009	0.960639
406.784	0.758807
408.557	0.7769
410.331	1.48084
412.103	2.24491
413.876	2.93411
415.647	3.04554
417.42	2.9894
419.191	2.22349
420.961	2.64318
422.733	3.43477
424.502	4.25279
426.273	4.97521
428.042	5.59001
429.812	6.73099
431.58	6.57505
433.35	6.33915
435.118	6.71905
436.885	6.97426
438.653	7.10255
440.42	6.77934
442.188	7.86209
443.954	8.01919
445.719	8.15981
447.486	8.31601
449.251	8.21582
451.015	7.90856
452.781	7.88992
454.545	8.53051
456.308	9.9649
458.073	9.54466
459.836	10.9146
461.598	10.7189
463.362	11.0779
465.124	11.5297
466.885	11.8586
468.648	11.7562
470.408	10.7203
472.169	10.9317
473.929	10.8919
475.69	10.5
477.45	10.6439
479.208	10.5715
480.967	10.6595
482.727	10.9998
484.485	11.2486
486.243	12.2141
488	12.4037
489.759	12.6334
491.515	13.3601
493.272	13.4838
495.028	14.8949
496.783	15.5862
498.54	15.6288
500.295	16.0124
502.05	16.7352
503.804	16.1718
505.558	16.4221
507.311	16.8303
509.064	18.3059
510.819	18.3717
512.572	18.3826
514.324	17.4991
516.076	16.9161
517.827	16.8941
519.578	16.0135
521.329	15.8729
523.08	16.1301
524.83	16.1563
526.58	17.6321
528.329	19.2015
530.08	19.4263
531.829	18.4887
533.578	17.9406
535.326	17.2661
537.074	17.1935
538.821	17.9184
540.568	18.1901
542.315	18.0536
544.062	17.3092
545.808	16.9168
547.554	16.6818
549.299	15.8648
551.044	15.2964
552.789	14.272
554.533	13.1019
556.278	12.2012
558.019	11.3712
559.763	11.8216
561.506	10.9552
563.249	10.7276
564.991	10.7735
566.733	9.89262
568.475	8.62786
570.217	8.30471
571.958	7.84932
573.699	7.36517
575.439	5.83264
577.177	5.07831
578.917	4.98904
580.656	4.67095
582.396	4.47206
584.134	4.29251
585.873	4.05293
587.609	4.78155
589.347	4.46934
591.084	3.54933
592.822	3.75839
594.558	2.72784
596.295	2.56203
598.029	1.69056
599.765	1.48103
601.5	1.51436
603.235	2.41513
604.968	2.84418
606.703	3.59743
608.437	3.96319
610.171	5.25247
611.902	6.24815
613.635	7.75189
615.368	7.29897
617.099	7.19887
618.831	6.81744
620.563	6.12774
622.294	6.49811
624.024	7.0949
625.755	7.45703
627.485	7.80166
629.213	8.09766
630.943	8.57628
632.673	9.79496
634.4	9.96363
636.129	10.225
637.855	9.81823
639.584	9.50645
641.312	9.06202
643.037	8.70715
644.764	8.88818
646.491	9.23671
648.216	8.8676
649.942	9.5918
651.666	9.37086
653.392	9.31315
655.115	9.93427
656.84	11.1934
658.563	11.8246
660.287	12.086
662.011	12.1035
663.732	13.2284
665.456	14.1736
667.177	14.6616
668.899	15.9174
670.62	16.6258
672.342	16.2609
674.061	17.3207
675.781	17.8547
677.502	18.3108
679.22	18.7021
680.941	19.5029
682.659	20.956
684.379	21.2379
686.096	22.5865
687.815	24.4639
689.532	25.3745
691.248	26.7075
692.966	28.5261
694.682	29.7582
696.4	31.6212
698.115	33.2696
699.829	33.807
701.546	34.0449
703.26	35.6928
704.974	35.8291
706.689	37.2747
708.402	39.0779
710.115	39.8308
711.83	39.8892
713.542	40.9361
715.254	41.3408
716.967	41.0794
718.679	41.1675
720.39	41.0603
722.102	40.7365
723.812	40.5139
725.522	41.3635
727.232	41.6341
728.943	41.9855
730.652	42.812
732.361	43.8457
734.069	44.2305
735.779	45.0485
737.487	45.4718
739.194	46.1609
740.901	47.7991
742.608	47.8923
744.316	48.8368
746.022	49.1357
747.728	49.0523
749.433	50.2478
751.138	50.9684
752.843	51.9511
754.549	52.7103
756.254	53.2927
757.957	54.825
759.661	56.76
761.364	56.5257
763.067	57.4428
764.769	58.7333
766.471	60.3032
768.175	60.647
769.877	61.621
771.578	62.9487
773.279	64.618
774.98	65.4869
776.68	67.0729
778.38	67.5826
780.079	68.7643
781.779	69.7621
783.478	70.4649
785.176	70.6221
786.875	71.2231
788.573	72.5312
790.27	72.2036
791.968	72.9492
793.665	72.8902
795.361	73.4256
797.058	73.6068
798.754	73.9217
800.45	73.8853
802.145	74.4896
803.84	75.3052
805.535	75.5273
807.23	75.4143
808.922	74.5761
810.616	75.3075
812.309	74.8571
814.002	75.123
815.695	75.079
817.388	74.6604
819.08	74.4359
820.772	74.1756
822.464	73.8244
824.153	73.8363
825.844	73.9344
827.535	72.8009
829.225	73.0469
830.915	71.8388
832.605	70.7409
834.292	71.2378
835.981	70.6766
837.67	70.6033
839.359	69.6255
841.047	69.4491
842.732	68.8257
844.42	67.9967
846.107	66.4942
847.794	66.5479
849.479	65.2609
851.165	63.7402
852.851	61.3678
854.534	60.7946
856.22	59.7005
857.905	59.1557
859.589	58.4381
861.272	57.4601
862.956	56.859
864.639	55.9586
866.321	55.018
868.004	54.2764
869.687	54.0167
871.367	53.695
873.049	53.4008
874.731	52.3597
876.41	51.5891
878.092	51.0687
879.771	50.804
881.451	49.7348
883.131	49.2162
884.809	48.9562
886.489	48.3881
888.166	47.1659
889.845	46.3155
891.522	45.845
893.2	45.5003
894.878	46.7178
896.554	46.376
898.231	46.2852
899.906	45.4589
901.583	45.3189
903.258	45.7522
904.934	45.4993
906.608	45.2513
908.283	44.7874
909.956	43.9166
911.631	44.0225
913.304	44.3422
914.976	43.3415
916.65	43.2368
918.322	43.2225
919.995	42.7606
921.666	42.3004
923.339	41.0542
925.009	41.4122
926.679	40.7905
928.351	40.2145
930.021	39.4924
931.692	39.2486
933.361	38.6791
935.029	38.6184
936.699	39.266
938.367	40.6518
940.035	41.2557
941.704	41.8562
943.371	41.4521
945.038	41.024
946.706	40.7614
948.372	40.5477
950.038	41.2457
951.705	41.3173
953.37	41.1509
955.035	41.1939
956.7	39.894
958.366	38.9245
960.03	38.156
961.693	38.5606
963.357	38.754
965.021	38.2923
966.684	37.6294
968.346	37.3065
970.008	37.2747
971.67	37.2421
973.334	37.4178
974.995	36.8585
976.655	36.224
978.316	36.806
979.976	36.6193
981.638	35.9136
983.297	34.5759
984.957	33.3745
986.616	32.4082
988.274	31.5363
989.932	30.0738
991.59	28.9903
993.248	27.7344
994.907	27.2759
996.565	24.9672
998.221	22.7877
999.878	22.275
1001.53	19.374
1003.19	18.5676
1004.85	17.8333
1006.5	17.9236
1008.16	20.948
1009.81	23.3885
1011.46	29.034
1013.12	33.9657
1014.77	40.3673
1016.43	48.3018
1018.08	55.1277
1019.73	62.2046
1021.38	67.422
1023.04	73.1006
1024.69	78.8337
1026.34	83.7274
1027.99	89.9408
1029.64	96.1555
1031.29	101.066
1032.94	103.823
1034.59	107.003
1036.24	110.427
1037.89	112.442
1039.54	114.569
1041.19	115.864
1042.84	116.699
1044.48	118.18
1046.13	117.981
1047.78	116.087
1049.42	114.289
1051.07	112.549
1052.72	110.742
1054.36	108.617
1056.01	105.557
1057.66	101.239
1059.3	96.8632
1060.94	92.6966
1062.59	86.8512
1064.23	80.5068
1065.88	74.6946
1067.52	68.2672
1069.16	60.8
1070.81	53.576
1072.45	46.066
1074.09	38.9992
1075.73	32.3416
1077.38	25.955
1079.02	19.887
1080.66	14.3721
1082.3	9.86628
1083.94	6.00517
1085.58	4.79151
1087.22	3.30266
1088.86	4.76363
1090.5	7.23392
1092.13	8.66486
1093.77	11.1089
1095.41	11.6694
1097.05	13.2054
1098.68	14.4909
1100.32	15.0659
1101.96	15.9528
1103.6	16.1411
1105.23	17.197
1106.87	18.5445
1108.5	19.0504
1110.14	20.3897
1111.77	21.3868
1113.41	20.894
1115.04	21.1625
1116.67	23.003
1118.31	23.4006
1119.94	22.7634
1121.58	23.8444
1123.21	23.209
1124.84	23.8126
1126.47	23.5616
1128.1	22.8881
1129.73	21.9854
1131.37	22.69
1133	22.6192
1134.63	22.9521
1136.26	23.1452
1137.89	22.0386
1139.52	20.7079
1141.14	19.9115
1142.77	19.1724
1144.4	17.9524
1146.03	17.5134
1147.66	16.7015
1149.29	15.8863
1150.91	14.5489
1152.54	14.6037
1154.17	14.3313
1155.79	13.4742
1157.42	12.7705
1159.04	11.7632
1160.67	10.8536
1162.3	9.20748
1163.92	8.8711
1165.55	9.15012
1167.17	8.632
1168.79	8.54963
1170.42	8.53987
1172.04	7.35273
1173.66	5.52096
1175.28	4.41521
1176.91	3.72468
1178.53	3.06813
1180.15	3.07479
1181.77	3.23309
1183.39	3.20818
1185.01	3.15903
1186.63	2.10197
1188.25	3.79998
1189.87	3.92219
1191.49	3.98945
1193.11	4.95046
1194.73	4.78103
1196.35	4.81789
1197.97	4.965
1199.59	4.07444
1201.2	4.77447
1202.82	6.44395
1204.44	6.50714
1206.05	7.47384
1207.67	8.72769
1209.29	10.3207
1210.9	12.1226
1212.52	13.9244
1214.13	15.3939
1215.75	17.5941
1217.36	19.1918
1218.97	20.143
1220.59	20.9013
1222.2	22.0276
1223.82	23.2279
1225.43	25.6665
1227.04	26.9287
1228.65	28.2706
1230.26	29.9098
1231.88	30.3647
1233.49	32.2122
1235.1	32.9358
1236.71	33.6552
1238.32	34.7819
1239.93	35.4762
1241.54	36.2418
1243.15	37.1931
1244.76	38.7665
1246.37	40.2495
1247.97	40.6614
1249.58	41.0454
1251.19	41.9475
1252.8	43.2703
1254.41	43.1806
1256.01	44.4733
1257.62	44.2004
1259.23	45.6022
1260.83	47.0749
1262.44	47.4028
1264.04	47.6972
1265.65	47.3251
1267.25	47.9266
1268.86	49.3102
1270.46	49.3943
1272.07	49.5913
1273.67	50.3372
1275.27	50.0143
1276.88	50.583
1278.48	51.2644
1280.08	51.5195
1281.68	52.4641
1283.28	53.307
1284.89	53.5796
1286.49	55.0542
1288.09	56.2443
1289.69	56.8339
1291.29	57.8916
1292.89	56.8913
1294.49	56.2079
1296.09	54.9436
1297.69	55.019
1299.29	54.4498
1300.88	53.8926
1302.48	54.1741
1304.08	54.4754
1305.68	55.6917
1307.27	55.118
1308.87	55.728
1310.47	56.5418
1312.06	56.4133
1313.66	56.3917
1315.25	55.6473
1316.85	55.6804
1318.44	55.6701
1320.04	56.0692
1321.63	56.5059
1323.23	56.6694
1324.82	57.2515
1326.41	57.4359
1328.01	57.4789
1329.6	57.8349
1331.19	57.8916
1332.78	56.5308
1334.38	55.0637
1335.97	54.3693
1337.56	54.4007
1339.15	55.0822
1340.74	55.1288
1342.33	53.9091
1343.92	52.7274
1345.51	51.7037
1347.1	51.4314
1348.69	50.3539
1350.28	50.1936
1351.87	49.7402
1353.46	49.6481
1355.04	48.4039
1356.63	47.8229
1358.22	46.8165
1359.81	46.2558
1361.39	45.327
1362.98	44.5609
1364.57	43.8036
1366.15	43.043
1367.74	42.4889
1369.32	41.9808
1370.91	40.2701
1372.49	38.5634
1374.07	38.7453
1375.66	38.4507
1377.24	38.3352
1378.83	37.6587
1380.41	37.5881
1381.99	37.4305
1383.57	38.129
1385.16	37.4604
1386.74	37.0229
1388.32	36.3811
1389.9	36.4424
1391.48	36.273
1393.06	35.2983
1394.64	35.4771
1396.22	35.8549
1397.8	36.2729
1399.38	37.4605
1400.96	37.5735
1402.54	37.7349
1404.12	38.5862
1405.7	38.5323
1407.28	39.0355
1408.85	39.7384
1410.43	40.2712
1412.01	40.9134
1413.58	42.1216
1415.16	43.5813
1416.74	45.3742
1418.31	46.5416
1419.89	47.946
1421.46	48.2405
1423.04	49.5214
1424.61	51.7889
1426.19	54.1815
1427.76	55.7498
1429.33	57.7597
1430.91	59.3772
1432.48	61.3668
1434.05	62.4517
1435.63	64.7947
1437.2	66.5089
1438.77	67.7292
1440.34	67.6303
1441.91	68.7411
1443.49	69.7237
1445.05	70.9966
1446.63	71.6972
1448.2	71.5002
1449.77	70.9826
1451.34	71.0831
1452.91	70.0572
1454.47	68.0894
1456.04	67.5518
1457.61	66.8729
1459.18	65.8017
1460.75	63.8564
1462.31	62.6245
1463.88	59.887
1465.45	59.1801
1467.01	56.9719
1468.58	55.1522
1470.15	52.9686
1471.71	50.5013
1473.28	50.1179
1474.84	48.8938
1476.41	47.6797
1477.97	46.5059
1479.54	44.6985
1481.1	42.7168
1482.66	40.7794
1484.23	39.0681
1485.79	38.3197
1487.35	37.0506
1488.91	34.8782
1490.48	33.4488
1492.04	32.2824
1493.6	31.8981
1495.16	31.2407
1496.72	31.6261
1498.28	31.3237
1499.84	30.7782
1501.4	29.8019
1502.96	29.1399
1504.52	27.99
1506.08	27.3702
1507.64	27.0406
1509.2	27.2966
1510.76	27.6371
1512.31	26.5027
1513.87	26.1658
1515.43	25.4891
1516.99	25.0696
1518.54	24.4037
1520.1	24.6986
1521.66	24.4008
1523.21	24.3325
1524.77	23.8261
1526.32	23.6859
1527.88	23.9411
1529.43	23.0985
1530.99	22.005
1532.54	21.5838
1534.09	22.1395
1535.65	21.7943
1537.2	21.569
1538.75	20.5177
1540.31	20.5003
1541.86	20.5954
1543.41	21.8549
1544.96	21.8703
1546.51	22.2516
1548.06	23.3228
1549.62	24.2915
1551.17	25.1642
1552.72	25.0597
1554.27	25.2703
1555.82	24.9683
1557.36	25.314
1558.91	25.701
1560.46	26.2652
1562.01	27.0711
1563.56	27.907
1565.11	28.3223
1566.66	28.4512
1568.2	30.4512
1569.75	32.5691
1571.3	34.0392
1572.84	35.4562
1574.39	36.9139
1575.93	36.6157
1577.48	37.2369
1579.02	37.9497
1580.57	38.5062
1582.11	39.0106
1583.66	40.1275
1585.2	40.4758
1586.75	40.8598
1588.29	40.5401
1589.83	41.6128
1591.38	42.5339
1592.92	42.7824
1594.46	43.3372
1596	43.4554
1597.54	44.0442
1599.09	43.6282
1600.63	43.4437
1602.17	44.0712
1603.71	43.5592
1605.25	42.8688
1606.79	41.476
1608.33	41.2388
1609.87	40.6454
1611.41	41.0385
1612.95	40.1161
1614.48	40.3924
1616.02	40.7566
1617.56	41.4695
1619.1	42.0385
1620.64	42.8726
1622.17	43.0688
1623.71	43.7321
1625.25	44.0612
1626.78	44.1434
1628.32	44.8842
1629.86	46.1661
1631.39	47.2632
1632.92	47.8927
1634.46	48.8023
1635.99	49.9445
1637.53	50.3423
1639.06	51.5461
1640.59	51.3762
1642.13	51.8468
1643.66	53.609
1645.19	56.0553
1646.73	57.5819
1648.26	58.1696
1649.79	58.6353
1651.32	59.4455
1652.85	59.8201
1654.38	61.3682
1655.92	60.444
1657.45	60.0749
1658.98	60.3031
1660.51	59.8215
1662.04	59.8216
1663.57	59.6465
1665.09	59.5891
1666.62	60.0475
1668.15	58.436
1669.68	57.5268
1671.21	56.4354
1672.73	55.4383
1674.26	54.1479
1675.79	52.7249
1677.31	51.5065
1678.84	50.1566
1680.37	48.0177
1681.89	46.4632
1683.42	43.9615
1684.94	42.3888
1686.47	40.7381
1687.99	39.9935
1689.52	38.1852
1691.04	36.9847
1692.57	35.3654
1694.09	33.3917
1695.61	32.1738
1697.14	30.637
1698.66	29.045
1700.18	26.135
1701.7	25.2482
1703.22	24.5041
1704.75	23.2308
1706.27	22.107
1707.79	19.9482
1709.31	18.1513
1710.83	16.4495
1712.35	15.8593
1713.87	14.2643
1715.39	12.9142
1716.91	11.6266
1718.43	11.9581
1719.95	11.6861
1721.46	10.617
1722.98	9.92329
1724.5	8.84754
1726.02	8.3562
1727.53	7.78082
1729.05	6.50255
1730.57	6.01925
1732.08	5.00811
1733.6	5.12649
1735.12	4.71204
1736.63	4.45275
1738.15	4.76523
1739.66	4.59164
1741.18	4.7367
1742.69	4.87469
1744.21	4.91792
1745.72	5.06991
1747.23	4.81022
1748.74	5.17018
1750.26	4.85704
1751.77	4.36715
1753.28	4.07861
1754.8	3.60618
1756.31	3.61963
1757.82	3.12456
1759.33	2.5371
1760.84	3.19271
1762.35	3.4707
1763.86	3.56922
1765.37	3.17654
1766.88	3.16051
1768.39	3.61273
1769.9	3.30155
1771.41	3.32755
1772.92	3.39613
1774.43	4.22501
1775.93	4.06762
1777.44	5.24345
1778.95	4.94426
1780.46	4.24147
1781.96	4.36745
1783.47	3.97351
1784.98	3.57468
1786.48	3.57824
1787.99	3.68153
1789.49	3.35171
1791	3.15989
1792.5	3.18654
1794.01	2.64313
1795.51	2.415
1797.02	2.26864
1798.52	2.08814
1800.03	1.71896
1801.53	1.83214
1803.03	2.00316
1804.53	2.42081
1806.04	2.73685
1807.54	3.28695
1809.04	3.06478
1810.54	3.24147
1812.04	3.73051
1813.54	3.95856
1815.05	3.60548
1816.55	3.33212
1818.05	3.33754
1819.55	3.31051
1821.05	2.89005
1822.55	3.07352
1824.05	2.49304
1825.54	2.25269
1827.04	2.4712
1828.54	2.74275
1830.04	2.52138
1831.54	2.52644
1833.03	2.93499
1834.53	3.31251
1836.03	3.86057
1837.52	4.02797
1839.02	4.3392
1840.52	4.22686
1842.01	4.33448
1843.51	4.54786
1845	4.44628
1846.5	4.68476
1847.99	5.02722
1849.49	4.69484
1850.98	4.25301
1852.47	4.91704
1853.97	5.46592
1855.46	5.15337
1856.95	4.62832
1858.45	4.4788
1859.94	4.32404
1861.43	4.60469
1862.92	4.72453
1864.41	5.18758
1865.91	5.00483
1867.4	4.92239
1868.89	4.62647
1870.38	4.52734
1871.87	4.69818
1873.36	4.94733
1874.85	4.76494
1876.34	4.78838
1877.83	4.90399
1879.31	4.53852
1880.8	4.32909
1882.29	4.47
1882.56	3.95639
1884.05	3.79139
1885.54	3.69063
1887.04	3.31461
1888.53	2.62525
1890.03	2.192
1891.52	2.23079
1893.01	2.16362
1894.5	2.01285
1895.99	1.80754
1897.49	1.52575
1898.98	1.85025
1900.47	1.95603
1901.96	2.23058
1903.45	2.73894
1904.94	3.31844
1906.43	4.03101
1907.92	3.79069
1909.41	3.90568
1910.9	3.77853
1912.39	3.58442
1913.88	3.31437
1915.37	3.332
1916.86	3.16823
1918.35	3.39176
1919.84	3.21665
1921.32	3.62907
1922.81	3.54876
1924.3	3.74937
1925.78	4.20975
1927.27	4.01288
1928.76	3.51731
1930.24	3.37895
1931.73	3.73619
1933.21	3.72615
1934.7	3.77622
1936.18	3.65318
1937.67	3.4573
1939.15	2.73053
1940.64	2.07929
1942.12	2.08183
1943.6	2.09027
1945.09	2.41294
1946.57	2.3465
1948.05	2.36063
1949.54	2.34537
1951.02	1.97434
1952.5	1.86505
1953.98	1.76652
1955.46	1.79078
1956.94	1.02497
1958.42	0.731928
1959.91	0.230833
1961.39	0.295369
1962.87	0.179763
1964.34	0.237519
1965.82	0.826589
1967.3	1.12073
1968.78	0.905158
1970.26	1.42222
1971.74	1.48211
1973.22	1.83397
1974.7	1.91556
1976.17	2.72896
1977.65	3.40086
1979.13	3.21447
1980.6	3.58643
1982.08	3.92325
1983.56	3.95466
1985.03	4.24808
1986.51	4.20001
1987.98	4.39785
1989.46	4.39904
1990.93	4.30151
1992.41	4.92038
1993.88	4.6848
1995.36	5.12559
1996.83	4.91311
1998.3	4.78685
1999.78	4.64811
2001.25	4.36613
2002.72	4.00782
2004.2	4.21098
2005.67	4.5389
2007.14	5.15392
2008.61	5.21764
2010.08	5.47852
2011.55	5.11256
2013.02	5.23332
2014.49	5.42804
2015.97	6.33097
2017.43	6.91204
2018.9	6.83284
2020.37	6.80098
2021.84	6.53359
2023.31	5.78432
2024.78	5.67224
2026.25	5.75003
2027.72	5.84927
2029.19	5.6369
2030.65	5.64981
2032.12	5.88505
2033.59	6.14552
2035.05	6.43583
2036.52	6.44346
2037.98	6.39377
2039.45	6.8242
2040.92	7.06436
2042.38	7.28667
2043.85	7.88445
2045.31	7.7264
2046.78	8.31181
2048.24	8.53626
2049.71	9.02837
2051.17	9.11094
2052.63	9.19005
2054.1	9.42498
2055.56	9.25321
2057.02	9.11813
2058.48	9.6164
2059.95	9.50409
2061.41	9.68828
2062.87	9.64958
2064.33	9.84222
2065.79	10.0941
2067.25	10.1594
2068.71	9.94214
2070.17	10.3354
2071.63	10.7367
2073.09	11.227
2074.55	12.268
2076.01	12.8303
2077.47	13.5678
2078.93	14.1765
2080.39	14.9639
2081.85	15.7894
2083.3	17.0049
2084.76	17.3828
2086.22	18.4942
2087.68	18.87
2089.13	19.7541
2090.59	20.6239
2092.05	20.9443
2093.5	21.753
2094.96	22.1729
2096.41	22.8132
2097.87	23.8433
2099.32	24.5291
2100.78	25.1185
2102.23	25.3772
2103.69	25.7888
2105.14	26.4814
2106.59	26.7524
2108.05	27.0857
2109.5	27.7235
2110.95	28.4549
2112.41	29.5089
2113.86	29.9652
2115.31	30.9286
2116.76	31.7721
2118.21	32.4268
2119.67	33.8061
2121.12	34.8396
2122.57	36.1116
2124.02	37.2583
2125.47	38.214
2126.92	38.9683
2128.37	40.1452
2129.82	41.1372
2131.27	42.3573
2132.71	43.2878
2134.16	44.5746
2135.61	45.6514
