#Acq. time (s)=	45
#Accumulations=	2
#Range (cm-¹)=	200...3150
#Windows=	2
#Auto scanning=	Off
#Autofocus=	Off
#Macrospot=	Off
#AutoExposure=	Off
#Spike filter=	Multiple accum.
#Delay time (s)=	0
#Binning=	1
#Readout mode=	Signal
#DeNoise=	Off
#ICS correction=	On
#Dark correction=	Off
#Inst. Process=	Off
#Detector Gain=	Best Dynamic Range
#Detector ADC=	20 kHz       
#Detector temperature (°C)=	-70.08
#Instrument=	LabRAM HR Evol
#Detector=	Synapse
#Objective=	x100
#Grating=	600 gr/mm
#ND Filter=	100%
#Laser (nm)=	532 
#Hole=	100.021
#Range=	Auto
#Laser Pol.=	No
#Raman. Pol.=	No
#Laser Pol. (°)=	-0.0007625
#Raman Pol. (°)=	89.9995
#Collection=	Microscope
#StageXY=	Marzhauser
#StageZ=	Marzhauser
#X (µm)=	-2531.1
#Y (µm)=	-103.8
#Z (µm)=	-10.65
#Full time(mm:ss)=	3:05
#Project=	
#Sample=	
#Site=	
#Title=	Mb_40_24_24_2x_45s_532 nm_x100_100%_600 gr_mm
#Remark=	
#Date=	14.07.2022 12:29
#Acquired=	14.07.2022 12:29:50
#Base:Fit=	10.08.2022 10:47:00
#Base:Sub=	10.08.2022 10:47:12
#Filter:Polynom=	16.08.2022 10:11:48
#AxisType[0]=Intens
#AxisUnit[0]=Cnt
#AxisType[1]=Spectr
#AxisUnit[1]=1/cm
200.554	1.45627
202.369	4.08756
204.183	5.69742
205.999	7.36494
207.813	9.28194
209.626	11.0378
211.439	13.1138
213.253	15.7447
215.065	17.9049
216.877	18.3784
218.688	18.9545
220.5	19.5391
222.312	20.9948
224.123	21.1621
225.933	22.5119
227.742	23.1745
229.552	22.8964
231.361	22.6169
233.171	21.6163
234.98	21.4627
236.787	22.3955
238.595	23.6914
240.402	24.3029
242.209	24.3265
244.015	24.8477
245.822	25.3229
247.627	25.5913
249.435	25.7467
251.24	26.4257
253.045	27.7984
254.849	27.3887
256.653	28.8133
258.457	29.0284
260.26	29.262
262.063	29.659
263.866	30.7239
265.668	31.9525
267.47	32.495
269.271	31.9586
271.073	32.2769
272.873	32.4189
274.674	31.6265
276.474	31.8917
278.274	32.3906
280.073	32.1211
281.872	32.3899
283.671	34.0863
285.47	34.6082
287.268	34.4691
289.065	34.8829
290.863	35.4499
292.66	35.918
294.456	36.01
296.253	35.6764
298.049	34.5818
299.844	34.9053
301.637	35.2657
303.432	33.9514
305.227	32.6884
307.021	30.5943
308.815	29.8078
310.609	29.3424
312.402	28.8645
314.195	27.3597
315.987	25.8579
317.777	24.0343
319.569	22.987
321.36	22.0383
323.151	20.7075
324.942	21.1969
326.733	21.6844
328.521	21.5551
330.31	21.0109
332.1	20.5857
333.889	21.4482
335.677	21.7318
337.464	21.9253
339.252	21.9082
341.039	21.6794
342.826	20.4142
344.611	19.5829
346.398	20.7918
348.184	19.2307
349.97	18.4723
351.754	17.8776
353.539	17.0112
355.324	15.5886
357.106	14.5962
358.89	14.5148
360.674	15.7408
362.455	16.1553
364.239	16.8992
366.021	17.8909
367.804	17.3078
369.584	17.8479
371.366	18.7005
373.145	19.3542
374.926	17.6247
376.707	16.7891
378.485	16.7604
380.265	16.4537
382.045	15.7912
383.822	15.6668
385.601	16.1586
387.378	16.2235
389.156	16.3108
390.934	16.2452
392.71	16.7785
394.487	17.1932
396.262	16.2585
398.038	16.4955
399.813	17.3182
401.588	16.3522
403.362	16.4905
405.137	16.6552
406.912	17.1305
408.685	16.9285
410.459	16.684
412.23	17.1739
414.004	18.699
415.775	19.7291
417.548	21.1199
419.318	21.7198
421.089	22.4259
422.86	22.5881
424.63	22.4569
426.401	23.2662
428.17	23.1002
429.94	22.9935
431.708	22.1393
433.478	21.6594
435.245	22.0006
437.012	19.0942
438.781	17.5827
440.547	16.0314
442.315	15.5118
444.081	15.5963
445.846	16.4074
447.613	16.2837
449.378	15.4875
451.142	14.1038
452.908	15.0757
454.672	13.9373
456.435	13.0871
458.2	11.9907
459.963	11.9206
461.725	11.0096
463.489	10.339
465.251	11.3315
467.012	12.2532
468.775	12.3336
470.536	12.5239
472.296	11.8641
474.056	11.5284
475.817	11.2959
477.576	11.8416
479.335	12.718
481.094	13.8402
482.854	13.3757
484.612	13.7309
486.37	14.9396
488.127	15.5361
489.886	16.7107
491.642	18.5085
493.398	19.2749
495.154	18.9954
496.91	21.2
498.667	23.2849
500.422	24.8691
502.176	26.5661
503.93	27.8337
505.684	29.106
507.438	29.4044
509.191	30.6682
510.946	31.1676
512.698	32.8677
514.45	34.0512
516.202	34.2942
517.954	35.1291
519.705	35.1773
521.456	35.7692
523.206	36.2531
524.956	35.2858
526.706	35.5891
528.456	35.6291
530.207	36.268
531.956	36.821
533.704	35.7889
535.452	35.1054
537.2	34.4345
538.947	33.9608
540.694	33.488
542.441	30.9541
544.188	30.8641
545.934	29.971
547.68	31.1213
549.425	30.1566
551.17	30.452
552.915	29.9033
554.659	27.648
556.403	26.3957
558.145	25.8308
559.889	24.3481
561.632	24.2031
563.375	24.363
565.117	23.2014
566.859	22.3672
568.601	22.2812
570.342	21.2792
572.083	20.6078
573.824	19.6643
575.565	17.6108
577.303	17.6141
579.043	16.1627
580.782	14.8656
582.521	13.7611
584.26	14.2086
585.998	13.1669
587.734	12.9279
589.472	12.6463
591.21	12.749
592.947	12.9074
594.684	13.0541
596.418	13.7686
598.154	14.173
599.89	14.6638
601.626	14.2256
603.361	14.9777
605.094	14.643
606.828	13.6812
608.562	12.6765
610.296	11.6244
612.027	11.1457
613.761	10.1192
615.493	9.37151
617.224	9.09805
618.956	9.17396
620.688	8.36414
622.419	8.56283
624.149	8.19644
625.879	7.18796
627.61	5.84461
629.338	6.19379
631.068	7.61831
632.797	7.48448
634.525	8.37332
636.254	8.48507
637.98	8.65964
639.708	7.6576
641.436	7.71445
643.162	7.9141
644.889	7.79438
646.614	7.40221
648.34	7.20955
650.067	6.55523
651.791	5.96418
653.516	6.17188
655.239	5.04944
656.964	4.60373
658.687	4.46613
660.411	4.05901
662.133	3.79662
663.857	4.23884
665.58	3.95669
667.301	2.82521
669.024	3.5529
670.744	4.29366
672.464	3.14871
674.186	3.04918
675.905	2.36371
677.626	3.82211
679.345	3.41836
681.065	3.98117
682.783	4.80689
684.503	5.41318
686.22	5.69536
687.939	5.33674
689.656	5.7991
691.372	4.32514
693.09	4.12029
694.806	4.2853
696.523	4.12985
698.239	4.73803
699.953	4.08817
701.67	4.81817
703.384	5.7848
705.098	6.14779
706.813	5.99892
708.526	5.67157
710.239	6.41869
711.954	7.22207
713.666	8.16104
715.378	9.98054
717.091	10.5822
718.802	10.6476
720.513	11.1822
722.226	11.3283
723.936	11.5266
725.646	11.1208
727.355	12.534
729.067	12.6224
730.776	12.0801
732.484	13.0194
734.192	12.6751
735.902	13.9218
737.61	15.0572
739.317	15.4556
741.024	16.5094
742.731	19.3557
744.439	21.2065
746.145	22.9638
747.851	23.8216
749.556	24.5592
751.262	26.1836
752.966	27.752
754.673	30.1458
756.377	32.0073
758.081	33.0789
759.784	36.3079
761.487	37.8015
763.19	40.8055
764.892	42.3688
766.594	44.7628
768.296	45.8167
770	46.4783
771.701	46.83
773.402	47.4389
775.102	49.2177
776.803	50.9208
778.503	53.2081
780.202	53.4806
781.901	54.4994
783.6	56.5396
785.299	57.1428
786.997	58.3534
788.695	59.5714
790.393	60.55
792.09	60.356
793.787	60.8407
795.484	61.3812
797.18	61.2681
798.877	61.19
800.572	60.7401
802.268	60.3678
803.963	60.0536
805.658	59.5634
807.35	58.1115
809.044	56.7575
810.738	55.1314
812.432	54.8574
814.125	53.8888
815.818	52.6671
817.51	53.587
819.202	54.232
820.894	56.501
822.584	57.0827
824.275	57.55
825.966	58.6484
827.657	59.6385
829.347	60.5214
831.037	60.8463
832.725	62.0877
834.414	62.7772
836.103	63.6975
837.792	65.0031
839.481	64.8105
841.167	65.8575
842.854	65.1644
844.542	65.8703
846.229	65.4998
847.914	66.1419
849.6	66.0626
851.287	66.6433
852.973	65.5374
854.656	66.6134
856.341	66.8593
858.026	67.5634
859.711	67.8163
861.393	68.5246
863.077	68.5543
864.761	68.0476
866.442	68.3905
868.125	67.9468
869.808	67.3381
871.489	66.7443
873.171	66.0957
874.85	64.1942
876.532	62.6129
878.213	61.9723
879.892	60.2201
881.572	58.2174
883.251	56.8574
884.931	54.8675
886.61	52.8749
888.287	50.6803
889.966	47.8311
891.643	45.92
893.321	45.3779
894.997	45.2924
896.675	45.1519
898.352	45.4877
900.028	45.5278
901.704	47.3591
903.379	47.0024
905.055	45.6418
906.729	44.9687
908.404	43.3613
910.077	43.6156
911.75	44.958
913.425	45.4929
915.097	44.425
916.771	44.4793
918.443	41.6607
920.116	40.8313
921.787	39.9461
923.46	39.4699
925.13	40.3918
926.8	40.5856
928.472	41.2044
930.141	40.8874
931.813	42.0851
933.481	42.7672
935.15	42.6073
936.82	41.2788
938.488	42.292
940.156	42.3125
941.825	41.9285
943.492	41.6731
945.158	41.786
946.827	40.4485
948.493	39.3501
950.158	37.7526
951.824	37.4416
953.491	36.662
955.156	34.6846
956.82	33.5857
958.486	30.4027
960.15	28.8735
961.814	28.4452
963.477	27.438
965.142	28.3304
966.804	29.037
968.467	30.2471
970.129	31.5812
971.79	32.7972
973.454	33.7142
975.115	35.1285
976.776	35.1237
978.436	35.5027
980.096	35.6503
981.756	36.2675
983.417	36.1326
985.077	35.3426
986.736	32.8407
988.394	32.3047
990.052	31.9647
991.71	29.8657
993.368	29.7553
995.025	28.7745
996.682	26.9023
998.341	25.4763
999.998	24.7569
1001.65	24.1846
1003.31	24.3151
1004.97	24.1514
1006.62	25.8889
1008.28	26.8909
1009.93	27.4216
1011.58	28.8163
1013.24	30.8638
1014.89	33.1971
1016.54	34.3987
1018.2	36.3819
1019.85	38.8522
1021.5	40.5128
1023.16	41.4653
1024.81	42.0569
1026.46	45.3114
1028.11	46.3746
1029.76	48.2165
1031.41	51.3179
1033.06	53.8039
1034.71	56.4596
1036.36	57.8786
1038.01	58.9143
1039.66	61.1292
1041.31	62.5973
1042.95	65.366
1044.6	67.8456
1046.25	68.9235
1047.9	72.1157
1049.54	72.4276
1051.19	72.7307
1052.84	72.109
1054.48	71.7952
1056.13	71.2743
1057.77	70.8495
1059.42	70.0258
1061.06	67.986
1062.71	66.2296
1064.35	63.8912
1066	61.2489
1067.64	58.1328
1069.28	55.5524
1070.93	52.8415
1072.57	50.2287
1074.21	47.3025
1075.85	45.5527
1077.49	43.3887
1079.13	41.1279
1080.78	38.1496
1082.42	35.3001
1084.06	33.3015
1085.7	31.1476
1087.34	29.6458
1088.97	30.9657
1090.61	30.0439
1092.25	30.8749
1093.89	31.3188
1095.53	32.4332
1097.17	33.711
1098.8	34.2076
1100.44	34.9432
1102.08	35.5882
1103.71	36.7675
1105.35	38.4052
1106.99	39.6063
1108.62	40.3615
1110.26	40.0578
1111.89	41.0196
1113.52	41.2048
1115.16	40.6886
1116.79	40.4505
1118.43	39.354
1120.06	38.711
1121.69	37.7808
1123.32	36.8014
1124.96	36.1082
1126.59	35.432
1128.22	35.215
1129.85	34.6662
1131.48	32.2821
1133.11	31.9028
1134.75	32.2024
1136.37	31.8583
1138	29.9418
1139.63	28.1726
1141.26	24.396
1142.89	21.5854
1144.52	21.3188
1146.15	19.5864
1147.78	18.3172
1149.4	17.1684
1151.03	14.8898
1152.66	13.7616
1154.28	12.0217
1155.91	10.3772
1157.54	8.90031
1159.16	7.10397
1160.79	5.63098
1162.41	3.9683
1164.04	2.63021
1165.66	2.52296
1167.29	1.73428
1168.91	2.60183
1170.53	3.91168
1172.16	3.17244
1173.78	5.54841
1175.4	5.56178
1177.02	7.44621
1178.65	8.51023
1180.27	7.99415
1181.89	9.26995
1183.51	9.46686
1185.13	10.8253
1186.75	11.4105
1188.37	11.8194
1189.99	12.1612
1191.61	13.8219
1193.23	14.9151
1194.85	16.0728
1196.47	16.1489
1198.08	16.8321
1199.7	17.1448
1201.32	17.6819
1202.94	18.2528
1204.55	19.6548
1206.17	20.8581
1207.79	20.4729
1209.4	21.8093
1211.02	23.015
1212.63	23.6878
1214.25	25.3957
1215.86	26.0974
1217.48	26.0634
1219.09	25.6524
1220.71	27.3177
1222.32	28.1543
1223.93	30.5735
1225.54	31.8986
1227.16	33.2424
1228.77	35.8066
1230.38	36.632
1231.99	37.7312
1233.6	39.5033
1235.22	40.0364
1236.83	41.0913
1238.44	41.4017
1240.05	43.2731
1241.66	44.6776
1243.26	45.7913
1244.87	47.2086
1246.48	48.59
1248.09	49.5133
1249.7	51.3048
1251.31	51.8499
1252.92	52.0767
1254.52	52.8614
1256.13	53.3498
1257.74	54.471
1259.34	56.4092
1260.95	56.7692
1262.55	60.2861
1264.16	61.2593
1265.76	65.1785
1267.37	67.345
1268.97	69.6498
1270.58	72.2595
1272.18	74.8262
1273.78	76.0633
1275.39	77.3727
1276.99	78.7934
1278.59	81.2364
1280.2	81.7245
1281.8	83.9648
1283.4	87.2182
1285	89.5068
1286.6	91.3816
1288.2	93.0067
1289.8	95.4834
1291.4	97.9219
1293	98.6635
1294.6	100.42
1296.2	101.693
1297.8	102.938
1299.4	103.944
1301	105.235
1302.6	106.008
1304.19	107.269
1305.79	106.831
1307.39	108.072
1308.99	106.993
1310.58	105.91
1312.18	105.919
1313.77	105.207
1315.37	103.937
1316.96	103.162
1318.56	103.303
1320.15	102.354
1321.75	100.741
1323.34	100.156
1324.94	98.0283
1326.53	95.7762
1328.12	94.4215
1329.72	92.2291
1331.31	90.5028
1332.9	89.1308
1334.49	88.6897
1336.08	89.1562
1337.67	88.1199
1339.27	88.4185
1340.86	87.3478
1342.45	87.7852
1344.04	86.751
1345.63	87.6557
1347.22	86.4531
1348.8	85.3041
1350.39	86.0414
1351.98	84.358
1353.57	84.8555
1355.16	84.5849
1356.75	83.5556
1358.33	83.4532
1359.92	82.6493
1361.51	83.3515
1363.09	83.355
1364.68	82.0607
1366.27	81.8841
1367.85	82.9282
1369.44	80.7863
1371.02	81.5394
1372.61	81.4192
1374.19	82.747
1375.77	82.2272
1377.36	82.1061
1378.94	81.8512
1380.52	82.8421
1382.11	83.6303
1383.69	82.9601
1385.27	82.8126
1386.85	84.6682
1388.43	84.459
1390.02	86.2987
1391.6	87.7337
1393.18	89.2916
1394.76	89.8727
1396.34	93.0998
1397.92	94.7275
1399.5	95.8165
1401.08	99.8986
1402.65	102.878
1404.23	105.223
1405.81	108.853
1407.39	112.316
1408.97	116.189
1410.54	121.228
1412.12	125.979
1413.7	131.622
1415.27	137.003
1416.85	141.442
1418.43	146.824
1420	151.421
1421.58	156.28
1423.15	162.247
1424.73	168.184
1426.3	173.106
1427.87	178.763
1429.45	185.018
1431.02	188.124
1432.6	192.76
1434.17	195.44
1435.74	198.281
1437.31	201.462
1438.89	202.937
1440.46	205.271
1442.03	206.68
1443.6	207.433
1445.17	208.234
1446.74	207.719
1448.31	204.941
1449.88	204.907
1451.45	202.699
1453.02	199.676
1454.59	195.39
1456.16	191.673
1457.72	188.154
1459.29	184.106
1460.86	178.356
1462.43	172.017
1463.99	167.67
1465.56	162.035
1467.13	155.591
1468.69	149.324
1470.26	142.613
1471.83	135.886
1473.39	129.293
1474.95	123.644
1476.52	116.323
1478.08	110.646
1479.65	105.527
1481.21	99.0679
1482.78	92.5388
1484.34	87.0176
1485.9	81.7693
1487.47	78.4181
1489.03	74.693
1490.59	70.3104
1492.15	67.1578
1493.71	63.6597
1495.27	60.1171
1496.84	56.2728
1498.39	53.1024
1499.96	50.9805
1501.52	50.0139
1503.07	47.6875
1504.64	45.3761
1506.19	44.3114
1507.75	43.5033
1509.31	42.4599
1510.87	42.3948
1512.43	41.449
1513.98	39.5249
1515.54	39.9011
1517.1	39.0301
1518.65	38.6234
1520.21	37.9942
1521.77	38.515
1523.32	37.7276
1524.88	37.414
1526.44	37.7148
1527.99	38.0337
1529.54	39.6104
1531.1	39.9209
1532.65	40.2059
1534.21	41.3846
1535.76	42.6493
1537.31	43.4748
1538.87	44.5712
1540.42	46.3236
1541.97	49.1825
1543.52	49.6198
1545.07	50.4805
1546.63	50.4438
1548.18	51.0712
1549.73	51.8775
1551.28	53.3106
1552.83	53.497
1554.38	54.1224
1555.93	54.4251
1557.48	54.2803
1559.03	55.0637
1560.57	56.9486
1562.12	59.5792
1563.67	61.5583
1565.22	63.5623
1566.77	63.5703
1568.31	64.8214
1569.86	67.0804
1571.41	69.1499
1572.95	70.2391
1574.5	71.4957
1576.05	74.0067
1577.59	75.7103
1579.14	78.6562
1580.68	80.5625
1582.23	82.8189
1583.77	86.1733
1585.31	87.8955
1586.86	89.2769
1588.4	90.3384
1589.95	90.7656
1591.49	91.6121
1593.03	92.7224
1594.57	93.1039
1596.11	93.8895
1597.66	94.7553
1599.2	95.2605
1600.74	95.1281
1602.28	95.9102
1603.82	97.3945
1605.36	97.0976
1606.9	98.2709
1608.44	97.4706
1609.98	97.7266
1611.52	98.4521
1613.06	99.2882
1614.6	100.192
1616.13	100.105
1617.67	99.6881
1619.21	98.4062
1620.75	97.6244
1622.28	97.2979
1623.82	96.957
1625.36	96.893
1626.89	96.1341
1628.43	96.4354
1629.96	94.9158
1631.5	94.0898
1633.04	93.7458
1634.57	93.814
1636.11	94.1661
1637.64	95.1997
1639.17	94.7071
1640.71	94.9172
1642.24	94.1993
1643.77	93.0892
1645.31	94.8046
1646.84	95.047
1648.37	93.9821
1649.9	93.901
1651.43	93.0548
1652.96	92.6274
1654.5	91.6713
1656.03	91.1609
1657.56	89.012
1659.09	88.0416
1660.62	86.9421
1662.15	83.7191
1663.67	80.9574
1665.2	78.0696
1666.73	75.3008
1668.26	72.5307
1669.79	71.1619
1671.32	70.0011
1672.84	68.1895
1674.37	65.7206
1675.9	63.5694
1677.43	62.1386
1678.95	60.5578
1680.48	58.9454
1682	56.0408
1683.53	53.8783
1685.05	51.0472
1686.58	48.3109
1688.1	47.2595
1689.63	45.5192
1691.15	43.0632
1692.68	40.7164
1694.2	39.3728
1695.72	37.4605
1697.25	37.2406
1698.77	35.0169
1700.29	34.0714
1701.81	32.4677
1703.33	30.9173
1704.86	30.042
1706.38	28.4324
1707.9	27.8822
1709.42	27.7776
1710.94	27.3581
1712.46	27.1498
1713.98	27.3816
1715.5	26.47
1717.02	25.981
1718.54	25.3825
1720.06	24.9279
1721.57	25.6633
1723.09	24.676
1724.61	24.0445
1726.13	25.1427
1727.64	24.0806
1729.16	23.7095
1730.68	22.6523
1732.19	22.0939
1733.71	21.955
1735.23	21.63
1736.74	20.6275
1738.26	19.5999
1739.77	19.4132
1741.29	19.064
1742.8	18.9028
1744.31	18.8895
1745.83	19.2793
1747.34	18.2929
1748.85	17.6326
1750.37	16.1627
1751.88	15.9908
1753.39	14.9333
1754.91	13.8426
1756.42	12.1812
1757.93	10.4085
1759.44	9.51774
1760.95	8.38804
1762.46	7.98388
1763.97	7.6369
1765.48	6.32215
1766.99	5.96772
1768.5	5.61262
1770.01	5.72843
1771.52	4.88645
1773.03	4.67557
1774.54	4.07086
1776.04	4.47507
1777.55	3.81097
1779.06	3.07871
1780.57	2.99699
1782.07	2.89764
1783.58	3.14873
1785.09	3.82767
1786.59	3.84201
1788.1	3.73103
1789.6	3.70915
1791.11	3.63511
1792.61	3.32829
1794.12	3.4675
1795.62	3.32183
1797.13	3.42907
1798.63	4.03334
1800.13	4.24522
1801.64	4.19101
1803.14	4.08598
1804.64	3.79657
1806.15	3.37834
1807.65	3.3393
1809.15	3.52789
1810.65	2.99193
1812.15	2.43202
1813.65	2.31353
1815.16	1.80766
1816.66	1.5507
1818.15	1.63149
1819.66	0.934292
1821.16	1.11415
1822.65	1.03101
1824.15	0.688184
1825.65	1.0095
1827.15	1.05318
1828.65	0.575053
1830.15	0.795794
1831.64	0.217852
1833.14	0.482966
1834.64	0.584882
1836.14	-0.277674
1837.63	0.260185
1839.13	1.02021
1840.62	1.48525
1842.12	1.74069
1843.62	1.30432
1845.11	1.20601
1846.61	1.01391
1848.1	1.28441
1849.6	1.71659
1851.09	2.23288
1852.58	2.33586
1854.08	2.32349
1855.57	3.05
1857.06	4.18724
1858.55	4.51274
1860.05	5.02874
1861.54	4.59753
1863.03	3.99416
1864.52	3.76167
1866.01	3.38389
1867.5	3.82437
1869	4.34758
1870.49	4.44207
1871.98	4.87649
1873.47	5.29872
1874.96	5.31572
1876.44	5.02269
1877.93	5.0538
1879.42	3.86461
1880.91	3.92151
1882.4	4.62571
1882.47	5.53885
1883.96	5.32488
1885.46	5.53919
1886.95	6.69449
1888.44	6.24087
1889.94	5.89629
1891.43	6.0059
1892.93	6.36333
1894.42	7.53307
1895.91	7.6497
1897.4	8.06106
1898.89	8.25167
1900.39	8.13117
1901.88	8.34313
1903.37	7.86035
1904.86	7.66664
1906.35	7.56062
1907.84	7.5785
1909.33	6.80149
1910.82	7.15807
1912.31	7.11213
1913.8	5.49418
1915.29	5.56832
1916.77	4.73421
1918.26	4.68883
1919.75	4.41796
1921.24	4.74416
1922.73	4.18651
1924.21	4.74129
1925.7	3.93666
1927.19	3.45237
1928.67	3.20696
1930.16	3.59824
1931.64	2.86529
1933.13	2.75392
1934.61	2.38024
1936.1	2.27672
1937.58	3.25564
1939.07	4.16563
1940.55	4.00143
1942.04	3.79223
1943.52	4.44361
1945	5.62127
1946.49	6.00901
1947.97	6.64284
1949.45	6.58245
1950.93	7.22477
1952.42	8.40052
1953.9	9.8775
1955.38	10.6225
1956.86	10.512
1958.34	9.50466
1959.82	10.1983
1961.3	9.77751
1962.78	9.04473
1964.26	9.51655
1965.74	11.083
1967.22	11.3877
1968.7	11.2455
1970.18	11.2543
1971.65	11.3207
1973.13	10.4247
1974.61	10.3813
1976.09	10.3119
1977.57	10.1821
1979.04	10.4532
1980.52	9.63247
1982	9.74835
1983.47	9.22717
1984.95	9.21201
1986.42	8.76683
1987.9	8.17609
1989.37	7.66245
1990.85	6.40931
1992.32	6.03024
1993.8	6.00522
1995.27	5.40563
1996.75	4.5548
1998.22	4.8184
1999.69	3.70993
2001.17	3.87657
2002.64	3.96238
2004.11	3.7966
2005.58	3.17517
2007.05	3.19275
2008.53	3.16068
2010	3.44769
2011.47	3.75596
2012.94	3.63544
2014.41	4.06446
2015.88	5.19139
2017.35	6.79092
2018.82	7.34151
2020.29	7.83059
2021.76	7.91961
2023.23	8.0186
2024.7	8.88121
2026.16	9.38051
2027.63	9.26304
2029.1	9.29154
2030.57	9.78514
2032.03	10.5248
2033.5	11.3606
2034.97	10.9276
2036.44	10.917
2037.9	11.2572
2039.37	11.7124
2040.83	11.7871
2042.3	11.9411
2043.76	12.5072
2045.23	11.9671
2046.69	12.1336
2048.16	13.0356
2049.62	13.7339
2051.08	13.9847
2052.55	14.3255
2054.01	14.7734
2055.47	15.1904
2056.94	14.5656
2058.4	14.5177
2059.86	13.6517
2061.32	13.6382
2062.79	13.3839
2064.25	14.0992
2065.71	14.3585
2067.17	15.0832
2068.63	15.3575
2070.09	15.2506
2071.55	15.2515
2073.01	14.2563
2074.47	14.3203
2075.93	13.7257
2077.39	13.5414
2078.85	13.6599
2080.31	14.2493
2081.76	15.0999
2083.22	16.9542
2084.68	17.8614
2086.13	19.3886
2087.59	20.0576
2089.05	20.0178
2090.51	21.0968
2091.96	21.2803
2093.42	22.363
2094.87	22.9005
2096.33	24.1169
2097.78	25.1145
2099.24	25.8317
2100.69	25.853
2102.15	26.6248
2103.6	27.942
2105.06	28.2048
2106.51	28.4038
2107.96	28.9181
2109.42	29.7087
2110.87	31.0611
2112.32	32.5922
2113.77	33.4236
2115.23	34.0471
2116.68	34.7519
2118.13	35.3757
2119.58	37.4229
2121.03	39.0083
2122.48	40.2871
2123.93	41.8044
2125.38	42.7668
2126.83	44.5126
2128.28	45.1405
2129.73	46.7256
2131.18	48.3818
2132.63	48.8789
2134.08	50.7591
2135.53	52.5842
2136.97	53.4752
2138.42	54.278
