#Acq. time (s)=	45
#Accumulations=	2
#Range (cm-¹)=	200...3150
#Windows=	2
#Auto scanning=	Off
#Autofocus=	Off
#Macrospot=	Off
#AutoExposure=	Off
#Spike filter=	Multiple accum.
#Delay time (s)=	0
#Binning=	1
#Readout mode=	Signal
#DeNoise=	Off
#ICS correction=	On
#Dark correction=	Off
#Inst. Process=	Off
#Detector Gain=	Best Dynamic Range
#Detector ADC=	20 kHz       
#Detector temperature (°C)=	-70.08
#Instrument=	LabRAM HR Evol
#Detector=	Synapse
#Objective=	x100
#Grating=	600 gr/mm
#ND Filter=	100%
#Laser (nm)=	532 
#Hole=	100.021
#Range=	Auto
#Laser Pol.=	No
#Raman. Pol.=	No
#Laser Pol. (°)=	-0.0007625
#Raman Pol. (°)=	89.9995
#Collection=	Microscope
#StageXY=	Marzhauser
#StageZ=	Marzhauser
#X (µm)=	-2541.1
#Y (µm)=	-66.8
#Z (µm)=	-10.8
#Full time(mm:ss)=	3:19
#Project=	
#Sample=	
#Site=	
#Title=	Mb_40_24_11_2x_45s_532 nm_x100_100%_600 gr_mm
#Remark=	
#Date=	14.07.2022 11:30
#Acquired=	14.07.2022 11:30:25
#Base:Fit=	10.08.2022 10:47:00
#Base:Sub=	10.08.2022 10:47:12
#Filter:Polynom=	16.08.2022 10:11:48
#AxisType[0]=Intens
#AxisUnit[0]=Cnt
#AxisType[1]=Spectr
#AxisUnit[1]=1/cm
200.554	92.6067
202.369	85.3833
204.183	78.634
205.999	71.5702
207.813	64.9274
209.626	58.9652
211.439	54.0207
213.253	49.0195
215.065	43.8051
216.877	39.8746
218.688	36.7886
220.5	33.5495
222.312	30.3114
224.123	27.5418
225.933	26.5888
227.742	24.4751
229.552	22.2985
231.361	19.2514
233.171	18.0746
234.98	17.6083
236.787	15.7688
238.595	15.296
240.402	13.5507
242.209	12.7057
244.015	12.5341
245.822	12.6306
247.627	11.7462
249.435	11.7911
251.24	12.9777
253.045	13.2138
254.849	13.3851
256.653	15.2857
258.457	15.214
260.26	15.4691
262.063	17.2346
263.866	17.9632
265.668	18.9488
267.47	19.218
269.271	17.9583
271.073	18.3218
272.873	17.5907
274.674	18.9264
276.474	18.2977
278.274	17.0297
280.073	17.8143
281.872	17.052
283.671	14.8885
285.47	12.7168
287.268	11.0091
289.065	9.35907
290.863	8.78895
292.66	9.55923
294.456	8.6508
296.253	9.31378
298.049	10.4176
299.844	10.9211
301.637	11.4181
303.432	12.055
305.227	12.4926
307.021	14.5882
308.815	16.2284
310.609	16.9345
312.402	18.9479
314.195	20.2462
315.987	22.2979
317.777	22.0933
319.569	23.3826
321.36	25.392
323.151	27.7041
324.942	28.7025
326.733	28.9204
328.521	30.9435
330.31	31.2139
332.1	33.293
333.889	34.3063
335.677	35.8179
337.464	36.1329
339.252	37.4802
341.039	38.5148
342.826	38.535
344.611	39.194
346.398	38.9732
348.184	37.7369
349.97	37.1114
351.754	36.3673
353.539	34.7532
355.324	33.2265
357.106	31.9272
358.89	30.5365
360.674	30.6591
362.455	28.6232
364.239	26.5627
366.021	24.0565
367.804	21.6165
369.584	19.5591
371.366	15.4549
373.145	12.6787
374.926	10.7089
376.707	9.82402
378.485	8.90534
380.265	8.20656
382.045	7.52689
383.822	6.73493
385.601	6.70185
387.378	6.99327
389.156	6.64842
390.934	6.90596
392.71	7.09596
394.487	5.79566
396.262	6.50262
398.038	5.70261
399.813	5.05106
401.588	5.18029
403.362	4.74686
405.137	4.98701
406.912	5.55127
408.685	5.87697
410.459	4.93713
412.23	4.29831
414.004	3.52528
415.775	4.12168
417.548	3.95315
419.318	3.5335
421.089	4.3897
422.86	3.73575
424.63	4.16105
426.401	4.4225
428.17	5.19381
429.94	5.21204
431.708	4.88086
433.478	3.95115
435.245	1.56147
437.012	1.53486
438.781	1.59374
440.547	2.51156
442.315	2.99244
444.081	3.80949
445.846	4.12386
447.613	3.90821
449.378	4.06876
451.142	1.94841
452.908	1.68611
454.672	2.58517
456.435	2.12956
458.2	1.77697
459.963	2.29871
461.725	3.85293
463.489	4.62133
465.251	5.63642
467.012	6.04226
468.775	7.0757
470.536	8.25169
472.296	8.88958
474.056	9.86169
475.817	11.1776
477.576	12.1201
479.335	13.4385
481.094	13.8867
482.854	14.2979
484.612	17.0423
486.37	18.5843
488.127	20.5945
489.886	21.5835
491.642	23.62
493.398	25.1542
495.154	26.1903
496.91	26.2226
498.667	27.7334
500.422	30.1138
502.176	31.4962
503.93	34.3576
505.684	35.9008
507.438	38.231
509.191	39.5527
510.946	39.2912
512.698	41.1093
514.45	43.4567
516.202	44.1996
517.954	44.5436
519.705	44.9202
521.456	45.015
523.206	45.0438
524.956	48.3006
526.706	49.8051
528.456	49.676
530.207	48.6272
531.956	47.2817
533.704	47.2667
535.452	45.7059
537.2	44.5235
538.947	43.431
540.694	42.8823
542.441	42.1791
544.188	39.9097
545.934	39.6783
547.68	39.054
549.425	36.7955
551.17	35.4264
552.915	33.9211
554.659	32.7853
556.403	32.4187
558.145	30.7361
559.889	29.6034
561.632	28.7474
563.375	26.4385
565.117	25.4585
566.859	23.8667
568.601	21.9821
570.342	20.7973
572.083	20.371
573.824	18.1094
575.565	16.8087
577.303	15.7715
579.043	14.9068
580.782	13.5725
582.521	12.8059
584.26	12.2059
585.998	11.6295
587.734	10.8534
589.472	9.80426
591.21	9.18068
592.947	8.27924
594.684	7.54278
596.418	6.92278
598.154	7.24809
599.89	8.82053
601.626	8.60544
603.361	7.56203
605.094	6.49023
606.828	6.04921
608.562	6.30113
610.296	6.35481
612.027	7.58775
613.761	6.31671
615.493	4.91997
617.224	4.04612
618.956	4.58613
620.688	5.59326
622.419	4.94348
624.149	4.02755
625.879	4.13498
627.61	4.30256
629.338	4.10075
631.068	4.16428
632.797	5.4355
634.525	4.86813
636.254	3.99946
637.98	4.96748
639.708	4.17904
641.436	3.89295
643.162	4.47705
644.889	3.67037
646.614	3.49807
648.34	3.47088
650.067	4.37036
651.791	5.25779
653.516	4.85477
655.239	4.76311
656.964	4.27021
658.687	4.45533
660.411	3.19536
662.133	2.85324
663.857	2.07175
665.58	1.5892
667.301	1.02086
669.024	1.74699
670.744	1.09851
672.464	1.68671
674.186	2.54974
675.905	3.61393
677.626	4.14415
679.345	5.15591
681.065	5.73336
682.783	6.72975
684.503	7.28592
686.22	7.15001
687.939	7.66626
689.656	9.40577
691.372	10.1564
693.09	9.67678
694.806	8.92229
696.523	7.00578
698.239	5.2864
699.953	4.30055
701.67	4.78883
703.384	6.99124
705.098	11.1103
706.813	13.8953
708.526	16.5454
710.239	19.142
711.954	23.8112
713.666	25.7707
715.378	28.3768
717.091	30.8049
718.802	33.4814
720.513	34.8482
722.226	36.449
723.936	37.8781
725.646	38.2081
727.355	40.5952
729.067	42.3171
730.776	44.2384
732.484	46.4784
734.192	48.3382
735.902	49.0508
737.61	48.2658
739.317	47.7194
741.024	48.1566
742.731	47.544
744.439	48.2317
746.145	48.1079
747.851	49.3668
749.556	50.4401
751.262	50.7133
752.966	50.8917
754.673	53.1321
756.377	53.4844
758.081	55.1971
759.784	56.1424
761.487	56.3239
763.19	55.0804
764.892	54.9978
766.594	55.2075
768.296	55.2107
770	54.8166
771.701	54.366
773.402	53.9115
775.102	51.9146
776.803	48.7656
778.503	46.3627
780.202	45.7186
781.901	46.1858
783.6	48.9051
785.299	51.8398
786.997	54.1152
788.695	55.6079
790.393	57.7495
792.09	58.0644
793.787	59.2172
795.484	60.6293
797.18	60.7412
798.877	61.6594
800.572	63.3407
802.268	63.1224
803.963	63.0187
805.658	61.9465
807.35	60.9266
809.044	59.8011
810.738	58.0129
812.432	58.3308
814.125	57.3944
815.818	57.4113
817.51	57.4176
819.202	56.7189
820.894	55.5026
822.584	55.0068
824.275	56.0349
825.966	57.3227
827.657	58.4399
829.347	59.9397
831.037	61.0161
832.725	62.7083
834.414	63.8305
836.103	65.8932
837.792	67.347
839.481	69.004
841.167	70.3597
842.854	71.1164
844.542	71.6236
846.229	72.073
847.914	71.4983
849.6	72.6213
851.287	73.3249
852.973	72.9925
854.656	71.8586
856.341	70.7581
858.026	69.9173
859.711	68.8617
861.393	67.6008
863.077	66.6436
864.761	67.0246
866.442	66.3314
868.125	65.3964
869.808	62.8477
871.489	62.035
873.171	61.5675
874.85	61.3265
876.532	59.6549
878.213	58.7335
879.892	57.9858
881.572	56.0878
883.251	54.6259
884.931	50.5945
886.61	48.0236
888.287	45.8713
889.966	43.2944
891.643	41.3342
893.321	39.2423
894.997	37.5922
896.675	37.779
898.352	37.218
900.028	37.5108
901.704	37.6081
903.379	36.9668
905.055	37.0148
906.729	38.465
908.404	39.5143
910.077	40.7182
911.75	41.6408
913.425	41.9261
915.097	42.7106
916.771	43.3756
918.443	43.5652
920.116	45.0474
921.787	44.7355
923.46	45.9375
925.13	47.1348
926.8	48.0349
928.472	47.9391
930.141	46.9781
931.813	46.4869
933.481	46.5769
935.15	45.7423
936.82	44.3068
938.488	43.1961
940.156	43.1717
941.825	43.5782
943.492	42.7618
945.158	42.4707
946.827	42.4773
948.493	43.4188
950.158	42.3478
951.824	42.631
953.491	42.205
955.156	41.9096
956.82	39.9739
958.486	38.2427
960.15	36.9208
961.814	36.1754
963.477	37.0943
965.142	37.6706
966.804	38.8009
968.467	40.2105
970.129	42.6614
971.79	44.5171
973.454	46.1384
975.115	48.3179
976.776	49.7168
978.436	50.8154
980.096	51.9089
981.756	52.061
983.417	52.9318
985.077	53.6997
986.736	53.4932
988.394	55.8064
990.052	55.9483
991.71	56.2161
993.368	56.0009
995.025	54.8608
996.682	54.0911
998.341	53.7099
999.998	53.9722
1001.65	52.6505
1003.31	52.1345
1004.97	51.785
1006.62	51.5401
1008.28	52.4342
1009.93	53.1457
1011.58	52.648
1013.24	54.1585
1014.89	56.0426
1016.54	57.5576
1018.2	59.3792
1019.85	61.5341
1021.5	64.8069
1023.16	67.0625
1024.81	69.2268
1026.46	70.2435
1028.11	72.4788
1029.76	74.0848
1031.41	75.9828
1033.06	78.0601
1034.71	79.4579
1036.36	80.065
1038.01	80.5334
1039.66	80.7955
1041.31	82.4474
1042.95	84.2078
1044.6	86.2352
1046.25	88.6512
1047.9	89.5173
1049.54	89.4244
1051.19	89.2417
1052.84	88.5829
1054.48	87.3722
1056.13	86.0659
1057.77	84.1939
1059.42	81.2552
1061.06	78.7667
1062.71	76.3899
1064.35	74.6314
1066	73.2329
1067.64	70.2871
1069.28	68.4629
1070.93	67.1431
1072.57	62.1097
1074.21	59.3549
1075.85	56.4701
1077.49	54.3462
1079.13	51.6386
1080.78	48.7372
1082.42	46.9244
1084.06	44.4557
1085.7	43.9595
1087.34	44.4635
1088.97	44.8533
1090.61	45.5429
1092.25	46.2873
1093.89	46.0852
1095.53	47.1529
1097.17	47.9204
1098.8	48.564
1100.44	48.8887
1102.08	48.7612
1103.71	48.1389
1105.35	47.3204
1106.99	47.7448
1108.62	46.981
1110.26	46.6213
1111.89	46.4173
1113.52	46.0347
1115.16	45.831
1116.79	45.185
1118.43	44.7881
1120.06	42.8899
1121.69	41.9343
1123.32	41.1774
1124.96	39.02
1126.59	36.4139
1128.22	36.0596
1129.85	34.873
1131.48	33.1947
1133.11	32.6846
1134.75	32.2644
1136.37	31.4935
1138	31.9969
1139.63	31.4298
1141.26	31.1525
1142.89	30.826
1144.52	29.7148
1146.15	29.3704
1147.78	28.163
1149.4	27.4595
1151.03	26.4564
1152.66	23.985
1154.28	21.1299
1155.91	19.6896
1157.54	18.632
1159.16	17.5929
1160.79	16.4303
1162.41	15.4596
1164.04	15.1266
1165.66	13.8206
1167.29	13.7197
1168.91	13.6619
1170.53	13.5569
1172.16	12.2894
1173.78	11.4939
1175.4	10.6333
1177.02	10.5266
1178.65	10.5068
1180.27	9.56149
1181.89	8.66861
1183.51	7.77344
1185.13	8.36768
1186.75	8.61128
1188.37	9.48218
1189.99	9.18359
1191.61	10.5003
1193.23	12.0571
1194.85	13.1916
1196.47	13.7036
1198.08	15.0126
1199.7	14.8556
1201.32	14.7262
1202.94	16.1303
1204.55	16.5537
1206.17	17.9417
1207.79	22.0216
1209.4	26.2996
1211.02	30.2568
1212.63	35.0414
1214.25	40.3766
1215.86	43.9995
1217.48	48.1861
1219.09	51.7731
1220.71	55.5047
1222.32	60.4083
1223.93	64.0771
1225.54	67.9585
1227.16	72.8887
1228.77	76.0238
1230.38	79.2505
1231.99	82.2679
1233.6	84.7597
1235.22	87.2557
1236.83	90.4573
1238.44	93.6915
1240.05	97.264
1241.66	99.5883
1243.26	101.133
1244.87	103.39
1246.48	105.142
1248.09	108.245
1249.7	110.443
1251.31	112.362
1252.92	114.129
1254.52	116.597
1256.13	119.095
1257.74	120.118
1259.34	120.442
1260.95	121.417
1262.55	123.3
1264.16	126.047
1265.76	128.98
1267.37	130.229
1268.97	131.652
1270.58	132.106
1272.18	133.584
1273.78	135.793
1275.39	137.332
1276.99	138.214
1278.59	140.505
1280.2	142.503
1281.8	145.021
1283.4	147.485
1285	150.123
1286.6	154.149
1288.2	158.831
1289.8	161.394
1291.4	163.561
1293	165.522
1294.6	166.061
1296.2	166.779
1297.8	168.659
1299.4	169.735
1301	171.195
1302.6	171.928
1304.19	170.129
1305.79	169.926
1307.39	169.132
1308.99	167.782
1310.58	167.13
1312.18	166.256
1313.77	164.114
1315.37	163.13
1316.96	162.633
1318.56	161.192
1320.15	160.495
1321.75	158.395
1323.34	154.971
1324.94	152.948
1326.53	150.898
1328.12	149.348
1329.72	146.546
1331.31	145.472
1332.9	143.75
1334.49	141.426
1336.08	138.75
1337.67	136.85
1339.27	135.357
1340.86	135.282
1342.45	133.763
1344.04	133.39
1345.63	132.296
1347.22	131.759
1348.8	131.91
1350.39	132.344
1351.98	132.649
1353.57	131.868
1355.16	130.702
1356.75	129.607
1358.33	130.261
1359.92	129.544
1361.51	129.475
1363.09	129.036
1364.68	128.971
1366.27	129.383
1367.85	128.733
1369.44	127.166
1371.02	126.032
1372.61	124.911
1374.19	123.661
1375.77	123.305
1377.36	124.172
1378.94	124.307
1380.52	123.203
1382.11	123.527
1383.69	123.922
1385.27	124.41
1386.85	125.322
1388.43	126.309
1390.02	126.706
1391.6	125.92
1393.18	126.325
1394.76	126.966
1396.34	127.465
1397.92	128.832
1399.5	131.163
1401.08	132.228
1402.65	133.248
1404.23	137.383
1405.81	139.894
1407.39	142.891
1408.97	147.075
1410.54	151.45
1412.12	155.065
1413.7	159.836
1415.27	165.672
1416.85	172.618
1418.43	179.225
1420	185.504
1421.58	193.256
1423.15	201.882
1424.73	208.891
1426.3	217.328
1427.87	223.471
1429.45	230.215
1431.02	236.52
1432.6	242.954
1434.17	249.778
1435.74	254.347
1437.31	259.093
1438.89	261.111
1440.46	264.3
1442.03	266.929
1443.6	268.344
1445.17	269.638
1446.74	269.276
1448.31	269.107
1449.88	266.804
1451.45	265.042
1453.02	263.264
1454.59	260.392
1456.16	256.72
1457.72	252.016
1459.29	245.79
1460.86	239.903
1462.43	234.301
1463.99	226.188
1465.56	219.325
1467.13	210.795
1468.69	202.3
1470.26	193.227
1471.83	185.691
1473.39	177.403
1474.95	169.203
1476.52	161.218
1478.08	151.81
1479.65	142.197
1481.21	133.08
1482.78	125.166
1484.34	115.688
1485.9	109.7
1487.47	103.048
1489.03	96.6766
1490.59	91.4255
1492.15	86.7505
1493.71	83.2841
1495.27	78.9813
1496.84	75.8269
1498.39	72.4295
1499.96	70.0615
1501.52	66.4072
1503.07	63.4809
1504.64	61.3481
1506.19	57.5479
1507.75	56.0196
1509.31	52.6265
1510.87	50.0624
1512.43	46.6479
1513.98	43.6493
1515.54	43.0602
1517.1	41.0007
1518.65	42.0718
1520.21	42.3586
1521.77	40.4091
1523.32	41.3646
1524.88	41.0185
1526.44	42.0866
1527.99	42.0763
1529.54	43.5136
1531.1	43.706
1532.65	45.3144
1534.21	46.3666
1535.76	48.3459
1537.31	50.1918
1538.87	52.4373
1540.42	53.7033
1541.97	56.1947
1543.52	59.3333
1545.07	62.0234
1546.63	64.9107
1548.18	66.9782
1549.73	69.9588
1551.28	72.9096
1552.83	75.2173
1554.38	77.0585
1555.93	79.1579
1557.48	81.7181
1559.03	85.437
1560.57	89.1335
1562.12	91.9412
1563.67	95.2618
1565.22	97.8494
1566.77	101.736
1568.31	105.056
1569.86	108.432
1571.41	110.894
1572.95	113.185
1574.5	117.175
1576.05	119.036
1577.59	121.058
1579.14	123.603
1580.68	127.185
1582.23	130.19
1583.77	133.16
1585.31	136.862
1586.86	138.861
1588.4	141.992
1589.95	144.321
1591.49	147.839
1593.03	149.971
1594.57	151.307
1596.11	154.887
1597.66	156.072
1599.2	157
1600.74	159.406
1602.28	159.602
1603.82	160.789
1605.36	160.929
1606.9	162.058
1608.44	162.556
1609.98	164.001
1611.52	163.774
1613.06	164.35
1614.6	165.101
1616.13	164.815
1617.67	165.831
1619.21	167.982
1620.75	167.37
1622.28	167.099
1623.82	166.774
1625.36	166.816
1626.89	167.593
1628.43	168.28
1629.96	167.565
1631.5	167.82
1633.04	168.365
1634.57	168.131
1636.11	168.434
1637.64	167.446
1639.17	166.495
1640.71	165.815
1642.24	166.397
1643.77	166.876
1645.31	166.331
1646.84	166.101
1648.37	165.626
1649.9	166.636
1651.43	166.726
1652.96	165.023
1654.5	164.788
1656.03	163.955
1657.56	162.931
1659.09	161.52
1660.62	159.519
1662.15	157.4
1663.67	153.829
1665.2	150.623
1666.73	147.237
1668.26	143.027
1669.79	139.248
1671.32	135.467
1672.84	131.778
1674.37	126.954
1675.9	122.063
1677.43	117.591
1678.95	112.669
1680.48	108.232
1682	103.339
1683.53	98.8153
1685.05	94.1524
1686.58	90.422
1688.1	86.6899
1689.63	82.6648
1691.15	78.6195
1692.68	73.7835
1694.2	71.152
1695.72	67.2941
1697.25	63.3195
1698.77	60.1162
1700.29	58.0964
1701.81	55.6887
1703.33	54.3211
1704.86	51.1985
1706.38	48.8113
1707.9	47.0899
1709.42	45.2164
1710.94	44.0257
1712.46	43.4392
1713.98	42.4268
1715.5	41.8618
1717.02	41.4702
1718.54	41.7526
1720.06	41.4937
1721.57	39.9053
1723.09	38.7041
1724.61	37.8459
1726.13	37.3368
1727.64	35.7696
1729.16	34.6813
1730.68	34.5707
1732.19	33.5319
1733.71	32.0632
1735.23	31.5681
1736.74	30.2711
1738.26	29.1296
1739.77	27.5362
1741.29	26.7909
1742.8	26.1262
1744.31	25.2574
1745.83	24.3347
1747.34	22.4442
1748.85	21.8437
1750.37	20.409
1751.88	18.7158
1753.39	17.1964
1754.91	15.7974
1756.42	14.8315
1757.93	14.2052
1759.44	13.5497
1760.95	12.7698
1762.46	11.568
1763.97	10.4662
1765.48	8.9599
1766.99	8.02869
1768.5	7.85398
1770.01	7.77923
1771.52	6.57007
1773.03	5.86231
1774.54	6.45087
1776.04	7.2337
1777.55	6.81933
1779.06	7.25952
1780.57	6.15729
1782.07	6.83874
1783.58	7.11013
1785.09	7.57425
1786.59	7.53354
1788.1	7.13205
1789.6	6.74253
1791.11	6.69182
1792.61	5.9087
1794.12	5.59084
1795.62	4.49889
1797.13	3.9714
1798.63	3.74029
1800.13	4.33672
1801.64	3.8584
1803.14	3.88388
1804.64	3.93673
1806.15	3.94569
1807.65	3.64857
1809.15	3.17756
1810.65	3.92701
1812.15	4.07081
1813.65	3.8602
1815.16	3.12297
1816.66	2.8469
1818.15	2.36547
1819.66	1.95935
1821.16	1.36496
1822.65	1.72035
1824.15	1.82456
1825.65	0.892361
1827.15	0.611563
1828.65	0.819122
1830.15	0.831171
1831.64	1.36444
1833.14	1.52612
1834.64	1.68456
1836.14	0.939549
1837.63	2.02268
1839.13	2.84139
1840.62	3.21667
1842.12	3.63974
1843.62	3.75073
1845.11	4.611
1846.61	5.88296
1848.1	5.11912
1849.6	5.98421
1851.09	5.57915
1852.58	4.92726
1854.08	3.93809
1855.57	4.24452
1857.06	4.01436
1858.55	4.30277
1860.05	3.63511
1861.54	3.43885
1863.03	3.37206
1864.52	3.07005
1866.01	3.04075
1867.5	2.83479
1869	2.69901
1870.49	2.71797
1871.98	2.96471
1873.47	2.69328
1874.96	2.155
1876.44	1.40825
1877.93	1.7515
1879.42	2.41581
1880.91	3.06272
1882.4	3.08605
1882.47	3.45815
1883.96	3.24922
1885.46	2.49486
1886.95	1.71223
1888.44	0.821119
1889.94	1.45703
1891.43	2.1166
1892.93	2.17842
1894.42	2.47595
1895.91	2.49304
1897.4	3.26591
1898.89	3.18249
1900.39	4.24541
1901.88	4.41065
1903.37	4.60164
1904.86	5.01598
1906.35	4.14555
1907.84	4.75446
1909.33	4.89998
1910.82	6.20329
1912.31	6.31235
1913.8	6.83887
1915.29	7.32677
1916.77	7.29233
1918.26	8.20008
1919.75	7.51173
1921.24	6.62507
1922.73	6.83222
1924.21	6.97141
1925.7	7.09934
1927.19	6.71013
1928.67	7.5407
1930.16	7.53482
1931.64	7.44675
1933.13	7.70904
1934.61	8.0672
1936.1	7.95442
1937.58	8.03811
1939.07	8.17923
1940.55	7.96651
1942.04	7.53756
1943.52	8.01387
1945	7.46415
1946.49	7.45303
1947.97	7.13204
1949.45	7.69695
1950.93	8.09444
1952.42	8.11606
1953.9	7.10287
1955.38	6.06912
1956.86	6.21886
1958.34	5.45011
1959.82	4.52926
1961.3	4.78132
1962.78	4.58626
1964.26	6.10118
1965.74	5.8583
1967.22	5.43287
1968.7	5.78799
1970.18	5.73141
1971.65	5.03065
1973.13	4.05626
1974.61	3.61209
1976.09	2.53205
1977.57	2.75712
1979.04	2.96294
1980.52	2.23014
1982	2.74088
1983.47	1.97088
1984.95	2.66616
1986.42	3.11849
1987.9	2.28747
1989.37	2.66663
1990.85	2.20543
1992.32	1.9817
1993.8	1.36549
1995.27	1.65595
1996.75	2.09282
1998.22	2.72291
1999.69	1.2146
2001.17	1.54164
2002.64	2.29394
2004.11	2.77204
2005.58	2.56444
2007.05	3.41953
2008.53	2.6401
2010	2.92919
2011.47	3.52647
2012.94	3.45983
2014.41	3.96951
2015.88	4.09438
2017.35	4.33168
2018.82	4.29202
2020.29	4.1417
2021.76	5.0556
2023.23	5.11432
2024.7	6.35974
2026.16	7.59552
2027.63	7.62039
2029.1	8.31335
2030.57	9.12378
2032.03	8.97027
2033.5	9.21536
2034.97	10.5106
2036.44	11.5262
2037.9	12.4718
2039.37	12.7758
2040.83	13.6027
2042.3	14.0921
2043.76	14.2358
2045.23	14.6279
2046.69	15.4681
2048.16	16.4151
2049.62	17.7033
2051.08	18.9726
2052.55	19.5705
2054.01	19.4371
2055.47	20.547
2056.94	21.1312
2058.4	22.502
2059.86	23.1025
2061.32	23.1757
2062.79	24.4818
2064.25	24.5063
2065.71	25.4687
2067.17	25.643
2068.63	26.3316
2070.09	27.3823
2071.55	28.0842
2073.01	29.0794
2074.47	30.454
2075.93	31.0984
2077.39	31.5996
2078.85	32.4383
2080.31	33.0358
2081.76	33.9424
2083.22	35.0575
2084.68	35
2086.13	34.9878
2087.59	36.2584
2089.05	36.9419
2090.51	38.1143
2091.96	38.9404
2093.42	39.0724
2094.87	41.5578
2096.33	42.7353
2097.78	43.8691
2099.24	44.9677
2100.69	45.9863
2102.15	48.6396
2103.6	51.1
2105.06	52.2983
2106.51	54.1444
2107.96	56.6996
2109.42	58.5639
2110.87	58.9216
2112.32	60.1047
2113.77	62.0896
2115.23	63.8656
2116.68	66.4077
2118.13	68.3109
2119.58	70.5716
2121.03	72.783
2122.48	75.7103
2123.93	77.6924
2125.38	80.6587
2126.83	83.9377
2128.28	87.0493
2129.73	89.4428
2131.18	92.4927
2132.63	95.5131
2134.08	98.4127
2135.53	101.196
2136.97	104.447
2138.42	107.267
2139.87	109.758
