#Acq. time (s)=	45
#Accumulations=	2
#Range (cm-¹)=	200...3150
#Windows=	2
#Auto scanning=	Off
#Autofocus=	Off
#Macrospot=	Off
#AutoExposure=	Off
#Spike filter=	Multiple accum.
#Delay time (s)=	0
#Binning=	1
#Readout mode=	Signal
#DeNoise=	Off
#ICS correction=	On
#Dark correction=	Off
#Inst. Process=	Off
#Detector Gain=	Best Dynamic Range
#Detector ADC=	20 kHz       
#Detector temperature (°C)=	-69.85
#Instrument=	LabRAM HR Evol
#Detector=	Synapse
#Objective=	x100
#Grating=	600 gr/mm
#ND Filter=	100%
#Laser (nm)=	532 
#Hole=	100.021
#Range=	Auto
#Laser Pol.=	No
#Raman. Pol.=	No
#Laser Pol. (°)=	-0.0007625
#Raman Pol. (°)=	89.9995
#Collection=	Microscope
#StageXY=	Marzhauser
#StageZ=	Marzhauser
#X (µm)=	-1031.8
#Y (µm)=	684.8
#Z (µm)=	584.55
#Full time(mm:ss)=	3:19
#Project=	
#Sample=	
#Site=	
#Title=	Mb_40_y_09_2x_45s_532 nm_x100_100%_600 gr_mm
#Remark=	
#Date=	19.07.2022 09:33
#Acquired=	19.07.2022 09:33:23
#Base:Fit=	10.08.2022 10:52:48
#Base:Sub=	10.08.2022 10:52:53
#Filter:Polynom=	16.08.2022 10:09:04
#AxisType[0]=Intens
#AxisUnit[0]=Cnt
#AxisType[1]=Spectr
#AxisUnit[1]=1/cm
200.423	29.613
202.238	29.2842
204.052	27.4949
205.868	24.9143
207.682	22.3709
209.495	19.7957
211.308	17.5129
213.12	16.0687
214.935	14.3088
216.746	13.366
218.558	12.3788
220.369	10.748
222.18	10.6356
223.992	8.84742
225.802	8.67284
227.612	8.05772
229.421	7.94368
231.23	7.01974
233.039	7.10745
234.849	7.44797
236.657	5.87454
238.465	5.38618
240.272	5.71414
242.079	5.32724
243.885	6.00783
245.691	6.45024
247.497	6.61823
249.305	7.00586
251.11	7.14274
252.915	7.267
254.719	6.91875
256.523	6.74301
258.327	7.07283
260.13	7.23021
261.933	7.83326
263.736	6.95542
265.538	6.85196
267.34	7.77462
269.141	8.28922
270.943	8.19314
272.744	9.67487
274.544	9.79532
276.344	10.4545
278.144	12.0225
279.944	11.6744
281.743	12.2561
283.542	12.1909
285.34	12.9583
287.138	12.3035
288.936	11.3516
290.733	11.0935
292.53	10.8485
294.327	10.8606
296.123	10.9926
297.919	10.7253
299.715	10.5208
301.508	11.2789
303.303	11.9476
305.098	11.1004
306.892	11.1132
308.686	11.3777
310.479	10.4719
312.273	10.9894
314.065	11.0319
315.858	11.9638
317.648	11.7046
319.44	11.5761
321.231	10.345
323.022	10.7758
324.813	10.1718
326.604	9.5524
328.392	10.7217
330.181	11.2872
331.971	11.2187
333.76	10.999
335.548	10.0167
337.335	8.80173
339.123	8.72718
340.91	8.20788
342.698	8.41788
344.483	7.55952
346.269	8.09783
348.055	8.50139
349.841	7.75763
351.625	7.02391
353.41	6.33785
355.195	8.47689
356.977	10.6731
358.762	10.5013
360.545	10.6826
362.329	10.8698
364.11	10.1945
365.893	10.0212
367.675	9.74795
369.455	8.64844
371.237	9.50996
373.017	9.87272
374.798	10.2746
376.578	9.5573
378.357	9.74234
380.137	10.3639
381.917	10.1425
383.694	10.1443
385.473	10.1871
387.249	10.337
389.028	11.1212
390.806	10.7289
392.581	11.1096
394.359	10.8464
396.134	11.1728
397.91	12.1778
399.684	11.9296
401.46	12.5493
403.234	12.3294
405.009	11.7714
406.784	11.2118
408.557	11.3479
410.331	11.2789
412.103	11.5985
413.876	10.9181
415.647	10.3368
417.42	9.80957
419.191	9.61355
420.961	8.65909
422.733	7.33559
424.502	7.20129
426.273	6.97042
428.042	6.89527
429.812	6.54768
431.58	6.10686
433.35	5.1589
435.118	4.68717
436.885	4.57931
438.653	2.92202
440.42	3.25162
442.188	3.48527
443.954	4.50504
445.719	3.17163
447.486	2.18621
449.251	2.03605
451.015	2.34638
452.781	2.83647
454.545	3.47948
456.308	3.951
458.073	3.96095
459.836	4.62713
461.598	4.87298
463.362	4.30754
465.124	4.55329
466.885	5.32207
468.648	6.67698
470.408	7.58562
472.169	7.67644
473.929	7.85119
475.69	8.8405
477.45	9.68826
479.208	10.0649
480.967	11.1374
482.727	12.1178
484.485	13.5227
486.243	15.0265
488	15.5858
489.759	16.0688
491.515	16.2264
493.272	16.8688
495.028	17.8783
496.783	19.507
498.54	19.7185
500.295	19.3365
502.05	19.9728
503.804	21.3302
505.558	22.3926
507.311	22.5357
509.064	22.5692
510.819	23.2577
512.572	24.5169
514.324	23.9448
516.076	24.2184
517.827	24.7971
519.578	24.8278
521.329	25.0071
523.08	25.2421
524.83	26.1885
526.58	25.112
528.329	25.4618
530.08	25.3022
531.829	25.4204
533.578	25.378
535.326	25.3486
537.074	25.4621
538.821	24.485
540.568	22.9481
542.315	21.9914
544.062	21.0863
545.808	19.9062
547.554	19.0427
549.299	19.0865
551.044	17.518
552.789	17.0464
554.533	15.0587
556.278	14.4026
558.019	12.7427
559.763	11.2082
561.506	10.1666
563.249	9.09886
564.991	8.51616
566.733	7.91412
568.475	7.08312
570.217	7.20741
571.958	6.91242
573.699	6.36726
575.439	4.64698
577.177	4.40405
578.917	4.25686
580.656	5.36271
582.396	6.5602
584.134	6.59116
585.873	6.2643
587.609	6.27104
589.347	8.56922
591.084	9.10189
592.822	8.7465
594.558	8.64837
596.295	9.7335
598.029	9.95154
599.765	10.2018
601.5	10.1385
603.235	11.6771
604.968	12.8945
606.703	13.0939
608.437	14.4204
610.171	15.4142
611.902	16.0128
613.635	15.6624
615.368	17.0234
617.099	17.5955
618.831	17.106
620.563	17.7658
622.294	18.5165
624.024	19.0898
625.755	18.9944
627.485	20.267
629.213	20.6803
630.943	20.1123
632.673	19.6363
634.4	19.7345
636.129	19.7617
637.855	19.1381
639.584	19.3289
641.312	19.678
643.037	19.9466
644.764	19.5255
646.491	19.3033
648.216	19.0252
649.942	19.3495
651.666	20.1411
653.392	19.8524
655.115	19.8135
656.84	19.9116
658.563	19.7197
660.287	19.6273
662.011	19.2764
663.732	20.8944
665.456	21.9558
667.177	22.7053
668.899	22.589
670.62	22.4804
672.342	23.5714
674.061	24.1972
675.781	25.3894
677.502	25.221
679.22	25.37
680.941	25.071
682.659	25.4395
684.379	26.325
686.096	27.7999
687.815	28.982
689.532	30.0865
691.248	30.7422
692.966	30.9366
694.682	33.2863
696.4	34.0832
698.115	34.7171
699.829	36.01
701.546	36.6307
703.26	36.2183
704.974	36.4629
706.689	38.9863
708.402	39.7009
710.115	39.0202
711.83	39.0836
713.542	39.3883
715.254	39.4193
716.967	39.8467
718.679	40.6652
720.39	42.4332
722.102	43.9262
723.812	45.2915
725.522	45.0145
727.232	45.46
728.943	45.4717
730.652	46.1381
732.361	47.5391
734.069	48.6517
735.779	48.04
737.487	48.3254
739.194	49.4978
740.901	50.9508
742.608	51.5258
744.316	52.3437
746.022	53.4714
747.728	54.2151
749.433	55.0881
751.138	56.2847
752.843	57.6392
754.549	58.4897
756.254	59.293
757.957	60.5541
759.661	61.8023
761.364	62.9396
763.067	63.3425
764.769	63.5828
766.471	64.2518
768.175	66.1572
769.877	68.396
771.578	69.516
773.279	70.8617
774.98	70.9422
776.68	71.5097
778.38	72.3893
780.079	73.3187
781.779	73.7985
783.478	74.4741
785.176	75.4009
786.875	76.4931
788.573	77.8063
790.27	78.6657
791.968	79.1404
793.665	78.8163
795.361	79.1675
797.058	80.4937
798.754	81.0102
800.45	81.9189
802.145	82.6866
803.84	83.9634
805.535	84.9382
807.23	84.5135
808.922	83.5677
810.616	83.4478
812.309	83.7037
814.002	83.6969
815.695	84.1605
817.388	83.7024
819.08	82.7995
820.772	80.9628
822.464	81.4751
824.153	81.636
825.844	80.7193
827.535	78.847
829.225	78.3418
830.915	77.5587
832.605	76.6112
834.292	76.2963
835.981	76.359
837.67	75.8185
839.359	74.6555
841.047	73.0709
842.732	72.1403
844.42	71.3848
846.107	69.6135
847.794	68.164
849.479	67.6192
851.165	67.0779
852.851	66.6453
854.534	66.0748
856.22	64.8469
857.905	64.3813
859.589	62.0875
861.272	61.3342
862.956	60.3075
864.639	59.5504
866.321	59.1748
868.004	58.0568
869.687	57.342
871.367	57.1292
873.049	55.3363
874.731	53.9493
876.41	52.8917
878.092	52.7546
879.771	52.9214
881.451	52.7135
883.131	52.4735
884.809	52.8608
886.489	52.5929
888.166	52.3659
889.845	51.3911
891.522	51.0149
893.2	51.4529
894.878	51.399
896.554	51.1813
898.231	50.9332
899.906	50.9287
901.583	49.4042
903.258	48.6348
904.934	48.042
906.608	48.8053
908.283	48.1954
909.956	47.8649
911.631	47.6261
913.304	48.0974
914.976	47.9401
916.65	47.8006
918.322	47.7994
919.995	47.5043
921.666	46.7544
923.339	46.4251
925.009	45.6207
926.679	45.7005
928.351	45.4666
930.021	45.3012
931.692	45.444
933.361	45.8728
935.029	45.5223
936.699	45.0453
938.367	44.5305
940.035	43.5222
941.704	42.8666
943.371	41.5952
945.038	41.6723
946.706	41.5456
948.372	40.8725
950.038	41.2735
951.705	41.4912
953.37	41.9606
955.035	41.9987
956.7	41.8061
958.366	42.6593
960.03	41.3277
961.693	40.7241
963.357	40.4455
965.021	40.2073
966.684	40.8644
968.346	40.8303
970.008	40.7945
971.67	40.9309
973.334	40.82
974.995	40.4512
976.655	40.0527
978.316	39.0845
979.976	39.2658
981.638	38.3283
983.297	37.8483
984.957	36.6998
986.616	35.8303
988.274	35.1432
989.932	34.0346
991.59	32.5575
993.248	32.2894
994.907	31.9094
996.565	30.7041
998.221	28.7574
999.878	27.3726
1001.53	26.2713
1003.19	24.8195
1004.85	23.7706
1006.5	24.1729
1008.16	24.7384
1009.81	25.9636
1011.46	27.5933
1013.12	31.1412
1014.77	34.5865
1016.43	38.3083
1018.08	41.8378
1019.73	46.3704
1021.38	50.3561
1023.04	54.7762
1024.69	58.5372
1026.34	62.5749
1027.99	66.6633
1029.64	69.0746
1031.29	72.1006
1032.94	74.8709
1034.59	76.2349
1036.24	78.4062
1037.89	79.0617
1039.54	80.3744
1041.19	80.424
1042.84	80.6254
1044.48	81.5495
1046.13	82.6305
1047.78	82.8171
1049.42	82.6996
1051.07	81.5342
1052.72	80.3024
1054.36	78.6021
1056.01	76.3127
1057.66	73.7064
1059.3	71.3344
1060.94	67.7998
1062.59	65.1399
1064.23	61.4179
1065.88	57.8452
1067.52	53.9715
1069.16	50.1799
1070.81	46.203
1072.45	41.3561
1074.09	37.3574
1075.73	32.864
1077.38	28.5023
1079.02	24.1549
1080.66	19.8302
1082.3	16.3097
1083.94	12.9221
1085.58	10.0113
1087.22	8.39587
1088.86	8.14662
1090.5	8.27403
1092.13	8.93865
1093.77	9.78859
1095.41	10.7542
1097.05	11.4591
1098.68	12.5267
1100.32	12.9626
1101.96	13.5426
1103.6	13.7925
1105.23	14.0678
1106.87	13.995
1108.5	14.2558
1110.14	14.4209
1111.77	14.2376
1113.41	14.3325
1115.04	14.0609
1116.67	15.5952
1118.31	16.2817
1119.94	16.4182
1121.58	17.5345
1123.21	17.5989
1124.84	17.6316
1126.47	17.2559
1128.1	18.1041
1129.73	18.721
1131.37	19.4509
1133	19.6524
1134.63	20.154
1136.26	20.3527
1137.89	20.786
1139.52	21.1368
1141.14	20.8949
1142.77	21.2876
1144.4	21.8048
1146.03	21.3745
1147.66	20.9455
1149.29	21.3072
1150.91	20.737
1152.54	19.4971
1154.17	17.7934
1155.79	16.7956
1157.42	16.3214
1159.04	15.1971
1160.67	13.7044
1162.3	12.476
1163.92	11.034
1165.55	10.2855
1167.17	9.5345
1168.79	9.0316
1170.42	8.73386
1172.04	8.57773
1173.66	8.48789
1175.28	7.32837
1176.91	6.93929
1178.53	6.72523
1180.15	6.27026
1181.77	5.8388
1183.39	5.40975
1185.01	4.99215
1186.63	4.86313
1188.25	5.11428
1189.87	5.38222
1191.49	6.2689
1193.11	6.29649
1194.73	6.1409
1196.35	7.201
1197.97	7.92397
1199.59	8.20262
1201.2	8.8654
1202.82	9.28992
1204.44	9.90623
1206.05	10.6112
1207.67	11.7284
1209.29	13.4894
1210.9	14.2981
1212.52	15.6315
1214.13	16.1585
1215.75	17.2407
1217.36	17.1555
1218.97	17.5112
1220.59	18.1597
1222.2	18.9716
1223.82	19.489
1225.43	19.9577
1227.04	20.561
1228.65	20.5153
1230.26	21.6345
1231.88	21.9103
1233.49	22.1687
1235.1	21.6312
1236.71	22.5129
1238.32	22.7448
1239.93	22.6104
1241.54	22.4804
1243.15	22.7748
1244.76	22.5294
1246.37	22.7311
1247.97	23.0278
1249.58	23.6212
1251.19	24.0321
1252.8	23.452
1254.41	22.8236
1256.01	22.9183
1257.62	23.6006
1259.23	24.0845
1260.83	24.3226
1262.44	24.1616
1264.04	24.0682
1265.65	25.3223
1267.25	26.2926
1268.86	26.717
1270.46	26.7417
1272.07	27.4617
1273.67	27.3893
1275.27	28.3772
1276.88	29.0581
1278.48	29.139
1280.08	30.7909
1281.68	30.6499
1283.28	30.69
1284.89	31.3576
1286.49	32.1655
1288.09	32.9984
1289.69	34.6194
1291.29	35.0036
1292.89	35.6849
1294.49	35.406
1296.09	36.4316
1297.69	36.1731
1299.29	37.3127
1300.88	37.8018
1302.48	38.0905
1304.08	38.0547
1305.68	38.2054
1307.27	39.2461
1308.87	39.1903
1310.47	39.8042
1312.06	39.0836
1313.66	38.3157
1315.25	37.7216
1316.85	37.5164
1318.44	37.0624
1320.04	37.5389
1321.63	36.8742
1323.23	37.5314
1324.82	37.719
1326.41	37.4897
1328.01	37.5062
1329.6	37.2761
1331.19	36.7015
1332.78	36.5212
1334.38	36.6355
1335.97	36.9353
1337.56	36.2401
1339.15	36.2565
1340.74	35.1555
1342.33	35.3092
1343.92	35.196
1345.51	34.4715
1347.1	33.4456
1348.69	33.236
1350.28	32.7365
1351.87	32.9285
1353.46	31.6892
1355.04	30.892
1356.63	29.9105
1358.22	29.427
1359.81	29.6099
1361.39	28.264
1362.98	27.461
1364.57	27.4881
1366.15	27.2266
1367.74	25.3093
1369.32	24.5184
1370.91	23.5087
1372.49	23.1495
1374.07	22.8753
1375.66	22.5134
1377.24	21.8005
1378.83	21.3558
1380.41	20.4376
1381.99	20.323
1383.57	19.682
1385.16	19.1122
1386.74	19.7726
1388.32	18.507
1389.9	18.5886
1391.48	18.9678
1393.06	18.5547
1394.64	18.4112
1396.22	18.728
1397.8	19.2376
1399.38	19.2473
1400.96	18.9977
1402.54	19.5401
1404.12	19.7504
1405.7	19.9875
1407.28	20.5178
1408.85	21.0803
1410.43	21.6658
1412.01	22.0283
1413.58	22.4842
1415.16	23.5601
1416.74	24.353
1418.31	24.8993
1419.89	25.5395
1421.46	26.654
1423.04	27.1911
1424.61	28.3194
1426.19	30.0037
1427.76	31.1672
1429.33	32.2559
1430.91	33.1017
1432.48	33.1461
1434.05	34.1776
1435.63	35.3508
1437.2	35.8296
1438.77	36.3574
1440.34	36.2076
1441.91	36.6283
1443.49	37.484
1445.05	38.0171
1446.63	36.9216
1448.2	38.3496
1449.77	38.574
1451.34	38.4106
1452.91	38.4382
1454.47	38.3938
1456.04	37.9415
1457.61	37.8085
1459.18	37.8363
1460.75	37.5456
1462.31	36.9848
1463.88	37.0028
1465.45	36.6694
1467.01	35.9274
1468.58	34.9336
1470.15	34.1119
1471.71	32.9216
1473.28	32.4926
1474.84	31.4259
1476.41	30.1776
1477.97	29.3277
1479.54	28.3175
1481.1	27.9501
1482.66	27.3835
1484.23	27.0842
1485.79	26.9576
1487.35	26.5115
1488.91	26.2431
1490.48	25.5835
1492.04	24.4112
1493.6	23.592
1495.16	22.8954
1496.72	21.7625
1498.28	21.7205
1499.84	20.9617
1501.4	20.7985
1502.96	19.8749
1504.52	18.8491
1506.08	18.2109
1507.64	17.7457
1509.2	16.3646
1510.76	15.0645
1512.31	14.7674
1513.87	13.9771
1515.43	13.1953
1516.99	12.6029
1518.54	12.5455
1520.1	12.811
1521.66	12.1807
1523.21	11.1468
1524.77	10.4597
1526.32	11.5569
1527.88	11.2632
1529.43	11.6212
1530.99	12.1917
1532.54	11.8236
1534.09	11.7235
1535.65	12.2682
1537.2	11.9328
1538.75	12.1194
1540.31	12.5406
1541.86	13.2434
1543.41	12.4852
1544.96	13.053
1546.51	13.2754
1548.06	13.4536
1549.62	13.9304
1551.17	14.3447
1552.72	15.3107
1554.27	16.5717
1555.82	17.3349
1557.36	17.7283
1558.91	18.5713
1560.46	19.1724
1562.01	19.759
1563.56	19.5713
1565.11	19.1421
1566.66	19.2126
1568.2	19.7346
1569.75	20.8095
1571.3	21.4394
1572.84	21.3754
1574.39	21.6628
1575.93	23.3818
1577.48	23.6636
1579.02	24.4787
1580.57	24.3065
1582.11	24.9025
1583.66	25.4301
1585.2	25.7513
1586.75	25.7255
1588.29	26.3806
1589.83	27.3892
1591.38	27.6783
1592.92	28.4197
1594.46	29.0898
1596	29.5288
1597.54	29.2902
1599.09	29.086
1600.63	29.1562
1602.17	30.0687
1603.71	30.3413
1605.25	30.0623
1606.79	29.5989
1608.33	29.0477
1609.87	28.5434
1611.41	29.228
1612.95	28.68
1614.48	28.2255
1616.02	27.9997
1617.56	28.0711
1619.1	27.4045
1620.64	27.0262
1622.17	28.3318
1623.71	27.3515
1625.25	27.1836
1626.78	28.1845
1628.32	28.7131
1629.86	29.2087
1631.39	28.5863
1632.92	28.1994
1634.46	28.3831
1635.99	28.6631
1637.53	28.1212
1639.06	28.3807
1640.59	28.5378
1642.13	29.1043
1643.66	30.9429
1645.19	32.2201
1646.73	31.7189
1648.26	31.1418
1649.79	31.9599
1651.32	33.2639
1652.85	33.6261
1654.38	33.2366
1655.92	33.755
1657.45	33.7295
1658.98	33.7652
1660.51	33.718
1662.04	33.25
1663.57	32.7403
1665.09	32.1257
1666.62	31.8054
1668.15	31.1015
1669.68	30.7853
1671.21	29.8177
1672.73	29.1546
1674.26	28.8474
1675.79	28.0527
1677.31	27.0435
1678.84	26.5416
1680.37	25.4546
1681.89	24.292
1683.42	23.2092
1684.94	22.69
1686.47	21.259
1687.99	20.5948
1689.52	19.3849
1691.04	19.0017
1692.57	17.8457
1694.09	17.272
1695.61	16.1303
1697.14	15.6249
1698.66	14.0943
1700.18	12.4204
1701.7	12.4578
1703.22	12.3038
1704.75	10.7847
1706.27	9.89834
1707.79	8.37332
1709.31	8.13705
1710.83	7.7219
1712.35	7.29875
1713.87	6.22775
1715.39	6.02257
1716.91	5.79291
1718.43	5.66104
1719.95	5.51446
1721.46	4.28793
1722.98	3.05157
1724.5	2.88398
1726.02	3.01839
1727.53	2.79174
1729.05	2.86591
1730.57	3.19575
1732.08	3.22133
1733.6	2.40462
1735.12	2.04244
1736.63	1.86381
1738.15	1.25154
1739.66	1.62907
1741.18	1.4846
1742.69	2.0644
1744.21	1.81373
1745.72	2.54432
1747.23	2.8975
1748.74	3.31021
1750.26	3.06453
1751.77	3.11502
1753.28	3.26975
1754.8	3.46316
1756.31	3.86412
1757.82	3.70676
1759.33	3.56002
1760.84	3.19281
1762.35	3.06408
1763.86	3.94372
1765.37	4.47071
1766.88	4.40684
1768.39	4.12583
1769.9	4.51463
1771.41	4.10797
1772.92	3.65888
1774.43	3.5477
1775.93	3.91688
1777.44	4.25185
1778.95	4.19492
1780.46	3.45168
1781.96	3.79813
1783.47	3.48641
1784.98	3.95283
1786.48	4.09078
1787.99	3.65282
1789.49	3.44434
1791	3.46841
1792.5	3.48916
1794.01	3.21961
1795.51	3.28746
1797.02	3.04742
1798.52	2.94018
1800.03	3.1675
1801.53	3.7346
1803.03	3.39742
1804.53	3.16007
1806.04	2.55004
1807.54	2.19471
1809.04	2.10234
1810.54	2.22281
1812.04	2.40332
1813.54	1.90378
1815.05	2.0128
1816.55	1.85096
1818.05	2.00093
1819.55	1.90651
1821.05	2.15627
1822.55	2.28435
1824.05	2.16396
1825.54	2.021
1827.04	2.38897
1828.54	2.52404
1830.04	2.71015
1831.54	2.68271
1833.03	2.29575
1834.53	1.92867
1836.03	1.97447
1837.52	2.05386
1839.02	2.04982
1840.52	1.91855
1842.01	1.70762
1843.51	1.64166
1845	1.93528
1846.5	1.97797
1847.99	2.52534
1849.49	2.81137
1850.98	2.76095
1852.47	2.97126
1853.97	2.77762
1855.46	2.91295
1856.95	3.21743
1858.45	4.01754
1859.94	4.31134
1861.43	4.45111
1862.92	3.85115
1864.41	3.7807
1865.91	3.07105
1867.4	2.97782
1868.89	3.24428
1870.38	3.03075
1871.87	2.89767
1873.36	2.37551
1874.85	2.00733
1876.34	1.6247
1877.83	1.01929
1879.31	1.24473
1880.8	1.47104
1882.29	1.76549
1882.56	1.71133
1884.05	1.84221
1885.54	1.67125
1887.04	1.17356
1888.53	1.4178
1890.03	1.55507
1891.52	1.3959
1893.01	1.59079
1894.5	1.23879
1895.99	1.202
1897.49	0.958494
1898.98	1.11047
1900.47	1.29974
1901.96	1.38119
1903.45	0.820116
1904.94	-0.00418453
1906.43	-0.151822
1907.92	-0.587617
1909.41	-0.789644
1910.9	-0.626931
1912.39	-0.249398
1913.88	0.126219
1915.37	0.150306
1916.86	0.635201
1918.35	1.12097
1919.84	1.03421
1921.32	0.57303
1922.81	0.45064
1924.3	0.456337
1925.78	0.695171
1927.27	1.25603
1928.76	1.31904
1930.24	0.883277
1931.73	0.634424
1933.21	0.106841
1934.7	-0.444565
1936.18	-0.673142
1937.67	-0.238772
1939.15	-0.206467
1940.64	0.113263
1942.12	0.271298
1943.6	0.0357126
1945.09	1.28102
1946.57	1.27378
1948.05	1.75481
1949.54	2.15981
1951.02	2.90449
1952.5	3.50519
1953.98	3.84967
1955.46	4.06199
1956.94	4.00297
1958.42	4.22494
1959.91	4.6666
1961.39	5.36707
1962.87	5.67762
1964.34	5.95918
1965.82	5.95548
1967.3	6.28886
1968.78	6.38352
1970.26	7.31715
1971.74	7.74128
1973.22	8.35961
1974.7	8.48937
1976.17	8.21557
1977.65	7.81826
1979.13	7.86952
1980.6	7.67222
1982.08	7.94524
1983.56	7.79267
1985.03	8.07738
1986.51	7.97965
1987.98	7.57082
1989.46	7.75925
1990.93	8.3478
1992.41	8.04726
1993.88	7.99864
1995.36	7.64307
1996.83	7.84803
1998.3	7.61106
1999.78	7.65639
2001.25	7.59354
2002.72	6.71585
2004.2	6.15376
2005.67	6.22292
2007.14	6.33269
2008.61	5.81751
2010.08	6.10078
2011.55	5.66923
2013.02	5.37063
2014.49	5.7624
2015.97	5.83235
2017.43	6.39829
2018.9	6.90978
2020.37	6.27549
2021.84	6.47216
2023.31	6.21992
2024.78	6.48309
2026.25	6.4079
2027.72	6.67983
2029.19	6.17436
2030.65	6.64339
2032.12	7.50913
2033.59	8.17092
2035.05	8.25922
2036.52	8.26402
2037.98	8.89496
2039.45	9.36831
2040.92	9.71487
2042.38	10.2112
2043.85	10.426
2045.31	10.5172
2046.78	11.0273
2048.24	10.7385
2049.71	10.8811
2051.17	11.3521
2052.63	12.1946
2054.1	12.6383
2055.56	13.6412
2057.02	13.8057
2058.48	14.1563
2059.95	14.3408
2061.41	14.566
2062.87	15.501
2064.33	15.5551
2065.79	15.1812
2067.25	15.7809
2068.71	15.4802
2070.17	15.8242
2071.63	16.3547
2073.09	16.8517
2074.55	17.2226
2076.01	17.0424
2077.47	16.8155
2078.93	17.045
2080.39	17.1679
2081.85	18.1448
2083.3	18.7369
2084.76	18.636
2086.22	19.1759
2087.68	19.4687
2089.13	19.3228
2090.59	19.7973
2092.05	19.3527
2093.5	19.7786
2094.96	19.6538
2096.41	19.2048
2097.87	19.6578
2099.32	20.0165
2100.78	20.046
2102.23	20.2306
2103.69	21.1522
2105.14	21.7041
2106.59	22.3742
2108.05	22.7785
2109.5	22.9063
2110.95	23.0122
2112.41	23.2888
2113.86	23.7956
2115.31	24.5658
2116.76	25.5549
2118.21	26.2404
2119.67	27.0346
2121.12	27.4824
2122.57	28.0634
2124.02	29.0195
2125.47	29.8934
2126.92	30.7822
2128.37	31.3644
2129.82	31.534
2131.27	32.1307
2132.71	33.3705
2134.16	34.7512
