#Acq. time (s)=	45
#Accumulations=	2
#Range (cm-¹)=	200...3150
#Windows=	2
#Auto scanning=	Off
#Autofocus=	Off
#Macrospot=	Off
#AutoExposure=	Off
#Spike filter=	Multiple accum.
#Delay time (s)=	0
#Binning=	1
#Readout mode=	Signal
#DeNoise=	Off
#ICS correction=	On
#Dark correction=	Off
#Inst. Process=	Off
#Detector Gain=	Best Dynamic Range
#Detector ADC=	20 kHz       
#Detector temperature (°C)=	-70.08
#Instrument=	LabRAM HR Evol
#Detector=	Synapse
#Objective=	x100
#Grating=	600 gr/mm
#ND Filter=	100%
#Laser (nm)=	532 
#Hole=	100.021
#Range=	Auto
#Laser Pol.=	No
#Raman. Pol.=	No
#Laser Pol. (°)=	-0.0007625
#Raman Pol. (°)=	89.9995
#Collection=	Microscope
#StageXY=	Marzhauser
#StageZ=	Marzhauser
#X (µm)=	-2491.4
#Y (µm)=	-29.7
#Z (µm)=	-10.1
#Full time(mm:ss)=	3:15
#Project=	
#Sample=	
#Site=	
#Title=	Mb_40_24_42_2x_45s_532 nm_x100_100%_600 gr_mm
#Remark=	
#Date=	14.07.2022 14:00
#Acquired=	14.07.2022 14:00:31
#Edit:Spike=	10.08.2022 10:43:35
#Edit:Spike=	10.08.2022 10:43:36
#Base:Fit=	10.08.2022 10:47:00
#Base:Sub=	10.08.2022 10:47:12
#Filter:Polynom=	16.08.2022 10:11:48
#AxisType[0]=Intens
#AxisUnit[0]=Cnt
#AxisType[1]=Spectr
#AxisUnit[1]=1/cm
200.554	12.244
202.369	13.2685
204.183	16.6896
205.999	18.0144
207.813	18.1675
209.626	18.0724
211.439	18.1887
213.253	17.085
215.065	16.9448
216.877	16.2073
218.688	16.1983
220.5	15.1116
222.312	15.7382
224.123	14.3279
225.933	13.7322
227.742	13.2197
229.552	11.6798
231.361	10.1718
233.171	8.78989
234.98	9.19032
236.787	8.96602
238.595	9.45987
240.402	9.76195
242.209	9.05888
244.015	8.33477
245.822	7.45243
247.627	6.94394
249.435	6.27894
251.24	5.04124
253.045	3.67185
254.849	2.38331
256.653	1.66804
258.457	2.04482
260.26	2.37894
262.063	3.03392
263.866	4.60765
265.668	5.87632
267.47	6.72811
269.271	6.96739
271.073	6.75905
272.873	7.61682
274.674	9.11645
276.474	9.85274
278.274	11.4587
280.073	10.924
281.872	12.4137
283.671	11.3012
285.47	10.6939
287.268	12
289.065	11.7351
290.863	13.109
292.66	11.6737
294.456	10.0721
296.253	11.3644
298.049	11.1223
299.844	10.2644
301.637	11.5196
303.432	10.7897
305.227	12.2807
307.021	11.559
308.815	11.9375
310.609	11.5137
312.402	12.1081
314.195	10.4521
315.987	10.7255
317.777	9.26466
319.569	9.7464
321.36	9.78705
323.151	10.9896
324.942	11.7832
326.733	11.0807
328.521	11.4863
330.31	10.9233
332.1	11.0148
333.889	11.2248
335.677	10.9251
337.464	11.4798
339.252	10.7371
341.039	9.68594
342.826	9.1821
344.611	8.60694
346.398	8.06032
348.184	9.18705
349.97	10.462
351.754	11.0142
353.539	11.107
355.324	11.1519
357.106	11.9504
358.89	11.5579
360.674	11.0741
362.455	10.8914
364.239	11.0495
366.021	11.3717
367.804	10.704
369.584	10.6152
371.366	10.3583
373.145	9.0703
374.926	9.23738
376.707	8.82071
378.485	6.92806
380.265	6.37552
382.045	5.51517
383.822	6.18605
385.601	6.53796
387.378	4.86889
389.156	5.00996
390.934	5.74339
392.71	6.03283
394.487	6.54737
396.262	6.72936
398.038	7.13921
399.813	6.11087
401.588	5.23352
403.362	4.97883
405.137	6.1078
406.912	6.39321
408.685	7.39014
410.459	7.18245
412.23	7.80027
414.004	7.98712
415.775	8.01961
417.548	8.20388
419.318	9.09029
421.089	9.34828
422.86	7.9591
424.63	7.35024
426.401	7.42139
428.17	6.55709
429.94	6.03258
431.708	5.79603
433.478	5.81413
435.245	7.47035
437.012	8.33086
438.781	8.57375
440.547	8.14239
442.315	7.99373
444.081	8.25962
445.846	8.47359
447.613	8.19866
449.378	8.31695
451.142	8.72135
452.908	9.21803
454.672	9.34339
456.435	9.20975
458.2	9.60299
459.963	8.85377
461.725	9.37708
463.489	9.58388
465.251	8.7469
467.012	9.40344
468.775	11.5186
470.536	12.7286
472.296	14.4114
474.056	14.2514
475.817	15.6371
477.576	18.4485
479.335	20.1323
481.094	21.3511
482.854	22.1458
484.612	22.3098
486.37	21.8798
488.127	22.0221
489.886	24.4095
491.642	26.7965
493.398	28.1894
495.154	28.1461
496.91	28.4901
498.667	29.3299
500.422	31.0038
502.176	31.5684
503.93	32.2852
505.684	32.9208
507.438	34.986
509.191	34.8237
510.946	33.5215
512.698	34.3391
514.45	34.1741
516.202	33.8207
517.954	34.2957
519.705	34.8374
521.456	33.6518
523.206	34.6521
524.956	33.8765
526.706	33.9402
528.456	33.7011
530.207	32.9562
531.956	32.5663
533.704	31.9934
535.452	30.6717
537.2	29.6981
538.947	27.8145
540.694	26.6537
542.441	25.5226
544.188	25.407
545.934	24.4957
547.68	24.4734
549.425	23.9017
551.17	23.5099
552.915	23.8607
554.659	23.5334
556.403	23.4712
558.145	23.0423
559.889	22.5981
561.632	21.4796
563.375	22.1245
565.117	20.3522
566.859	18.2494
568.601	17.1596
570.342	16.5254
572.083	14.5055
573.824	13.8163
575.565	13.8045
577.303	13.759
579.043	12.6691
580.782	11.3949
582.521	11.0934
584.26	11.6645
585.998	11.3153
587.734	11.8091
589.472	10.6598
591.21	10.8774
592.947	8.92908
594.684	9.88283
596.418	8.76622
598.154	7.61314
599.89	7.53753
601.626	7.50106
603.361	6.29209
605.094	5.91605
606.828	5.4545
608.562	5.1292
610.296	7.1504
612.027	6.2781
613.761	1.4927
615.493	-2.59699
617.224	-5.49062
618.956	-5.4188
620.688	-2.12557
622.419	1.4509
624.149	5.32155
625.879	8.67963
627.61	13.1454
629.338	17.2926
631.068	21.3771
632.797	25.2232
634.525	28.9269
636.254	31.0609
637.98	34.4401
639.708	36.1663
641.436	37.9047
643.162	40.7449
644.889	41.4675
646.614	42.1732
648.34	42.9821
650.067	43.3833
651.791	43.654
653.516	44.3214
655.239	44.3214
656.964	43.982
658.687	43.7522
660.411	44.0791
662.133	43.7108
663.857	44.4609
665.58	43.7906
667.301	43.3929
669.024	42.5299
670.744	41.0417
672.464	40.4282
674.186	40.1819
675.905	39.4136
677.626	37.3717
679.345	34.7934
681.065	34.2237
682.783	30.7271
684.503	28.3615
686.22	25.2822
687.939	24.0373
689.656	20.6531
691.372	18.5929
693.09	16.7073
694.806	14.2514
696.523	11.0395
698.239	6.72927
699.953	4.16961
701.67	6.41845
703.384	9.52175
705.098	14.7098
706.813	18.5266
708.526	17.6295
710.239	19.0973
711.954	19.7131
713.666	21.5995
715.378	22.3193
717.091	23.598
718.802	23.7852
720.513	23.356
722.226	22.378
723.936	22.0453
725.646	21.169
727.355	20.7332
729.067	20.3806
730.776	20.352
732.484	20.8085
734.192	20.9037
735.902	21.6298
737.61	22.2215
739.317	21.8145
741.024	22.9375
742.731	23.472
744.439	24.3324
746.145	25.6119
747.851	26.6631
749.556	27.6566
751.262	28.5721
752.966	30.0901
754.673	31.5758
756.377	34.4565
758.081	36.1888
759.784	36.9796
761.487	36.9004
763.19	37.8421
764.892	39.7364
766.594	42.8023
768.296	44.3155
770	45.9991
771.701	46.9544
773.402	49.0193
775.102	50.1629
776.803	51.2215
778.503	52.851
780.202	54.3938
781.901	55.4594
783.6	56.7398
785.299	58.1932
786.997	59.4589
788.695	61.295
790.393	63.5536
792.09	65.9881
793.787	66.2198
795.484	69.0565
797.18	69.1775
798.877	70.9732
800.572	71.1957
802.268	72.8277
803.963	73.6187
805.658	74.3902
807.35	74.2525
809.044	74.5232
810.738	73.474
812.432	74.3514
814.125	74.5883
815.818	76.1265
817.51	75.5158
819.202	75.508
820.894	75.3772
822.584	75.8783
824.275	76.9108
825.966	77.3136
827.657	77.5932
829.347	78.1628
831.037	78.6485
832.725	77.9954
834.414	78.0751
836.103	79.5435
837.792	79.4729
839.481	79.8994
841.167	79.0716
842.854	77.5028
844.542	76.3427
846.229	75.3409
847.914	74.985
849.6	74.7019
851.287	72.2579
852.973	70.2423
854.656	69.3711
856.341	69.0021
858.026	67.8088
859.711	67.8387
861.393	66.3887
863.077	66.3303
864.761	65.1324
866.442	62.6425
868.125	62.1263
869.808	62.1404
871.489	61.2583
873.171	61.2772
874.85	60.661
876.532	59.3214
878.213	57.3841
879.892	56.6583
881.572	55.2263
883.251	54.5265
884.931	54.3639
886.61	53.6113
888.287	52.0443
889.966	49.7272
891.643	47.8513
893.321	47.3314
894.997	46.4742
896.675	47.1534
898.352	46.9154
900.028	46.8846
901.704	45.5043
903.379	46.779
905.055	48.2359
906.729	49.695
908.404	49.5119
910.077	48.89
911.75	49.4771
913.425	49.5666
915.097	49.5579
916.771	49.98
918.443	50.6106
920.116	51.021
921.787	51.1223
923.46	49.5449
925.13	48.0171
926.8	47.5902
928.472	45.8495
930.141	45.6689
931.813	44.6497
933.481	45.2442
935.15	44.6315
936.82	45.9784
938.488	45.5644
940.156	44.2282
941.825	42.4237
943.492	41.6928
945.158	39.101
946.827	37.4749
948.493	36.1803
950.158	35.7432
951.824	36.3235
953.491	35.7607
955.156	35.0311
956.82	34.8774
958.486	32.8327
960.15	30.4399
961.814	31.0364
963.477	30.5954
965.142	31.2247
966.804	32.5794
968.467	33.2792
970.129	33.0463
971.79	34.2026
973.454	34.5308
975.115	35.2851
976.776	36.1273
978.436	37.0054
980.096	38.6089
981.756	38.9659
983.417	39.8563
985.077	39.8614
986.736	40.595
988.394	39.4327
990.052	39.596
991.71	39.6877
993.368	40.7217
995.025	41.728
996.682	41.051
998.341	41.5582
999.998	41.4584
1001.65	41.9864
1003.31	42.0042
1004.97	42.3558
1006.62	42.2775
1008.28	42.3121
1009.93	43.844
1011.58	45.3403
1013.24	47.5804
1014.89	49.2186
1016.54	51.9924
1018.2	52.7412
1019.85	52.6328
1021.5	53.0974
1023.16	54.3702
1024.81	56.1136
1026.46	57.3797
1028.11	59.6393
1029.76	62.6108
1031.41	64.8788
1033.06	65.7398
1034.71	67.65
1036.36	69.6335
1038.01	70.3844
1039.66	70.3963
1041.31	71.5085
1042.95	73.6411
1044.6	76.2307
1046.25	76.7564
1047.9	77.2315
1049.54	77.8669
1051.19	77.1196
1052.84	76.5508
1054.48	74.6421
1056.13	72.5198
1057.77	71.7895
1059.42	70.8562
1061.06	70.2907
1062.71	68.7816
1064.35	66.4196
1066	65.1933
1067.64	61.6029
1069.28	60.3252
1070.93	58.9446
1072.57	57.9543
1074.21	56.4837
1075.85	55.2754
1077.49	53.4141
1079.13	51.3524
1080.78	51.2508
1082.42	50.0135
1084.06	48.5683
1085.7	46.4944
1087.34	46.4984
1088.97	47.1485
1090.61	46.2411
1092.25	47.9584
1093.89	48.4028
1095.53	47.9102
1097.17	49.8171
1098.8	49.4743
1100.44	48.7287
1102.08	49.2067
1103.71	50.0939
1105.35	50.5795
1106.99	49.9725
1108.62	49.4059
1110.26	49.8972
1111.89	50.1177
1113.52	48.4068
1115.16	47.5428
1116.79	48.0687
1118.43	47.3696
1120.06	45.6245
1121.69	45.529
1123.32	45.2166
1124.96	43.2734
1126.59	40.8747
1128.22	38.751
1129.85	36.8474
1131.48	35.4844
1133.11	32.8454
1134.75	30.456
1136.37	30.1971
1138	30.0149
1139.63	30.0005
1141.26	28.489
1142.89	27.2621
1144.52	26.0165
1146.15	23.4788
1147.78	22.5991
1149.4	20.3994
1151.03	19.7407
1152.66	18.138
1154.28	17.0986
1155.91	15.5561
1157.54	13.6901
1159.16	12.0573
1160.79	10.3726
1162.41	8.96465
1164.04	7.85421
1165.66	5.8658
1167.29	5.87624
1168.91	6.75102
1170.53	6.22833
1172.16	5.32944
1173.78	6.53273
1175.4	6.72244
1177.02	6.725
1178.65	6.44127
1180.27	4.77213
1181.89	5.90259
1183.51	6.10885
1185.13	7.26482
1186.75	8.22602
1188.37	9.11585
1189.99	10.8227
1191.61	11.2069
1193.23	12.7101
1194.85	13.1081
1196.47	14.8597
1198.08	16.5572
1199.7	18.5074
1201.32	20.2647
1202.94	22.2469
1204.55	22.8077
1206.17	23.1121
1207.79	25.3439
1209.4	27.1755
1211.02	28.5611
1212.63	31.4957
1214.25	33.3019
1215.86	34.8823
1217.48	38.8042
1219.09	40.6952
1220.71	42.9306
1222.32	45.1551
1223.93	46.9018
1225.54	48.9702
1227.16	50.9122
1228.77	53.8425
1230.38	54.2099
1231.99	57.14
1233.6	59.6205
1235.22	61.2786
1236.83	62.6691
1238.44	65.6782
1240.05	68.329
1241.66	69.7213
1243.26	72.2218
1244.87	74.3225
1246.48	75.0773
1248.09	76.7105
1249.7	78.8011
1251.31	81.3605
1252.92	82.0685
1254.52	84.2618
1256.13	86.4082
1257.74	88.3553
1259.34	90.161
1260.95	92.9894
1262.55	96.0031
1264.16	98.7789
1265.76	101.402
1267.37	102.991
1268.97	104.975
1270.58	106.974
1272.18	109.083
1273.78	112.299
1275.39	114.26
1276.99	116.971
1278.59	119.534
1280.2	122.451
1281.8	124.426
1283.4	125.348
1285	127.049
1286.6	129.285
1288.2	130.803
1289.8	132.159
1291.4	133.003
1293	135.568
1294.6	135.576
1296.2	137.178
1297.8	139.975
1299.4	139.861
1301	140.632
1302.6	140.236
1304.19	139.521
1305.79	140.422
1307.39	140.507
1308.99	139.143
1310.58	138.354
1312.18	138.869
1313.77	137.535
1315.37	135.268
1316.96	135.025
1318.56	134.331
1320.15	132.637
1321.75	130.249
1323.34	128.249
1324.94	125.386
1326.53	123.05
1328.12	121.36
1329.72	120.009
1331.31	118.65
1332.9	115.53
1334.49	115.054
1336.08	113.88
1337.67	111.998
1339.27	110.187
1340.86	108.695
1342.45	107.274
1344.04	106.081
1345.63	103.327
1347.22	101.554
1348.8	99.978
1350.39	99.4252
1351.98	99.3422
1353.57	98.5389
1355.16	97.8111
1356.75	97.1669
1358.33	96.4477
1359.92	95.367
1361.51	94.7721
1363.09	92.673
1364.68	92.6213
1366.27	91.4719
1367.85	90.6169
1369.44	90.6877
1371.02	88.7754
1372.61	89.4525
1374.19	87.8062
1375.77	89.4047
1377.36	89.1494
1378.94	89.2587
1380.52	89.6893
1382.11	89.2989
1383.69	89.6114
1385.27	89.832
1386.85	90.0615
1388.43	90.3507
1390.02	91.1839
1391.6	92.0178
1393.18	93.0726
1394.76	93.2004
1396.34	94.7571
1397.92	95.3649
1399.5	97.6494
1401.08	99.002
1402.65	101.055
1404.23	104.407
1405.81	107.121
1407.39	110.172
1408.97	113.837
1410.54	117.619
1412.12	120.804
1413.7	126.352
1415.27	131.402
1416.85	135.089
1418.43	139.263
1420	144.93
1421.58	150.027
1423.15	155.854
1424.73	160.967
1426.3	167.093
1427.87	174.633
1429.45	181.37
1431.02	186.722
1432.6	191.151
1434.17	195.339
1435.74	199.854
1437.31	204.809
1438.89	208.051
1440.46	211.754
1442.03	214.254
1443.6	217.006
1445.17	218.379
1446.74	219.768
1448.31	219.873
1449.88	219.291
1451.45	218.708
1453.02	217.421
1454.59	216.072
1456.16	213.061
1457.72	210.124
1459.29	205.913
1460.86	201.055
1462.43	196.115
1463.99	190.908
1465.56	184.966
1467.13	178.026
1468.69	171.206
1470.26	164.255
1471.83	157.328
1473.39	148.686
1474.95	142.077
1476.52	134.96
1478.08	128.376
1479.65	119.814
1481.21	113.56
1482.78	106.855
1484.34	99.6702
1485.9	93.3425
1487.47	87.6639
1489.03	82.676
1490.59	77.6187
1492.15	73.4191
1493.71	68.4184
1495.27	63.8942
1496.84	60.5658
1498.39	58.3488
1499.96	54.7227
1501.52	51.8845
1503.07	49.5888
1504.64	47.7111
1506.19	46.4516
1507.75	44.0103
1509.31	41.367
1510.87	39.0495
1512.43	37.6255
1513.98	36.8501
1515.54	36.2841
1517.1	35.1787
1518.65	35.76
1520.21	35.8843
1521.77	36.0508
1523.32	36.3112
1524.88	34.9147
1526.44	35.4613
1527.99	35.7441
1529.54	36.6988
1531.1	38.5701
1532.65	40.2561
1534.21	41.5699
1535.76	41.8838
1537.31	43.0549
1538.87	43.5227
1540.42	43.9861
1541.97	45.0771
1543.52	45.5679
1545.07	46.8209
1546.63	48.2015
1548.18	49.2934
1549.73	50.3725
1551.28	51.4075
1552.83	53.3701
1554.38	53.8301
1555.93	55.1423
1557.48	57.2936
1559.03	59.5879
1560.57	60.8469
1562.12	61.6331
1563.67	63.9641
1565.22	66.8974
1566.77	68.6514
1568.31	70.6876
1569.86	73.281
1571.41	75.5161
1572.95	78.4125
1574.5	80.7411
1576.05	83.7712
1577.59	86.277
1579.14	89.8101
1580.68	93.5225
1582.23	95.351
1583.77	96.7731
1585.31	98.4773
1586.86	101.016
1588.4	103.983
1589.95	106.888
1591.49	109.466
1593.03	111.809
1594.57	113.019
1596.11	115.414
1597.66	116.286
1599.2	116.507
1600.74	117.566
1602.28	118.656
1603.82	120.8
1605.36	122.107
1606.9	123.153
1608.44	124.42
1609.98	125.01
1611.52	125.118
1613.06	125.323
1614.6	125.98
1616.13	126.602
1617.67	126.666
1619.21	128.117
1620.75	128.377
1622.28	129.97
1623.82	131.892
1625.36	132.357
1626.89	132.692
1628.43	132.661
1629.96	133.349
1631.5	133.399
1633.04	135.21
1634.57	136.268
1636.11	136.349
1637.64	137.219
1639.17	138.216
1640.71	139.905
1642.24	140.055
1643.77	140.646
1645.31	142.025
1646.84	142.757
1648.37	143.09
1649.9	144.438
1651.43	143.799
1652.96	144.945
1654.5	144.662
1656.03	143.686
1657.56	142.102
1659.09	140.258
1660.62	138.006
1662.15	136.505
1663.67	134.361
1665.2	130.954
1666.73	127.274
1668.26	124.117
1669.79	120.951
1671.32	116.86
1672.84	114.332
1674.37	110.422
1675.9	106.277
1677.43	103.148
1678.95	98.2161
1680.48	94.4933
1682	91.2563
1683.53	87.5708
1685.05	84.7376
1686.58	80.6719
1688.1	76.9651
1689.63	73.1518
1691.15	69.9844
1692.68	66.6273
1694.2	62.5011
1695.72	59.7478
1697.25	57.0653
1698.77	54.9484
1700.29	51.7312
1701.81	48.4682
1703.33	46.4092
1704.86	44.165
1706.38	42.3286
1707.9	40.1304
1709.42	38.1268
1710.94	36.6695
1712.46	35.1027
1713.98	33.2076
1715.5	31.8266
1717.02	29.2994
1718.54	28.0894
1720.06	27.0795
1721.57	26.1828
1723.09	25.2581
1724.61	24.3003
1726.13	24.0183
1727.64	23.8556
1729.16	23.1695
1730.68	21.0778
1732.19	19.8917
1733.71	19.6156
1735.23	18.1825
1736.74	17.5116
1738.26	17.3327
1739.77	17.0984
1741.29	16.56
1742.8	16.7826
1744.31	17.1268
1745.83	16.3592
1747.34	15.6327
1748.85	15.4174
1750.37	14.4963
1751.88	13.7988
1753.39	13.8993
1754.91	13.1355
1756.42	13.6215
1757.93	13.397
1759.44	13.2152
1760.95	12.0645
1762.46	11.0082
1763.97	10.2338
1765.48	9.35163
1766.99	8.69804
1768.5	8.51632
1770.01	8.3652
1771.52	8.33842
1773.03	8.62889
1774.54	8.38785
1776.04	7.54022
1777.55	7.76118
1779.06	7.51911
1780.57	7.14408
1782.07	6.73423
1783.58	6.5841
1785.09	5.90016
1786.59	6.41453
1788.1	5.54184
1789.6	4.104
1791.11	4.4432
1792.61	3.76313
1794.12	3.9977
1795.62	3.59899
1797.13	3.31696
1798.63	2.95493
1800.13	3.0803
1801.64	2.9514
1803.14	2.89322
1804.64	1.25587
1806.15	1.22406
1807.65	2.20117
1809.15	2.50764
1810.65	2.23422
1812.15	2.39889
1813.65	1.80451
1815.16	1.4898
1816.66	1.25824
1818.15	1.6361
1819.66	1.27757
1821.16	0.588123
1822.65	1.39041
1824.15	1.24272
1825.65	1.35725
1827.15	1.59723
1828.65	2.08572
1830.15	1.95256
1831.64	1.92971
1833.14	2.05195
1834.64	1.80584
1836.14	1.01004
1837.63	1.25561
1839.13	1.19402
1840.62	1.24492
1842.12	1.84611
1843.62	2.91784
1845.11	2.41928
1846.61	2.21936
1848.1	2.34031
1849.6	3.01959
1851.09	3.45342
1852.58	3.78487
1854.08	4.09451
1855.57	3.73858
1857.06	3.62529
1858.55	3.34444
1860.05	3.0144
1861.54	3.02868
1863.03	2.33154
1864.52	2.51534
1866.01	2.79468
1867.5	2.68837
1869	2.90067
1870.49	2.70958
1871.98	3.10193
1873.47	3.96043
1874.96	4.35099
1876.44	3.93105
1877.93	4.18719
1879.42	5.25412
1880.91	6.16594
1882.4	6.25225
1882.47	5.89083
1883.96	6.03245
1885.46	7.0071
1886.95	7.56777
1888.44	8.10133
1889.94	8.32292
1891.43	8.7876
1892.93	8.89336
1894.42	8.81601
1895.91	9.68473
1897.4	9.29556
1898.89	9.42871
1900.39	10.0306
1901.88	9.96671
1903.37	9.14163
1904.86	9.14502
1906.35	9.01772
1907.84	9.35068
1909.33	9.23374
1910.82	9.39793
1912.31	9.98014
1913.8	10.2312
1915.29	10.3559
1916.77	10.6597
1918.26	10.2401
1919.75	10.529
1921.24	11.0693
1922.73	11.2355
1924.21	10.9778
1925.7	9.91402
1927.19	9.85835
1928.67	9.1234
1930.16	8.99007
1931.64	8.5809
1933.13	8.23153
1934.61	8.02544
1936.1	7.33902
1937.58	7.05937
1939.07	6.67397
1940.55	6.56108
1942.04	6.13476
1943.52	5.83159
1945	6.33348
1946.49	6.42084
1947.97	6.15334
1949.45	5.48819
1950.93	5.85094
1952.42	5.35161
1953.9	4.15927
1955.38	3.81442
1956.86	3.41376
1958.34	3.36854
1959.82	2.96157
1961.3	1.95495
1962.78	1.70135
1964.26	0.586133
1965.74	0.334678
1967.22	0.270794
1968.7	-0.0954162
1970.18	-0.0523646
1971.65	-0.854193
1973.13	-1.06786
1974.61	-0.800333
1976.09	-0.710275
1977.57	-0.490801
1979.04	-0.0562668
1980.52	-0.520145
1982	0.19351
1983.47	-0.148223
1984.95	-0.101117
1986.42	1.12585
1987.9	0.51832
1989.37	0.448836
1990.85	0.556815
1992.32	0.661572
1993.8	0.804559
1995.27	0.848383
1996.75	1.24264
1998.22	1.79428
1999.69	1.54857
2001.17	1.88257
2002.64	1.32861
2004.11	2.15227
2005.58	1.93701
2007.05	1.54729
2008.53	1.96999
2010	1.74011
2011.47	2.21727
2012.94	2.94843
2014.41	2.88863
2015.88	3.57874
2017.35	4.01016
2018.82	4.39866
2020.29	4.64742
2021.76	4.42158
2023.23	4.7581
2024.7	5.94313
2026.16	6.22343
2027.63	6.96532
2029.1	7.13025
2030.57	7.79574
2032.03	8.44447
2033.5	8.60958
2034.97	8.91088
2036.44	9.39253
2037.9	9.03353
2039.37	9.64828
2040.83	9.68867
2042.3	10.1127
2043.76	10.7035
2045.23	10.8132
2046.69	11.4416
2048.16	12.7306
2049.62	12.89
2051.08	13.2392
2052.55	13.4363
2054.01	12.8879
2055.47	13.9611
2056.94	14.2603
2058.4	15.4664
2059.86	15.5187
2061.32	15.478
2062.79	16.4011
2064.25	17.9071
2065.71	18.6601
2067.17	19.4302
2068.63	20.0378
2070.09	21.2828
2071.55	21.7164
2073.01	21.8499
2074.47	22.8728
2075.93	23.413
2077.39	24.7878
2078.85	25.6589
2080.31	26.9226
2081.76	29.0251
2083.22	29.8592
2084.68	31.1831
2086.13	32.2352
2087.59	32.9992
2089.05	34.9229
2090.51	35.9895
2091.96	37.2666
2093.42	38.3863
2094.87	39.8043
2096.33	41.5146
2097.78	42.6539
2099.24	42.8993
2100.69	43.7768
2102.15	45.1655
2103.6	46.1849
2105.06	46.9791
2106.51	48.4883
2107.96	49.3292
2109.42	51.3814
2110.87	52.9177
2112.32	54.1356
2113.77	55.1259
2115.23	56.7927
2116.68	58.5669
2118.13	60.4848
2119.58	62.8531
2121.03	65.4536
2122.48	67.0033
2123.93	68.9443
2125.38	70.6675
2126.83	73.0734
2128.28	75.974
2129.73	78.5862
