#Acq. time (s)=	45
#Accumulations=	2
#Range (cm-¹)=	200...3150
#Windows=	2
#Auto scanning=	Off
#Autofocus=	Off
#Macrospot=	Off
#AutoExposure=	Off
#Spike filter=	Multiple accum.
#Delay time (s)=	0
#Binning=	1
#Readout mode=	Signal
#DeNoise=	Off
#ICS correction=	On
#Dark correction=	Off
#Inst. Process=	Off
#Detector Gain=	Best Dynamic Range
#Detector ADC=	20 kHz       
#Detector temperature (°C)=	-69.85
#Instrument=	LabRAM HR Evol
#Detector=	Synapse
#Objective=	x100
#Grating=	600 gr/mm
#ND Filter=	100%
#Laser (nm)=	532 
#Hole=	100.021
#Range=	Auto
#Laser Pol.=	No
#Raman. Pol.=	No
#Laser Pol. (°)=	-0.0007625
#Raman Pol. (°)=	89.9995
#Collection=	Microscope
#StageXY=	Marzhauser
#StageZ=	Marzhauser
#X (µm)=	-2496.8
#Y (µm)=	-77
#Z (µm)=	-10.5
#Full time(mm:ss)=	3:19
#Project=	
#Sample=	
#Site=	
#Title=	Mb_40_24_36_2x_45s_532 nm_x100_100%_600 gr_mm
#Remark=	
#Date=	14.07.2022 13:24
#Acquired=	14.07.2022 13:24:01
#Base:Fit=	10.08.2022 10:47:00
#Base:Sub=	10.08.2022 10:47:12
#Filter:Polynom=	16.08.2022 10:11:48
#AxisType[0]=Intens
#AxisUnit[0]=Cnt
#AxisType[1]=Spectr
#AxisUnit[1]=1/cm
200.554	9.17645
202.369	7.79873
204.183	8.45436
205.999	7.50856
207.813	7.1692
209.626	6.63378
211.439	6.12638
213.253	5.17562
215.065	3.91337
216.877	4.04057
218.688	4.6542
220.5	5.18455
222.312	3.58779
224.123	2.45622
225.933	2.42943
227.742	2.19686
229.552	2.18576
231.361	1.35784
233.171	1.58218
234.98	1.51521
236.787	1.23802
238.595	1.11007
240.402	0.630607
242.209	0.802105
244.015	0.646121
245.822	0.740528
247.627	0.865969
249.435	1.82698
251.24	1.97947
253.045	1.02808
254.849	1.21557
256.653	2.79575
258.457	4.19888
260.26	4.5604
262.063	4.96731
263.866	5.29595
265.668	4.85858
267.47	4.93263
269.271	6.07697
271.073	6.58219
272.873	7.24244
274.674	6.60276
276.474	7.59279
278.274	7.98282
280.073	7.04009
281.872	8.28663
283.671	7.83917
285.47	7.05021
287.268	7.41906
289.065	7.12843
290.863	6.8573
292.66	7.71026
294.456	7.70281
296.253	8.58605
298.049	8.88423
299.844	9.52386
301.637	9.19465
303.432	8.84044
305.227	9.86372
307.021	11.1305
308.815	10.4134
310.609	9.61832
312.402	9.51489
314.195	11.1067
315.987	11.0801
317.777	10.8304
319.569	11.6882
321.36	12.2239
323.151	12.5758
324.942	12.0998
326.733	11.3307
328.521	11.133
330.31	11.3952
332.1	11.6491
333.889	11.6625
335.677	12.2689
337.464	12.8412
339.252	12.9337
341.039	12.8944
342.826	12.7801
344.611	14.1292
346.398	14.4088
348.184	13.2153
349.97	12.0765
351.754	11.3029
353.539	10.7163
355.324	10.2399
357.106	10.5633
358.89	11.0512
360.674	10.3794
362.455	8.31877
364.239	7.69332
366.021	7.65287
367.804	6.20747
369.584	6.10763
371.366	6.24351
373.145	5.24781
374.926	4.68912
376.707	4.71022
378.485	4.88624
380.265	5.64602
382.045	6.58783
383.822	5.60098
385.601	5.89457
387.378	6.84706
389.156	5.70733
390.934	6.32995
392.71	7.53659
394.487	8.4406
396.262	8.11639
398.038	9.07768
399.813	10.3807
401.588	11.3518
403.362	11.5313
405.137	11.6538
406.912	12.3571
408.685	13.4211
410.459	14.0323
412.23	13.7619
414.004	14.4175
415.775	14.2498
417.548	16.2124
419.318	16.6409
421.089	16.767
422.86	17.4457
424.63	18.2192
426.401	18.0119
428.17	16.9829
429.94	17.377
431.708	16.7545
433.478	17.738
435.245	18.8136
437.012	18.6372
438.781	18.886
440.547	19.561
442.315	19.2398
444.081	18.2316
445.846	17.6424
447.613	17.8753
449.378	16.3546
451.142	16.2833
452.908	16.2927
454.672	16.0592
456.435	15.5638
458.2	15.013
459.963	14.6028
461.725	14.3745
463.489	14.7355
465.251	14.9489
467.012	15.7705
468.775	15.8569
470.536	16.2117
472.296	16.554
474.056	18.0942
475.817	18.3976
477.576	18.0656
479.335	19.0816
481.094	19.9558
482.854	20.0843
484.612	20.9565
486.37	22.2811
488.127	22.0367
489.886	22.5586
491.642	24.0474
493.398	24.4319
495.154	24.2926
496.91	25.4021
498.667	25.7788
500.422	25.5175
502.176	25.3094
503.93	24.6308
505.684	25.523
507.438	25.2217
509.191	26.1986
510.946	26.4287
512.698	27.0788
514.45	26.5905
516.202	26.5859
517.954	28.3995
519.705	27.9837
521.456	28.8494
523.206	29.4423
524.956	28.7803
526.706	27.6036
528.456	26.8547
530.207	25.1561
531.956	24.1506
533.704	22.9008
535.452	22.4559
537.2	20.7781
538.947	20.3233
540.694	20.0139
542.441	19.9156
544.188	19.8249
545.934	18.4461
547.68	18.363
549.425	17.7894
551.17	17.2697
552.915	17.3169
554.659	17.7875
556.403	16.6631
558.145	16.1854
559.889	16.1064
561.632	15.626
563.375	14.1306
565.117	13.4819
566.859	13.0773
568.601	12.5333
570.342	11.2621
572.083	10.9239
573.824	10.1283
575.565	9.28969
577.303	8.16566
579.043	7.54634
580.782	6.36055
582.521	5.46988
584.26	5.16352
585.998	4.87187
587.734	5.10207
589.472	4.81461
591.21	5.17745
592.947	5.04951
594.684	5.56581
596.418	6.70493
598.154	7.80943
599.89	8.86832
601.626	8.14436
603.361	9.53744
605.094	10.8384
606.828	11.0641
608.562	11.6319
610.296	12.0707
612.027	11.6812
613.761	11.4944
615.493	12.4432
617.224	12.9142
618.956	13.6436
620.688	13.0814
622.419	13.3256
624.149	13.5427
625.879	14.3931
627.61	14.8242
629.338	14.8753
631.068	16.1705
632.797	16.6719
634.525	17.5068
636.254	18.1571
637.98	19.5898
639.708	20.3276
641.436	19.4722
643.162	19.3445
644.889	19.6784
646.614	19.9131
648.34	18.8195
650.067	17.5845
651.791	17.6596
653.516	16.6038
655.239	15.7141
656.964	15.696
658.687	15.6187
660.411	15.6243
662.133	15.6188
663.857	15.4047
665.58	15.4413
667.301	15.6353
669.024	13.9847
670.744	14.4318
672.464	13.9354
674.186	13.2772
675.905	12.6957
677.626	12.7204
679.345	13.3689
681.065	15.2312
682.783	16.7551
684.503	16.0265
686.22	15.082
687.939	14.6934
689.656	16.2351
691.372	15.7999
693.09	16.2641
694.806	15.5746
696.523	16.5816
698.239	17.1741
699.953	17.7152
701.67	18.3795
703.384	18.7559
705.098	19.0841
706.813	19.4907
708.526	19.9285
710.239	20.946
711.954	21.0008
713.666	22.2923
715.378	23.5071
717.091	25.3902
718.802	25.0686
720.513	24.7513
722.226	24.5365
723.936	24.8396
725.646	25.1395
727.355	24.8947
729.067	24.732
730.776	24.8496
732.484	25.34
734.192	24.5975
735.902	24.4968
737.61	24.5988
739.317	24.8132
741.024	26.3946
742.731	27.0555
744.439	27.506
746.145	27.5464
747.851	27.484
749.556	27.6058
751.262	28.4374
752.966	29.3195
754.673	29.0254
756.377	30.9326
758.081	31.8671
759.784	33.8243
761.487	35.8627
763.19	37.724
764.892	40.239
766.594	41.6407
768.296	42.5811
770	43.1484
771.701	45.3292
773.402	47.3166
775.102	48.2827
776.803	49.4844
778.503	50.9482
780.202	52.0684
781.901	54.5656
783.6	55.6939
785.299	56.4179
786.997	58.1522
788.695	58.2981
790.393	59.1037
792.09	59.0197
793.787	58.6554
795.484	58.856
797.18	59.1818
798.877	60.2025
800.572	59.701
802.268	59.8851
803.963	58.6159
805.658	57.6397
807.35	57.2916
809.044	57.8822
810.738	57.7647
812.432	56.4027
814.125	55.6756
815.818	55.5967
817.51	54.5752
819.202	53.1458
820.894	52.5195
822.584	52.34
824.275	52.1416
825.966	51.6472
827.657	50.6294
829.347	50.7189
831.037	51.0678
832.725	51.8546
834.414	53.0772
836.103	52.9344
837.792	52.1386
839.481	51.6685
841.167	52.6613
842.854	52.8058
844.542	53.1478
846.229	53.6127
847.914	54.1435
849.6	54.2742
851.287	53.2066
852.973	52.8372
854.656	52.564
856.341	52.0156
858.026	50.4567
859.711	49.6173
861.393	50.0993
863.077	49.4803
864.761	49.8678
866.442	48.7706
868.125	47.3469
869.808	46.9986
871.489	46.2537
873.171	45.0598
874.85	44.7229
876.532	42.7787
878.213	42.0855
879.892	41.8347
881.572	41.2492
883.251	39.7631
884.931	39.2148
886.61	39.0553
888.287	37.8398
889.966	37.4746
891.643	37.5746
893.321	36.7616
894.997	35.7063
896.675	34.7438
898.352	34.0464
900.028	33.4503
901.704	32.9338
903.379	32.4794
905.055	31.9758
906.729	31.3013
908.404	30.525
910.077	31.2955
911.75	31.1838
913.425	31.866
915.097	31.6521
916.771	31.8116
918.443	31.5747
920.116	30.7861
921.787	30.6715
923.46	30.5138
925.13	31.692
926.8	31.5139
928.472	31.529
930.141	30.1634
931.813	29.2724
933.481	28.5799
935.15	28.4581
936.82	28.4974
938.488	27.8719
940.156	27.1171
941.825	27.1132
943.492	27.667
945.158	27.4324
946.827	26.627
948.493	25.9026
950.158	23.7897
951.824	23.6784
953.491	22.16
955.156	22.076
956.82	21.3124
958.486	20.1039
960.15	18.5168
961.814	19.4556
963.477	20.0859
965.142	20.2449
966.804	19.891
968.467	21.1845
970.129	22.2947
971.79	21.8698
973.454	22.5432
975.115	22.163
976.776	21.1098
978.436	20.6028
980.096	19.8525
981.756	19.8054
983.417	20.0203
985.077	19.8615
986.736	19.3917
988.394	19.2063
990.052	18.4946
991.71	18.5425
993.368	20.3903
995.025	19.5559
996.682	19.0572
998.341	17.4013
999.998	17.5197
1001.65	16.5612
1003.31	16.3622
1004.97	15.213
1006.62	15.1677
1008.28	15.5794
1009.93	15.416
1011.58	15.2874
1013.24	16.3801
1014.89	18.6779
1016.54	20.3983
1018.2	21.4744
1019.85	23.1562
1021.5	24.8286
1023.16	26.771
1024.81	28.2961
1026.46	29.6377
1028.11	29.8737
1029.76	31.28
1031.41	31.8064
1033.06	31.9446
1034.71	33.4611
1036.36	34.0435
1038.01	36.0362
1039.66	36.2059
1041.31	36.8873
1042.95	37.8937
1044.6	39.5342
1046.25	40.3848
1047.9	41.177
1049.54	41.3301
1051.19	42.3642
1052.84	42.2704
1054.48	40.6435
1056.13	39.516
1057.77	37.8981
1059.42	37.3417
1061.06	36.4071
1062.71	35.8115
1064.35	35.6249
1066	34.0043
1067.64	32.0246
1069.28	30.8832
1070.93	30.0922
1072.57	28.5461
1074.21	26.5498
1075.85	24.6355
1077.49	21.1303
1079.13	18.6126
1080.78	16.7281
1082.42	15.6731
1084.06	13.8805
1085.7	12.7783
1087.34	12.3894
1088.97	12.8841
1090.61	13.0373
1092.25	13.3114
1093.89	13.0074
1095.53	13.6743
1097.17	13.1269
1098.8	13.5663
1100.44	14.5653
1102.08	15.6737
1103.71	15.7145
1105.35	14.8087
1106.99	13.4538
1108.62	14.1015
1110.26	13.5602
1111.89	13.7356
1113.52	13.0495
1115.16	12.7396
1116.79	12.3191
1118.43	12.484
1120.06	12.6204
1121.69	12.4073
1123.32	11.4522
1124.96	11.9745
1126.59	12.2748
1128.22	12.4121
1129.85	13.1415
1131.48	12.4225
1133.11	11.9335
1134.75	10.842
1136.37	10.1111
1138	10.1289
1139.63	10.3754
1141.26	10.9281
1142.89	9.68743
1144.52	10.1127
1146.15	9.26017
1147.78	8.13704
1149.4	8.04972
1151.03	7.24497
1152.66	6.86079
1154.28	6.26742
1155.91	5.37955
1157.54	5.63795
1159.16	4.58201
1160.79	3.54796
1162.41	2.70853
1164.04	2.84078
1165.66	3.20971
1167.29	3.80585
1168.91	3.74153
1170.53	2.60056
1172.16	2.56773
1173.78	2.72538
1175.4	3.32923
1177.02	3.73924
1178.65	3.68064
1180.27	4.30807
1181.89	5.32127
1183.51	5.14067
1185.13	5.40494
1186.75	5.92423
1188.37	5.74662
1189.99	7.33233
1191.61	7.67535
1193.23	7.89498
1194.85	8.07635
1196.47	7.43109
1198.08	7.0479
1199.7	8.10576
1201.32	8.08919
1202.94	8.28213
1204.55	9.54171
1206.17	10.1453
1207.79	10.0626
1209.4	11.3802
1211.02	12.8635
1212.63	13.382
1214.25	14.3168
1215.86	15.2483
1217.48	16.4771
1219.09	17.6494
1220.71	18.6817
1222.32	20.037
1223.93	20.6283
1225.54	22.4115
1227.16	22.3306
1228.77	24.0505
1230.38	25.7289
1231.99	26.9436
1233.6	28.5687
1235.22	30.7309
1236.83	31.2872
1238.44	32.0868
1240.05	32.3906
1241.66	34.4031
1243.26	35.4212
1244.87	38.2101
1246.48	39.5431
1248.09	40.3549
1249.7	41.604
1251.31	43.2696
1252.92	44.9681
1254.52	46.7933
1256.13	47.4454
1257.74	47.9161
1259.34	49.8455
1260.95	52.5024
1262.55	54.6192
1264.16	56.0371
1265.76	57.4911
1267.37	58.7982
1268.97	59.3977
1270.58	61.3777
1272.18	62.2916
1273.78	63.4234
1275.39	64.5057
1276.99	65.9146
1278.59	67.6874
1280.2	70.2719
1281.8	71.8095
1283.4	73.4142
1285	75.8157
1286.6	77.2485
1288.2	80.0855
1289.8	81.5112
1291.4	81.5483
1293	82.7829
1294.6	84.0414
1296.2	85.5661
1297.8	86.8406
1299.4	87.5369
1301	88.2434
1302.6	88.1781
1304.19	88.1699
1305.79	89.3267
1307.39	88.6052
1308.99	88.8413
1310.58	88.8485
1312.18	88.443
1313.77	87.6714
1315.37	87.4345
1316.96	86.0964
1318.56	85.0076
1320.15	84.3176
1321.75	83.3389
1323.34	81.6139
1324.94	82.2516
1326.53	80.3617
1328.12	80.142
1329.72	79.7823
1331.31	77.1732
1332.9	75.5956
1334.49	75.5124
1336.08	73.773
1337.67	74.3004
1339.27	73.9009
1340.86	73.267
1342.45	72.2718
1344.04	71.5554
1345.63	70.5007
1347.22	70.354
1348.8	69.161
1350.39	68.7289
1351.98	67.8256
1353.57	67.3336
1355.16	66.1985
1356.75	65.9678
1358.33	65.1602
1359.92	64.6163
1361.51	64.1087
1363.09	63.833
1364.68	64.4945
1366.27	64.0056
1367.85	63.1262
1369.44	62.5557
1371.02	62.9473
1372.61	62.7642
1374.19	62.5439
1375.77	62.4089
1377.36	61.9213
1378.94	61.5905
1380.52	61.8095
1382.11	61.8746
1383.69	61.592
1385.27	62.3889
1386.85	60.9358
1388.43	61.677
1390.02	61.8218
1391.6	62.2382
1393.18	62.1725
1394.76	62.4073
1396.34	62.6444
1397.92	63.0938
1399.5	63.9704
1401.08	65.2313
1402.65	66.81
1404.23	68.938
1405.81	70.235
1407.39	72.7039
1408.97	74.1811
1410.54	76.4622
1412.12	79.2028
1413.7	81.2201
1415.27	83.4142
1416.85	87.0991
1418.43	90.5634
1420	93.8626
1421.58	96.4808
1423.15	99.4976
1424.73	103.074
1426.3	106.866
1427.87	110.136
1429.45	114.342
1431.02	117.646
1432.6	121.233
1434.17	124.554
1435.74	127.604
1437.31	129.912
1438.89	131.985
1440.46	133.83
1442.03	134.788
1443.6	136.723
1445.17	137.043
1446.74	136.659
1448.31	136.21
1449.88	135.179
1451.45	134.583
1453.02	135.333
1454.59	133.944
1456.16	132.575
1457.72	131.39
1459.29	129.076
1460.86	126.006
1462.43	122.957
1463.99	120.517
1465.56	116.966
1467.13	113.472
1468.69	108.874
1470.26	106.03
1471.83	101.708
1473.39	97.9272
1474.95	94.636
1476.52	91.0406
1478.08	87.701
1479.65	84.376
1481.21	80.6935
1482.78	76.6308
1484.34	73.424
1485.9	70.7949
1487.47	67.9352
1489.03	64.6142
1490.59	60.4688
1492.15	58.4955
1493.71	56.5127
1495.27	55.1184
1496.84	53.6225
1498.39	51.3153
1499.96	49.455
1501.52	48.815
1503.07	48.6912
1504.64	47.0659
1506.19	45.5038
1507.75	44.4003
1509.31	43.3216
1510.87	41.7204
1512.43	40.7717
1513.98	39.3656
1515.54	37.9567
1517.1	36.0948
1518.65	35.1535
1520.21	35.9178
1521.77	36.3688
1523.32	35.6265
1524.88	35.5528
1526.44	36.593
1527.99	37.8711
1529.54	38.2376
1531.1	38.7161
1532.65	38.2127
1534.21	38.4795
1535.76	38.7135
1537.31	38.0123
1538.87	38.3808
1540.42	39.0696
1541.97	40.2261
1543.52	41.2051
1545.07	41.4815
1546.63	42.8893
1548.18	44.8185
1549.73	45.7107
1551.28	46.7195
1552.83	48.3161
1554.38	49.2272
1555.93	50.8487
1557.48	52.4602
1559.03	54.0305
1560.57	55.8432
1562.12	58.1179
1563.67	59.8951
1565.22	61.4573
1566.77	63.3471
1568.31	65.4356
1569.86	67.2325
1571.41	68.3561
1572.95	71.4523
1574.5	73.4493
1576.05	75.2175
1577.59	77.2161
1579.14	79.9798
1580.68	82.0717
1582.23	82.8048
1583.77	85.8018
1585.31	87.8564
1586.86	90.0598
1588.4	90.674
1589.95	92.683
1591.49	94.1278
1593.03	94.8487
1594.57	95.5469
1596.11	97.1163
1597.66	99.3997
1599.2	99.3646
1600.74	99.5198
1602.28	98.9025
1603.82	98.3949
1605.36	98.0922
1606.9	97.2266
1608.44	96.7629
1609.98	95.7556
1611.52	95.3888
1613.06	94.8259
1614.6	93.3139
1616.13	93.3128
1617.67	91.9785
1619.21	91.3747
1620.75	90.6797
1622.28	90.1449
1623.82	90.1113
1625.36	90.5399
1626.89	90.5056
1628.43	89.3545
1629.96	89.1914
1631.5	88.576
1633.04	88.5928
1634.57	88.3268
1636.11	87.1722
1637.64	86.4558
1639.17	85.2452
1640.71	85.1207
1642.24	84.5271
1643.77	84.2475
1645.31	83.5583
1646.84	83.1757
1648.37	83.9716
1649.9	84.1305
1651.43	83.0817
1652.96	82.7751
1654.5	82.123
1656.03	80.2247
1657.56	79.0902
1659.09	76.8366
1660.62	75.5338
1662.15	72.8088
1663.67	71.646
1665.2	68.8652
1666.73	67.2213
1668.26	64.424
1669.79	62.1377
1671.32	60.1515
1672.84	58.7924
1674.37	56.3611
1675.9	53.5174
1677.43	51.7307
1678.95	49.6862
1680.48	48.6203
1682	46.8426
1683.53	44.9916
1685.05	43.1184
1686.58	41.7811
1688.1	40.1176
1689.63	37.7424
1691.15	36.119
1692.68	35.8005
1694.2	34.0699
1695.72	33.3235
1697.25	31.9338
1698.77	31.3995
1700.29	31.0022
1701.81	30.085
1703.33	28.6801
1704.86	27.6677
1706.38	27.1307
1707.9	26.5804
1709.42	24.631
1710.94	23.7031
1712.46	23.1305
1713.98	22.3769
1715.5	22.7782
1717.02	22.4452
1718.54	21.851
1720.06	22.1021
1721.57	22.3571
1723.09	22.5859
1724.61	21.9805
1726.13	21.3607
1727.64	21.1303
1729.16	20.6525
1730.68	19.6737
1732.19	19.2503
1733.71	19.8626
1735.23	19.2154
1736.74	18.9842
1738.26	18.3899
1739.77	18.3368
1741.29	17.1498
1742.8	16.7156
1744.31	16.8273
1745.83	16.471
1747.34	15.415
1748.85	14.9497
1750.37	14.075
1751.88	14.0198
1753.39	14.1426
1754.91	13.5501
1756.42	13.0171
1757.93	11.9778
1759.44	11.738
1760.95	11.2779
1762.46	11.1786
1763.97	10.7957
1765.48	10.2696
1766.99	10.214
1768.5	10.1156
1770.01	9.13754
1771.52	8.92105
1773.03	8.77983
1774.54	8.8816
1776.04	8.29618
1777.55	7.41741
1779.06	7.14734
1780.57	6.15945
1782.07	5.05365
1783.58	4.57158
1785.09	3.83336
1786.59	4.89472
1788.1	4.99862
1789.6	4.56284
1791.11	5.10913
1792.61	4.55619
1794.12	4.96715
1795.62	5.93028
1797.13	6.60355
1798.63	7.04022
1800.13	7.11487
1801.64	7.72931
1803.14	7.66528
1804.64	7.98862
1806.15	8.65395
1807.65	8.89376
1809.15	8.34704
1810.65	7.91935
1812.15	7.35745
1813.65	7.21907
1815.16	6.90497
1816.66	6.79545
1818.15	7.25995
1819.66	7.38673
1821.16	6.57553
1822.65	6.21146
1824.15	6.14748
1825.65	6.23056
1827.15	6.18549
1828.65	6.29263
1830.15	5.90668
1831.64	5.86066
1833.14	5.52366
1834.64	5.66418
1836.14	6.67345
1837.63	6.79867
1839.13	7.55336
1840.62	6.84694
1842.12	6.54187
1843.62	6.09611
1845.11	5.59194
1846.61	5.19625
1848.1	5.01832
1849.6	4.32142
1851.09	4.58092
1852.58	3.543
1854.08	2.74065
1855.57	1.84624
1857.06	2.20756
1858.55	2.34735
1860.05	2.59301
1861.54	3.11896
1863.03	3.05463
1864.52	3.08488
1866.01	3.31939
1867.5	3.40036
1869	3.75046
1870.49	4.24889
1871.98	4.22895
1873.47	3.87901
1874.96	3.96934
1876.44	4.26775
1877.93	3.76103
1879.42	4.68937
1880.91	4.38152
1882.4	4.01814
1882.47	4.02053
1883.96	4.65061
1885.46	4.49041
1886.95	4.38532
1888.44	4.52032
1889.94	4.4145
1891.43	4.21536
1892.93	3.6814
1894.42	3.54889
1895.91	4.06403
1897.4	4.02447
1898.89	3.56859
1900.39	2.88939
1901.88	2.80675
1903.37	2.93675
1904.86	2.65496
1906.35	2.01963
1907.84	2.37582
1909.33	2.38386
1910.82	1.51598
1912.31	1.04552
1913.8	0.118045
1915.29	-0.00803435
1916.77	-0.414423
1918.26	-0.457498
1919.75	-0.311893
1921.24	0.120544
1922.73	-0.0448365
1924.21	0.061744
1925.7	-0.139974
1927.19	0.446755
1928.67	0.561108
1930.16	1.13331
1931.64	0.976309
1933.13	1.2399
1934.61	1.44635
1936.1	1.92756
1937.58	1.74968
1939.07	1.68491
1940.55	1.83843
1942.04	1.76909
1943.52	2.02443
1945	1.98585
1946.49	2.03975
1947.97	3.25164
1949.45	3.31054
1950.93	3.53771
1952.42	3.89887
1953.9	3.67136
1955.38	3.7203
1956.86	3.58148
1958.34	3.54374
1959.82	3.16412
1961.3	3.51951
1962.78	3.66139
1964.26	3.54661
1965.74	4.05485
1967.22	4.23728
1968.7	4.57509
1970.18	4.27836
1971.65	2.78401
1973.13	2.55516
1974.61	2.96309
1976.09	3.19572
1977.57	3.10813
1979.04	2.80829
1980.52	3.08493
1982	3.47459
1983.47	2.93021
1984.95	2.68406
1986.42	3.15264
1987.9	3.24684
1989.37	3.12
1990.85	2.94904
1992.32	3.31209
1993.8	3.16251
1995.27	3.51923
1996.75	3.05225
1998.22	2.85188
1999.69	2.96181
2001.17	2.39884
2002.64	1.63259
2004.11	2.04935
2005.58	2.3596
2007.05	2.38577
2008.53	2.18294
2010	1.97562
2011.47	0.929755
2012.94	1.58412
2014.41	1.87447
2015.88	1.4488
2017.35	1.81138
2018.82	1.48417
2020.29	0.776227
2021.76	1.34224
2023.23	0.41686
2024.7	0.0697975
2026.16	-0.474395
2027.63	-0.15699
2029.1	-0.603968
2030.57	-0.403209
2032.03	-0.207001
2033.5	-0.107161
2034.97	0.472231
2036.44	0.755263
2037.9	1.07775
2039.37	0.761985
2040.83	0.753147
2042.3	1.50318
2043.76	1.46321
2045.23	1.42571
2046.69	2.6752
2048.16	2.79058
2049.62	3.08887
2051.08	3.14823
2052.55	3.72886
2054.01	4.79601
2055.47	5.36417
2056.94	5.42826
2058.4	6.45318
2059.86	7.18564
2061.32	7.19195
2062.79	7.9667
2064.25	7.99792
2065.71	9.05535
2067.17	9.41627
2068.63	10.6642
2070.09	11.0688
2071.55	11.8177
2073.01	12.63
2074.47	12.7276
2075.93	13.5054
2077.39	15.0181
2078.85	15.0467
2080.31	15.1775
2081.76	15.9967
2083.22	16.8984
2084.68	17.6532
2086.13	18.5945
2087.59	18.6365
2089.05	18.9895
2090.51	19.9238
2091.96	20.0438
2093.42	21.2876
2094.87	22.5643
2096.33	22.749
2097.78	23.9731
2099.24	24.2554
2100.69	24.8988
2102.15	25.7931
2103.6	26.8335
2105.06	27.8307
2106.51	28.622
2107.96	29.807
2109.42	30.3974
2110.87	30.6803
2112.32	31.5781
2113.77	32.9627
2115.23	33.6543
2116.68	33.4906
2118.13	34.3844
2119.58	35.3095
2121.03	36.3836
2122.48	38.2417
2123.93	38.7992
2125.38	40.6306
2126.83	42.1774
2128.28	42.9613
2129.73	44.6262
2131.18	46.3046
2132.63	47.1409
2134.08	48.6213
