#Acq. time (s)=	45
#Accumulations=	2
#Range (cm-¹)=	200...3150
#Windows=	2
#Auto scanning=	Off
#Autofocus=	Off
#Macrospot=	Off
#AutoExposure=	Off
#Spike filter=	Multiple accum.
#Delay time (s)=	0
#Binning=	1
#Readout mode=	Signal
#DeNoise=	Off
#ICS correction=	On
#Dark correction=	Off
#Inst. Process=	Off
#Detector Gain=	Best Dynamic Range
#Detector ADC=	20 kHz       
#Detector temperature (°C)=	-69.85
#Instrument=	LabRAM HR Evol
#Detector=	Synapse
#Objective=	x100
#Grating=	600 gr/mm
#ND Filter=	100%
#Laser (nm)=	532 
#Hole=	100.021
#Range=	Auto
#Laser Pol.=	No
#Raman. Pol.=	No
#Laser Pol. (°)=	-0.0007625
#Raman Pol. (°)=	89.9995
#Collection=	Microscope
#StageXY=	Marzhauser
#StageZ=	Marzhauser
#X (µm)=	-1108.8
#Y (µm)=	602.3
#Z (µm)=	583.8
#Full time(mm:ss)=	3:18
#Project=	
#Sample=	
#Site=	
#Title=	Mb_40_y_35_2x_45s_532 nm_x100_100%_600 gr_mm
#Remark=	
#Date=	19.07.2022 12:17
#Acquired=	19.07.2022 12:17:01
#Base:Fit=	10.08.2022 10:52:48
#Base:Sub=	10.08.2022 10:52:53
#Filter:Polynom=	16.08.2022 10:09:04
#AxisType[0]=Intens
#AxisUnit[0]=Cnt
#AxisType[1]=Spectr
#AxisUnit[1]=1/cm
200.423	11.0747
202.238	11.1546
204.052	11.4765
205.868	11.4023
207.682	11.1383
209.495	10.7915
211.308	10.0935
213.12	10.3351
214.935	9.81284
216.746	9.58872
218.558	8.66921
220.369	7.62299
222.18	6.38013
223.992	5.66648
225.802	4.47846
227.612	3.50669
229.421	3.13579
231.23	3.38385
233.039	3.42437
234.849	3.04472
236.657	2.90432
238.465	3.67471
240.272	3.25567
242.079	3.44031
243.885	3.85277
245.691	4.59574
247.497	4.93378
249.305	5.34299
251.11	6.00674
252.915	6.43445
254.719	6.54031
256.523	5.37386
258.327	5.07464
260.13	6.26115
261.933	7.84875
263.736	8.99719
265.538	10.7732
267.34	11.3793
269.141	11.3031
270.943	12.2404
272.744	12.8341
274.544	12.9393
276.344	13.1949
278.144	13.8199
279.944	14.4684
281.743	15.1235
283.542	15.6918
285.34	15.6842
287.138	16.5113
288.936	16.5679
290.733	16.3229
292.53	16.8066
294.327	16.94
296.123	16.6646
297.919	16.4382
299.715	16.5873
301.508	16.7433
303.303	16.4646
305.098	15.4927
306.892	14.5847
308.686	13.3062
310.479	12.6859
312.273	12.2224
314.065	12.0364
315.858	11.2065
317.648	12.2397
319.44	12.753
321.231	12.6126
323.022	12.2119
324.813	11.2518
326.604	11.0225
328.392	10.7717
330.181	9.87434
331.971	9.40545
333.76	9.0232
335.548	9.18066
337.335	8.89455
339.123	8.79994
340.91	7.89503
342.698	6.8636
344.483	6.30222
346.269	6.63961
348.055	6.79506
349.841	6.67969
351.625	5.98619
353.41	5.66197
355.195	4.63845
356.977	4.31457
358.762	5.03516
360.545	6.41332
362.329	6.39468
364.11	6.0544
365.893	5.09782
367.675	5.58836
369.455	5.904
371.237	5.9178
373.017	5.76222
374.798	5.68537
376.578	6.44993
378.357	6.06548
380.137	6.09304
381.917	6.55139
383.694	6.15641
385.473	5.8214
387.249	6.70229
389.028	6.78449
390.806	6.32456
392.581	5.7699
394.359	5.46487
396.134	5.40097
397.91	6.07474
399.684	6.59255
401.46	7.01627
403.234	7.6958
405.009	8.14256
406.784	8.48099
408.557	7.59789
410.331	7.46569
412.103	7.72167
413.876	6.52893
415.647	7.22064
417.42	7.54638
419.191	7.41578
420.961	7.48266
422.733	8.1771
424.502	8.77805
426.273	8.99141
428.042	8.63807
429.812	8.03264
431.58	8.08429
433.35	8.44308
435.118	7.56265
436.885	6.75979
438.653	6.25329
440.42	6.73693
442.188	7.42878
443.954	7.99867
445.719	8.42685
447.486	7.79485
449.251	7.36541
451.015	6.74766
452.781	6.60116
454.545	6.61378
456.308	7.67797
458.073	7.68558
459.836	7.11488
461.598	7.04807
463.362	7.18302
465.124	8.00453
466.885	8.02492
468.648	9.06789
470.408	10.0683
472.169	9.76255
473.929	9.90699
475.69	9.95331
477.45	10.0821
479.208	9.95286
480.967	9.7258
482.727	10.0897
484.485	10.9327
486.243	11.3623
488	11.6552
489.759	12.5848
491.515	12.8509
493.272	13.3435
495.028	13.9533
496.783	14.0103
498.54	15.3336
500.295	15.5492
502.05	15.2839
503.804	16.2173
505.558	16.0047
507.311	15.6621
509.064	15.6076
510.819	16.3942
512.572	16.4997
514.324	16.663
516.076	16.5748
517.827	16.3548
519.578	16.1833
521.329	16.168
523.08	15.1484
524.83	16.1379
526.58	16.0342
528.329	16.3352
530.08	15.9748
531.829	16.0645
533.578	15.3382
535.326	14.8065
537.074	14.3184
538.821	13.8645
540.568	13.9112
542.315	12.9776
544.062	12.5177
545.808	12.1356
547.554	12.3518
549.299	12.2232
551.044	12.5778
552.789	12.5116
554.533	12.0133
556.278	11.6601
558.019	11.1833
559.763	9.8209
561.506	8.97728
563.249	8.6434
564.991	8.05112
566.733	6.79212
568.475	6.28576
570.217	6.70547
571.958	7.0165
573.699	7.10814
575.439	6.94286
577.177	6.30805
578.917	5.01277
580.656	5.41318
582.396	4.21072
584.134	3.12001
585.873	3.4395
587.609	1.91109
589.347	1.42686
591.084	1.76453
592.822	1.21938
594.558	1.30762
596.295	1.6976
598.029	2.23492
599.765	1.59608
601.5	1.95215
603.235	2.1737
604.968	1.67971
606.703	2.1674
608.437	1.9109
610.171	2.20185
611.902	3.10366
613.635	4.15647
615.368	4.98748
617.099	5.45054
618.831	5.95793
620.563	6.32863
622.294	6.7305
624.024	7.31526
625.755	7.98606
627.485	8.8468
629.213	9.04552
630.943	10.2428
632.673	11.2153
634.4	11.1478
636.129	10.6574
637.855	11.1249
639.584	11.4477
641.312	12.0358
643.037	12.5471
644.764	13.226
646.491	12.4757
648.216	12.8355
649.942	13.681
651.666	14.5638
653.392	16.0891
655.115	17.1792
656.84	17.6136
658.563	17.5864
660.287	17.6901
662.011	17.5718
663.732	17.0564
665.456	17.4864
667.177	17.8822
668.899	18.1063
670.62	18.9594
672.342	19.6737
674.061	20.4839
675.781	21.6067
677.502	22.8931
679.22	23.3512
680.941	25.0774
682.659	26.3676
684.379	27.2868
686.096	28.7954
687.815	29.7807
689.532	31.1681
691.248	32.1625
692.966	33.6718
694.682	34.9789
696.4	37.4426
698.115	38.4313
699.829	40.4996
701.546	41.5817
703.26	42.1487
704.974	43.3418
706.689	43.8551
708.402	43.1714
710.115	43.1159
711.83	42.993
713.542	43.5372
715.254	42.937
716.967	42.9079
718.679	41.6217
720.39	40.4668
722.102	40.7595
723.812	40.8684
725.522	41.0178
727.232	40.4482
728.943	40.7947
730.652	41.4737
732.361	41.8488
734.069	42.9192
735.779	42.9595
737.487	43.6407
739.194	43.2094
740.901	42.8745
742.608	42.9083
744.316	44.1667
746.022	44.8491
747.728	45.9965
749.433	47.2409
751.138	48.9881
752.843	49.8743
754.549	51.5554
756.254	52.9038
757.957	54.4325
759.661	55.6601
761.364	56.8501
763.067	58.1256
764.769	59.2974
766.471	60.7479
768.175	61.9772
769.877	62.5789
771.578	63.9639
773.279	65.1542
774.98	67.1965
776.68	69.0381
778.38	70.5562
780.079	72.4629
781.779	73.7539
783.478	73.605
785.176	74.6274
786.875	75.1893
788.573	74.6507
790.27	75.3801
791.968	75.1343
793.665	75.1685
795.361	76.7093
797.058	77.3121
798.754	77.6002
800.45	77.442
802.145	77.4212
803.84	76.7751
805.535	76.9127
807.23	77.4512
808.922	76.7628
810.616	77.1412
812.309	77.3916
814.002	78.0043
815.695	77.4711
817.388	77.4831
819.08	77.4411
820.772	77.0591
822.464	77.6842
824.153	77.4245
825.844	77.8024
827.535	77.8409
829.225	78.1799
830.915	77.9053
832.605	77.6089
834.292	77.0077
835.981	75.658
837.67	74.001
839.359	73.4485
841.047	72.2683
842.732	69.8505
844.42	68.0352
846.107	66.0313
847.794	64.7137
849.479	63.8295
851.165	62.9112
852.851	61.5806
854.534	60.1804
856.22	59.3281
857.905	58.7289
859.589	57.6734
861.272	56.6111
862.956	55.2334
864.639	54.0745
866.321	52.354
868.004	50.1847
869.687	50.2792
871.367	49.5609
873.049	48.5838
874.731	48.836
876.41	47.9585
878.092	47.5146
879.771	47.8234
881.451	46.9784
883.131	46.5754
884.809	46.8017
886.489	46.5758
888.166	47.1737
889.845	46.3812
891.522	47.184
893.2	48.0649
894.878	48.9223
896.554	49.6068
898.231	49.3164
899.906	50.0183
901.583	50.5494
903.258	50.6029
904.934	50.5676
906.608	51.07
908.283	50.396
909.956	50.2756
911.631	50.1964
913.304	50.0755
914.976	49.3901
916.65	48.9178
918.322	48.59
919.995	46.919
921.666	45.6974
923.339	44.9148
925.009	44.5936
926.679	44.0799
928.351	43.7752
930.021	43.5113
931.692	43.671
933.361	42.7333
935.029	42.1983
936.699	41.6501
938.367	40.919
940.035	39.9103
941.704	39.319
943.371	37.8485
945.038	37.2005
946.706	36.4827
948.372	35.573
950.038	35.1719
951.705	34.4357
953.37	34.6499
955.035	34.209
956.7	34.7153
958.366	34.4459
960.03	33.7487
961.693	33.2817
963.357	33.5957
965.021	33.3734
966.684	32.9455
968.346	33.9257
970.008	33.0988
971.67	32.7122
973.334	32.0171
974.995	33.4463
976.655	33.3813
978.316	32.174
979.976	31.2466
981.638	30.0959
983.297	30.2028
984.957	28.4256
986.616	27.2486
988.274	26.4852
989.932	25.9666
991.59	25.4794
993.248	25.0275
994.907	24.1328
996.565	24.1609
998.221	22.6135
999.878	21.6502
1001.53	20.1593
1003.19	19.3039
1004.85	18.8877
1006.5	20.5016
1008.16	22.1788
1009.81	24.0978
1011.46	27.0068
1013.12	30.9217
1014.77	33.7038
1016.43	36.2987
1018.08	40.5281
1019.73	44.5765
1021.38	47.4981
1023.04	51.3487
1024.69	55.3601
1026.34	58.7413
1027.99	61.6587
1029.64	64.2003
1031.29	66.7641
1032.94	70.1524
1034.59	72.2524
1036.24	73.1836
1037.89	74.9981
1039.54	75.5038
1041.19	76.0861
1042.84	77.2397
1044.48	77.4028
1046.13	77.7168
1047.78	76.634
1049.42	76.1986
1051.07	76.0468
1052.72	73.7794
1054.36	72.5702
1056.01	71.6753
1057.66	69.0758
1059.3	66.0716
1060.94	62.3211
1062.59	58.3276
1064.23	54.2019
1065.88	51.0197
1067.52	46.677
1069.16	43.9548
1070.81	40.3901
1072.45	36.2592
1074.09	31.848
1075.73	27.9384
1077.38	23.8158
1079.02	20.1971
1080.66	15.4519
1082.3	12.4303
1083.94	9.9886
1085.58	9.24656
1087.22	8.40763
1088.86	8.83844
1090.5	9.04699
1092.13	9.8605
1093.77	10.1396
1095.41	10.0275
1097.05	9.58203
1098.68	10.0228
1100.32	10.8485
1101.96	11.1863
1103.6	11.2006
1105.23	11.9181
1106.87	11.7884
1108.5	11.6257
1110.14	11.6342
1111.77	13.0108
1113.41	13.4252
1115.04	13.0692
1116.67	12.6418
1118.31	12.6833
1119.94	13.9679
1121.58	13.8659
1123.21	14.3313
1124.84	14.2485
1126.47	14.2118
1128.1	14.2317
1129.73	13.8324
1131.37	14.3335
1133	13.6403
1134.63	12.5392
1136.26	13.3793
1137.89	13.1341
1139.52	12.5745
1141.14	12.8688
1142.77	11.9984
1144.4	11.7641
1146.03	12.1037
1147.66	13.0612
1149.29	12.4719
1150.91	12.3504
1152.54	11.4445
1154.17	9.91979
1155.79	10.0097
1157.42	9.96048
1159.04	9.12895
1160.67	8.63573
1162.3	7.83292
1163.92	7.18878
1165.55	7.14555
1167.17	6.55424
1168.79	5.66914
1170.42	5.14969
1172.04	5.19333
1173.66	5.05346
1175.28	4.35176
1176.91	3.38282
1178.53	2.7078
1180.15	3.0215
1181.77	2.9522
1183.39	3.8143
1185.01	4.45138
1186.63	5.34319
1188.25	4.54738
1189.87	4.60358
1191.49	4.60182
1193.11	5.08105
1194.73	3.4207
1196.35	3.8181
1197.97	4.45513
1199.59	4.54655
1201.2	4.64391
1202.82	4.28813
1204.44	4.51425
1206.05	4.66402
1207.67	5.41398
1209.29	5.56672
1210.9	6.55314
1212.52	7.70602
1214.13	9.01435
1215.75	10.266
1217.36	11.2804
1218.97	11.8777
1220.59	13.1371
1222.2	13.564
1223.82	15.196
1225.43	16.0223
1227.04	16.5047
1228.65	17.3549
1230.26	18.1355
1231.88	18.9335
1233.49	19.5735
1235.1	20.5188
1236.71	22.5218
1238.32	23.0136
1239.93	23.2595
1241.54	23.4025
1243.15	23.8653
1244.76	24.513
1246.37	25.4852
1247.97	25.6274
1249.58	26.6101
1251.19	27.6352
1252.8	28.4924
1254.41	28.6482
1256.01	28.9931
1257.62	30.3817
1259.23	31.2135
1260.83	32.3251
1262.44	32.4524
1264.04	32.945
1265.65	32.928
1267.25	32.5697
1268.86	32.4329
1270.46	33.5449
1272.07	34.5114
1273.67	34.391
1275.27	33.0408
1276.88	34.1135
1278.48	34.6148
1280.08	35.5153
1281.68	35.4024
1283.28	35.2876
1284.89	36.1479
1286.49	37.1912
1288.09	38.516
1289.69	39.6204
1291.29	40.0872
1292.89	40.2621
1294.49	40.7088
1296.09	40.2691
1297.69	40.1223
1299.29	41.3091
1300.88	41.1432
1302.48	41.4185
1304.08	42.1802
1305.68	41.6715
1307.27	42.1922
1308.87	43.1986
1310.47	42.9418
1312.06	43.3831
1313.66	43.0887
1315.25	43.5387
1316.85	43.0349
1318.44	44.0054
1320.04	44.8437
1321.63	45.721
1323.23	46.6019
1324.82	45.9995
1326.41	45.5019
1328.01	45.8421
1329.6	45.7809
1331.19	45.4015
1332.78	44.7396
1334.38	44.183
1335.97	43.532
1337.56	42.7156
1339.15	41.5779
1340.74	40.8359
1342.33	39.8979
1343.92	38.1566
1345.51	36.7847
1347.1	36.3605
1348.69	35.9925
1350.28	34.6023
1351.87	33.7047
1353.46	31.8629
1355.04	31.4531
1356.63	31.7827
1358.22	31.4954
1359.81	29.9402
1361.39	28.5037
1362.98	27.871
1364.57	27.5988
1366.15	27.0558
1367.74	26.188
1369.32	24.7995
1370.91	23.1049
1372.49	22.4455
1374.07	21.7894
1375.66	20.5753
1377.24	20.6491
1378.83	20.0638
1380.41	20.7784
1381.99	20.9941
1383.57	21.3156
1385.16	21.7708
1386.74	22.0628
1388.32	22.9918
1389.9	22.4279
1391.48	22.8591
1393.06	22.5968
1394.64	23.8167
1396.22	24.1432
1397.8	25.1812
1399.38	24.8525
1400.96	25.478
1402.54	26.0598
1404.12	26.052
1405.7	27.627
1407.28	29.3021
1408.85	28.767
1410.43	29.7535
1412.01	29.8036
1413.58	30.2091
1415.16	31.1095
1416.74	31.8226
1418.31	32.7641
1419.89	33.2595
1421.46	34.2612
1423.04	34.8406
1424.61	36.9091
1426.19	38.5518
1427.76	39.6028
1429.33	40.3919
1430.91	41.4726
1432.48	42.487
1434.05	43.811
1435.63	44.5172
1437.2	45.4261
1438.77	45.3845
1440.34	46.4919
1441.91	46.3993
1443.49	46.5829
1445.05	46.6701
1446.63	46.1199
1448.2	45.6878
1449.77	45.0527
1451.34	45.2916
1452.91	45.604
1454.47	45.728
1456.04	46.5086
1457.61	46.0601
1459.18	46.4508
1460.75	45.1274
1462.31	44.9581
1463.88	44.3999
1465.45	43.5901
1467.01	43.7441
1468.58	41.7616
1470.15	41.1512
1471.71	41.2462
1473.28	41.1878
1474.84	40.2374
1476.41	40.4552
1477.97	40.4882
1479.54	40.2672
1481.1	39.334
1482.66	38.8863
1484.23	37.553
1485.79	36.5421
1487.35	34.7997
1488.91	34.0838
1490.48	32.8832
1492.04	32.4631
1493.6	32.2647
1495.16	31.1393
1496.72	30.9936
1498.28	29.7398
1499.84	29.3376
1501.4	28.7261
1502.96	28.3554
1504.52	27.1971
1506.08	26.5916
1507.64	25.7155
1509.2	25.6835
1510.76	25.1571
1512.31	24.614
1513.87	24.7209
1515.43	24.1965
1516.99	22.647
1518.54	21.9378
1520.1	21.0188
1521.66	21.3347
1523.21	20.6692
1524.77	19.6425
1526.32	19.401
1527.88	19.0746
1529.43	18.8565
1530.99	18.6819
1532.54	18.9642
1534.09	19.6465
1535.65	19.294
1537.2	19.6826
1538.75	19.9318
1540.31	20.2173
1541.86	20.5585
1543.41	20.9172
1544.96	21.3875
1546.51	21.2892
1548.06	21.6224
1549.62	22.3036
1551.17	21.841
1552.72	22.0632
1554.27	22.7071
1555.82	22.5871
1557.36	22.4153
1558.91	22.7746
1560.46	23.5654
1562.01	22.4523
1563.56	23.2368
1565.11	23.2274
1566.66	23.4272
1568.2	24.1988
1569.75	25.1969
1571.3	25.6863
1572.84	26.03
1574.39	26.7005
1575.93	26.4283
1577.48	27.5368
1579.02	28.3688
1580.57	28.8051
1582.11	29.3113
1583.66	30.5725
1585.2	31.4607
1586.75	32.7727
1588.29	32.8567
1589.83	33.0341
1591.38	34.1957
1592.92	33.8
1594.46	33.6082
1596	34.2303
1597.54	34.8841
1599.09	34.5417
1600.63	33.7123
1602.17	33.6066
1603.71	33.8165
1605.25	33.8664
1606.79	33.9181
1608.33	35.3779
1609.87	35.2189
1611.41	35.459
1612.95	35.0074
1614.48	34.6344
1616.02	34.5982
1617.56	34.4846
1619.1	34.6495
1620.64	34.5994
1622.17	34.7055
1623.71	34.4137
1625.25	34.2936
1626.78	34.8031
1628.32	35.0504
1629.86	36.2014
1631.39	37.1063
1632.92	37.8238
1634.46	38.0766
1635.99	39.281
1637.53	40.4304
1639.06	41.0809
1640.59	42.4348
1642.13	43.0134
1643.66	43.747
1645.19	44.9909
1646.73	45.0706
1648.26	45.7892
1649.79	46.499
1651.32	46.9439
1652.85	47.0938
1654.38	48.3868
1655.92	49.2215
1657.45	49.3151
1658.98	49.0852
1660.51	49.756
1662.04	48.7044
1663.57	47.7379
1665.09	46.8866
1666.62	46.5833
1668.15	46.6856
1669.68	45.016
1671.21	44.2987
1672.73	43.2491
1674.26	42.2204
1675.79	40.6261
1677.31	39.1167
1678.84	37.6493
1680.37	35.7539
1681.89	34.4829
1683.42	33.1447
1684.94	31.4567
1686.47	28.3211
1687.99	26.9092
1689.52	25.6771
1691.04	24.107
1692.57	23.3229
1694.09	22.2781
1695.61	20.7003
1697.14	19.1114
1698.66	17.6599
1700.18	16.6732
1701.7	15.9257
1703.22	15.0636
1704.75	14.8609
1706.27	13.9314
1707.79	12.8977
1709.31	11.4157
1710.83	10.4942
1712.35	10.0248
1713.87	9.33368
1715.39	8.16249
1716.91	7.12411
1718.43	6.66595
1719.95	6.77005
1721.46	7.19625
1722.98	6.85436
1724.5	6.91811
1726.02	7.05041
1727.53	6.59089
1729.05	6.15344
1730.57	6.73361
1732.08	6.80941
1733.6	7.02212
1735.12	7.19517
1736.63	7.84217
1738.15	7.37276
1739.66	8.0728
1741.18	9.02609
1742.69	9.12164
1744.21	9.23826
1745.72	8.73463
1747.23	9.09748
1748.74	8.4774
1750.26	7.99667
1751.77	7.46455
1753.28	6.77242
1754.8	6.41809
1756.31	6.3942
1757.82	6.89153
1759.33	6.50626
1760.84	5.91486
1762.35	5.381
1763.86	5.9081
1765.37	6.75147
1766.88	6.08762
1768.39	5.63098
1769.9	5.25613
1771.41	4.30226
1772.92	3.98673
1774.43	3.39467
1775.93	3.21884
1777.44	2.67105
1778.95	2.39558
1780.46	2.09877
1781.96	1.02721
1783.47	0.648079
1784.98	0.338124
1786.48	0.770229
1787.99	0.659476
1789.49	1.29693
1791	1.46452
1792.5	2.34382
1794.01	2.10505
1795.51	2.50398
1797.02	2.35625
1798.52	2.18788
1800.03	2.44254
1801.53	3.44727
1803.03	3.61416
1804.53	4.46504
1806.04	5.44405
1807.54	5.72888
1809.04	6.23651
1810.54	6.66571
1812.04	7.45621
1813.54	7.18002
1815.05	7.11697
1816.55	7.18139
1818.05	6.89589
1819.55	6.67743
1821.05	5.92982
1822.55	5.60558
1824.05	5.0178
1825.54	5.00385
1827.04	5.2633
1828.54	4.8824
1830.04	4.9357
1831.54	5.38426
1833.03	5.44199
1834.53	5.31261
1836.03	4.94372
1837.52	4.9878
1839.02	5.14463
1840.52	5.01569
1842.01	4.37448
1843.51	4.39164
1845	4.53775
1846.5	4.37093
1847.99	4.13829
1849.49	3.71398
1850.98	3.87478
1852.47	3.61544
1853.97	3.41579
1855.46	3.16646
1856.95	2.68288
1858.45	2.78631
1859.94	3.6278
1861.43	3.76475
1862.92	3.78038
1864.41	3.88478
1865.91	3.47228
1867.4	3.12558
1868.89	2.66932
1870.38	3.47372
1871.87	3.63873
1873.36	4.07281
1874.85	4.51717
1876.34	5.37613
1877.83	5.43792
1879.31	5.11277
1880.8	4.64147
1882.29	4.516
1882.56	4.48173
1884.05	4.52564
1885.54	4.53545
1887.04	3.41402
1888.53	3.35368
1890.03	3.51357
1891.52	3.24468
1893.01	2.98389
1894.5	3.09508
1895.99	3.06136
1897.49	3.59091
1898.98	3.60229
1900.47	3.60676
1901.96	3.33681
1903.45	3.89677
1904.94	4.37623
1906.43	4.13408
1907.92	4.31436
1909.41	4.79363
1910.9	5.33044
1912.39	5.38506
1913.88	5.91706
1915.37	6.34899
1916.86	6.72122
1918.35	6.67304
1919.84	6.39821
1921.32	6.03886
1922.81	6.40141
1924.3	6.72367
1925.78	6.71421
1927.27	6.77013
1928.76	6.98833
1930.24	7.22427
1931.73	7.79795
1933.21	7.82323
1934.7	7.40415
1936.18	7.22525
1937.67	7.49952
1939.15	7.42065
1940.64	7.38746
1942.12	7.5575
1943.6	7.76001
1945.09	7.48537
1946.57	7.02197
1948.05	7.42868
1949.54	7.00562
1951.02	6.01437
1952.5	5.72753
1953.98	5.88066
1955.46	5.61
1956.94	5.72249
1958.42	5.24568
1959.91	5.22042
1961.39	4.32641
1962.87	4.48101
1964.34	4.83928
1965.82	4.67158
1967.3	4.81236
1968.78	5.08923
1970.26	4.79977
1971.74	5.21476
1973.22	5.40552
1974.7	5.69853
1976.17	5.65335
1977.65	6.25683
1979.13	5.92792
1980.6	6.06827
1982.08	6.52918
1983.56	6.56356
1985.03	6.38811
1986.51	6.30622
1987.98	6.65634
1989.46	6.00494
1990.93	5.65386
1992.41	5.39018
1993.88	5.98946
1995.36	6.17157
1996.83	6.45271
1998.3	5.69511
1999.78	5.45535
2001.25	5.46715
2002.72	5.64554
2004.2	5.92507
2005.67	6.16217
2007.14	6.52167
2008.61	6.85058
2010.08	6.86101
2011.55	7.12907
2013.02	6.88958
2014.49	6.40445
2015.97	6.47719
2017.43	5.92503
2018.9	5.97783
2020.37	6.4045
2021.84	6.78234
2023.31	6.56783
2024.78	6.52018
2026.25	7.25498
2027.72	7.15726
2029.19	6.91499
2030.65	7.48062
2032.12	6.98029
2033.59	7.85379
2035.05	8.11261
2036.52	8.55044
2037.98	8.42593
2039.45	8.31906
2040.92	8.58026
2042.38	8.661
2043.85	8.8406
2045.31	9.75189
2046.78	9.76479
2048.24	9.36312
2049.71	8.61268
2051.17	9.0399
2052.63	9.02369
2054.1	9.80218
2055.56	10.4579
2057.02	10.0457
2058.48	10.5015
2059.95	10.9362
2061.41	11.3452
2062.87	11.512
2064.33	11.8033
2065.79	12.0731
2067.25	13.3563
2068.71	13.301
2070.17	13.9981
2071.63	14.8249
2073.09	15.8681
2074.55	17.015
2076.01	17.0757
2077.47	17.6378
2078.93	18.7682
2080.39	19.6088
2081.85	20.2486
2083.3	21.2184
2084.76	21.8069
2086.22	23.0964
2087.68	23.7822
2089.13	25.2427
2090.59	25.811
2092.05	26.7616
2093.5	27.5602
2094.96	27.7338
2096.41	28.5149
2097.87	28.5824
2099.32	29.3913
2100.78	29.4899
2102.23	30.2239
2103.69	30.8152
2105.14	30.974
2106.59	32.0771
2108.05	32.3565
2109.5	32.7567
2110.95	33.2774
2112.41	34.0326
2113.86	35.2888
2115.31	35.5391
2116.76	36.15
2118.21	36.5676
2119.67	36.5064
2121.12	37.014
2122.57	38.1058
2124.02	39.2573
2125.47	40.6213
2126.92	41.4305
2128.37	42.3677
2129.82	42.8251
2131.27	44.4765
2132.71	45.7977
2134.16	46.6794
2135.61	47.7319
