#Acq. time (s)=	45
#Accumulations=	2
#Range (cm-¹)=	200...3150
#Windows=	2
#Auto scanning=	Off
#Autofocus=	Off
#Macrospot=	Off
#AutoExposure=	Off
#Spike filter=	Multiple accum.
#Delay time (s)=	0
#Binning=	1
#Readout mode=	Signal
#DeNoise=	Off
#ICS correction=	On
#Dark correction=	Off
#Inst. Process=	Off
#Detector Gain=	Best Dynamic Range
#Detector ADC=	20 kHz       
#Detector temperature (°C)=	-70.08
#Instrument=	LabRAM HR Evol
#Detector=	Synapse
#Objective=	x100
#Grating=	600 gr/mm
#ND Filter=	100%
#Laser (nm)=	532 
#Hole=	100.021
#Range=	Auto
#Laser Pol.=	No
#Raman. Pol.=	No
#Laser Pol. (°)=	-0.0007625
#Raman Pol. (°)=	89.9995
#Collection=	Microscope
#StageXY=	Marzhauser
#StageZ=	Marzhauser
#X (µm)=	-2538.1
#Y (µm)=	-52.7
#Z (µm)=	-10.7
#Full time(mm:ss)=	3:18
#Project=	
#Sample=	
#Site=	
#Title=	Mb_40_24_09_2x_45s_532 nm_x100_100%_600 gr_mm
#Remark=	
#Date=	14.07.2022 11:22
#Acquired=	14.07.2022 11:22:11
#Edit:Spike=	14.07.2022 11:24:41
#Edit:Spike=	14.07.2022 11:24:42
#Base:Fit=	10.08.2022 10:47:00
#Base:Sub=	10.08.2022 10:47:12
#Filter:Polynom=	16.08.2022 10:11:48
#AxisType[0]=Intens
#AxisUnit[0]=Cnt
#AxisType[1]=Spectr
#AxisUnit[1]=1/cm
200.554	33.1395
202.369	33.3208
204.183	33.2444
205.999	33.3234
207.813	31.4684
209.626	29.615
211.439	27.1077
213.253	25.0128
215.065	23.7154
216.877	22.5836
218.688	22.2402
220.5	20.927
222.312	20.1037
224.123	20.2796
225.933	19.219
227.742	19.0403
229.552	18.6622
231.361	17.1246
233.171	17.0199
234.98	15.6247
236.787	15.0933
238.595	14.4202
240.402	12.3723
242.209	11.6201
244.015	11.2729
245.822	10.5651
247.627	10.3433
249.435	9.59029
251.24	8.57856
253.045	8.45372
254.849	8.67611
256.653	8.79992
258.457	7.71141
260.26	8.70471
262.063	10.4502
263.866	11.2137
265.668	13.0244
267.47	13.5544
269.271	14.1845
271.073	14.1664
272.873	14.7278
274.674	14.1906
276.474	13.4157
278.274	14.2126
280.073	14.1522
281.872	14.6622
283.671	13.1996
285.47	13.6162
287.268	13.387
289.065	12.8335
290.863	13.5517
292.66	13.7309
294.456	13.434
296.253	13.1858
298.049	14.5443
299.844	14.2682
301.637	14.7073
303.432	16.3503
305.227	18.0154
307.021	18.6097
308.815	18.927
310.609	19.5431
312.402	20.2507
314.195	20.059
315.987	18.7981
317.777	18.8175
319.569	17.8564
321.36	16.9388
323.151	16.5166
324.942	16.1733
326.733	16.3771
328.521	16.0789
330.31	15.1522
332.1	16.3323
333.889	16.1834
335.677	16.0601
337.464	17.1291
339.252	16.9559
341.039	17.1716
342.826	17.5907
344.611	17.499
346.398	17.7089
348.184	17.2009
349.97	17.6714
351.754	17.4098
353.539	17.4276
355.324	16.2019
357.106	15.5669
358.89	14.7875
360.674	14.1262
362.455	13.6574
364.239	13.1989
366.021	13.7929
367.804	14.5231
369.584	13.5877
371.366	14.0019
373.145	13.3202
374.926	13.6575
376.707	12.7941
378.485	12.276
380.265	11.8215
382.045	11.0601
383.822	10.772
385.601	9.44451
387.378	8.03347
389.156	7.19295
390.934	7.90438
392.71	8.47689
394.487	8.95892
396.262	7.67912
398.038	5.884
399.813	5.66592
401.588	4.59162
403.362	3.92914
405.137	3.5378
406.912	3.51573
408.685	2.28839
410.459	3.01085
412.23	3.77123
414.004	4.85259
415.775	4.70568
417.548	5.31777
419.318	5.47282
421.089	6.57416
422.86	6.86749
424.63	7.95395
426.401	9.09486
428.17	8.5585
429.94	8.76034
431.708	9.24551
433.478	9.07723
435.245	10.5827
437.012	10.6863
438.781	11.2804
440.547	10.9157
442.315	10.4272
444.081	9.79838
445.846	9.89331
447.613	9.62586
449.378	9.55883
451.142	10.0016
452.908	11.1711
454.672	11.651
456.435	11.6742
458.2	11.0399
459.963	11.5543
461.725	11.1995
463.489	11.2553
465.251	10.8873
467.012	11.1899
468.775	10.4485
470.536	9.55558
472.296	9.67202
474.056	9.26971
475.817	9.56041
477.576	11.0461
479.335	11.7725
481.094	11.4552
482.854	10.9338
484.612	10.0681
486.37	10.2622
488.127	11.8132
489.886	12.2395
491.642	13.1021
493.398	14.1879
495.154	14.4641
496.91	15.4781
498.667	17.5107
500.422	18.0423
502.176	18.6313
503.93	19.2557
505.684	20.4381
507.438	21.0244
509.191	22.4273
510.946	23.2728
512.698	23.0679
514.45	23.3403
516.202	23.0298
517.954	23.5194
519.705	23.3368
521.456	23.0061
523.206	23.6824
524.956	22.2532
526.706	21.3081
528.456	20.4624
530.207	19.6378
531.956	19.0318
533.704	18.8968
535.452	18.7954
537.2	18.3379
538.947	19.1322
540.694	18.5277
542.441	17.8198
544.188	17.6133
545.934	16.4626
547.68	14.8138
549.425	15.362
551.17	14.5731
552.915	13.4158
554.659	12.7941
556.403	11.319
558.145	11.5357
559.889	11.2768
561.632	10.6044
563.375	10.336
565.117	9.64165
566.859	7.72157
568.601	6.90865
570.342	6.59483
572.083	5.86047
573.824	6.25667
575.565	6.90432
577.303	6.99265
579.043	7.88986
580.782	7.75516
582.521	7.33354
584.26	7.47997
585.998	7.50403
587.734	7.75301
589.472	8.06536
591.21	7.9719
592.947	7.57333
594.684	7.05807
596.418	7.12157
598.154	7.15418
599.89	5.34583
601.626	5.64652
603.361	5.82408
605.094	5.43607
606.828	5.21105
608.562	5.74909
610.296	5.34056
612.027	5.70705
613.761	6.14192
615.493	6.78297
617.224	6.72857
618.956	8.21792
620.688	8.33924
622.419	8.07186
624.149	8.68851
625.879	9.47504
627.61	8.98257
629.338	9.56274
631.068	9.44952
632.797	8.91867
634.525	9.19319
636.254	10.5303
637.98	10.1231
639.708	10.345
641.436	10.4434
643.162	10.4114
644.889	11.1085
646.614	10.074
648.34	11.101
650.067	10.8655
651.791	10.2947
653.516	10.5691
655.239	12.0558
656.964	12.1019
658.687	13.3938
660.411	15.1652
662.133	15.4879
663.857	15.6169
665.58	16.743
667.301	17.4427
669.024	17.2327
670.744	17.2732
672.464	17.3954
674.186	17.4628
675.905	16.9355
677.626	16.9792
679.345	17.5163
681.065	17.4415
682.783	18.3213
684.503	19.0043
686.22	19.092
687.939	21.0855
689.656	21.7093
691.372	20.4298
693.09	21.626
694.806	23.32
696.523	24.2753
698.239	25.6143
699.953	26.6885
701.67	28.0989
703.384	29.0802
705.098	30.2088
706.813	29.597
708.526	30.3229
710.239	32.0959
711.954	33.1241
713.666	34.0788
715.378	34.6801
717.091	34.4151
718.802	35.7228
720.513	35.6891
722.226	36.6363
723.936	37.5652
725.646	37.9408
727.355	38.1198
729.067	39.5518
730.776	40.1541
732.484	41.0216
734.192	42.2257
735.902	42.5051
737.61	43.8195
739.317	44.2903
741.024	45.0627
742.731	45.3702
744.439	47.5121
746.145	47.7715
747.851	48.0165
749.556	49.4026
751.262	51.2317
752.966	51.6685
754.673	51.7615
756.377	51.8269
758.081	52.1058
759.784	53.2279
761.487	54.7873
763.19	55.9556
764.892	57.407
766.594	58.0641
768.296	59.2514
770	60.2279
771.701	60.5118
773.402	61.1647
775.102	61.8119
776.803	63.4882
778.503	67.2105
780.202	68.9847
781.901	69.9101
783.6	70.2128
785.299	72.0344
786.997	73.7955
788.695	74.1692
790.393	74.923
792.09	75.6999
793.787	76.4706
795.484	77.4457
797.18	77.5307
798.877	77.2597
800.572	77.1464
802.268	76.7928
803.963	76.8153
805.658	75.1006
807.35	74.8023
809.044	74.3458
810.738	73.8423
812.432	72.8567
814.125	72.9325
815.818	72.0104
817.51	71.8273
819.202	70.9743
820.894	71.0454
822.584	70.5285
824.275	68.61
825.966	68.5589
827.657	68.2473
829.347	67.9564
831.037	67.617
832.725	67.9647
834.414	66.8722
836.103	66.0992
837.792	64.1953
839.481	64.3215
841.167	64.3431
842.854	64.4188
844.542	64.9909
846.229	64.5031
847.914	64.1717
849.6	63.9684
851.287	62.7783
852.973	62.1073
854.656	61.7887
856.341	62.0835
858.026	63.1123
859.711	62.9486
861.393	63.3427
863.077	61.891
864.761	61.219
866.442	60.7085
868.125	60.5395
869.808	61.2844
871.489	61.0767
873.171	59.9343
874.85	59.4325
876.532	59.2498
878.213	57.5802
879.892	56.7347
881.572	54.7393
883.251	53.447
884.931	53.3024
886.61	52.4994
888.287	52.176
889.966	51.7042
891.643	52.2446
893.321	52.7665
894.997	52.8174
896.675	52.1061
898.352	53.3361
900.028	53.2424
901.704	53.3868
903.379	53.2234
905.055	53.1073
906.729	52.644
908.404	51.1661
910.077	51.5898
911.75	51.7167
913.425	50.2424
915.097	50.7445
916.771	50.4989
918.443	48.9951
920.116	49.691
921.787	49.18
923.46	50.0178
925.13	50.0577
926.8	49.298
928.472	49.1144
930.141	47.9082
931.813	48.0584
933.481	46.945
935.15	46.2249
936.82	45.8073
938.488	45.0346
940.156	44.8479
941.825	42.4863
943.492	40.8884
945.158	39.9477
946.827	39.7516
948.493	40.1407
950.158	39.0867
951.824	38.2977
953.491	37.3811
955.156	37.0553
956.82	36.2239
958.486	35.9259
960.15	36.2218
961.814	34.7371
963.477	34.6529
965.142	33.687
966.804	35.7208
968.467	37.5816
970.129	38.0423
971.79	39.1226
973.454	39.5425
975.115	39.5755
976.776	39.6235
978.436	39.5721
980.096	39.6692
981.756	40.3859
983.417	39.4161
985.077	39.5325
986.736	38.8182
988.394	38.7932
990.052	39.1242
991.71	38.805
993.368	39.8986
995.025	40.4013
996.682	40.3257
998.341	41.557
999.998	41.6441
1001.65	40.2225
1003.31	39.7887
1004.97	39.1058
1006.62	39.0263
1008.28	38.5421
1009.93	37.6163
1011.58	36.734
1013.24	36.1452
1014.89	35.6048
1016.54	35.6319
1018.2	34.4184
1019.85	33.7403
1021.5	32.8551
1023.16	31.9137
1024.81	31.0573
1026.46	31.6669
1028.11	32.1636
1029.76	32.3464
1031.41	31.4123
1033.06	30.9212
1034.71	31.1611
1036.36	31.0384
1038.01	31.3563
1039.66	30.8121
1041.31	30.6753
1042.95	31.2267
1044.6	30.377
1046.25	31.0902
1047.9	30.7318
1049.54	32.2847
1051.19	32.6545
1052.84	32.364
1054.48	32.59
1056.13	32.1687
1057.77	32.5135
1059.42	32.2585
1061.06	31.6408
1062.71	31.3843
1064.35	30.0166
1066	29.1464
1067.64	30.0714
1069.28	30.1858
1070.93	30.2212
1072.57	29.5673
1074.21	29.7281
1075.85	29.5602
1077.49	28.7087
1079.13	28.6552
1080.78	27.5077
1082.42	27.2247
1084.06	25.7123
1085.7	25.2896
1087.34	25.7697
1088.97	25.1411
1090.61	25.5356
1092.25	25.6292
1093.89	26.0133
1095.53	25.7666
1097.17	26.6777
1098.8	27.7005
1100.44	28.6748
1102.08	30.1211
1103.71	30.8379
1105.35	31.2567
1106.99	31.8714
1108.62	31.4605
1110.26	31.4634
1111.89	30.3529
1113.52	29.9693
1115.16	28.8755
1116.79	29.3019
1118.43	29.1483
1120.06	28.7081
1121.69	27.8838
1123.32	27.3779
1124.96	27.2388
1126.59	26.0866
1128.22	26.8021
1129.85	26.9363
1131.48	27.2595
1133.11	26.8637
1134.75	26.72
1136.37	25.5226
1138	23.7446
1139.63	22.7363
1141.26	21.4948
1142.89	20.6028
1144.52	19.478
1146.15	18.7633
1147.78	18.9474
1149.4	19.4716
1151.03	18.6604
1152.66	17.4691
1154.28	17.7295
1155.91	17.4304
1157.54	15.914
1159.16	14.8515
1160.79	14.4964
1162.41	13.4965
1164.04	12.8932
1165.66	12.5061
1167.29	12.2721
1168.91	12.7661
1170.53	12.6907
1172.16	13.6805
1173.78	14.4667
1175.4	15.4135
1177.02	16.0476
1178.65	17.594
1180.27	17.9223
1181.89	18.7539
1183.51	17.6757
1185.13	17.5406
1186.75	17.4209
1188.37	17.491
1189.99	16.618
1191.61	16.2567
1193.23	16.0205
1194.85	15.4981
1196.47	15.7707
1198.08	16.0505
1199.7	14.1711
1201.32	13.6736
1202.94	13.666
1204.55	14.5512
1206.17	15.3054
1207.79	16.7953
1209.4	17.9894
1211.02	18.8567
1212.63	19.1665
1214.25	19.5644
1215.86	20.279
1217.48	20.5609
1219.09	21.6342
1220.71	23.3422
1222.32	24.1683
1223.93	23.2812
1225.54	23.9829
1227.16	25.1961
1228.77	25.7698
1230.38	26.4711
1231.99	26.2315
1233.6	26.3373
1235.22	26.5966
1236.83	26.3336
1238.44	26.9376
1240.05	27.616
1241.66	28.1653
1243.26	28.9192
1244.87	29.484
1246.48	30.7558
1248.09	31.9469
1249.7	33.0407
1251.31	34.3671
1252.92	35.5755
1254.52	36.3506
1256.13	36.8838
1257.74	37.8414
1259.34	38.9051
1260.95	39.2227
1262.55	40.4644
1264.16	40.7573
1265.76	41.6658
1267.37	42.5228
1268.97	42.7888
1270.58	42.6526
1272.18	44.0707
1273.78	44.3357
1275.39	44.8602
1276.99	45.9729
1278.59	46.3197
1280.2	46.9519
1281.8	49.5732
1283.4	50.5694
1285	52.0198
1286.6	53.3921
1288.2	54.7385
1289.8	54.4864
1291.4	54.883
1293	54.9995
1294.6	55.0309
1296.2	54.855
1297.8	54.7189
1299.4	54.3284
1301	54.243
1302.6	54.476
1304.19	53.8983
1305.79	54.4008
1307.39	54.8543
1308.99	54.1646
1310.58	53.8141
1312.18	53.6807
1313.77	53.6507
1315.37	52.8546
1316.96	53.2732
1318.56	52.9936
1320.15	52.5527
1321.75	52.1445
1323.34	50.8926
1324.94	50.067
1326.53	50.0421
1328.12	49.9303
1329.72	49.3243
1331.31	49.3837
1332.9	48.44
1334.49	47.3506
1336.08	47.1608
1337.67	46.8982
1339.27	45.9845
1340.86	44.7741
1342.45	44.209
1344.04	44.1109
1345.63	44.5637
1347.22	44.0653
1348.8	43.485
1350.39	43.3872
1351.98	43.7198
1353.57	42.4693
1355.16	43.0764
1356.75	42.7934
1358.33	42.8395
1359.92	43.2983
1361.51	43.2203
1363.09	42.6194
1364.68	41.9615
1366.27	41.3169
1367.85	39.9632
1369.44	39.7607
1371.02	40.6119
1372.61	41.0535
1374.19	41.0664
1375.77	41.0594
1377.36	42.175
1378.94	42.876
1380.52	43.155
1382.11	42.5588
1383.69	42.0519
1385.27	43.1781
1386.85	43.9934
1388.43	44.3111
1390.02	45.3345
1391.6	45.5078
1393.18	46.1419
1394.76	46.3919
1396.34	47.2706
1397.92	47.0851
1399.5	46.6942
1401.08	46.0747
1402.65	45.7843
1404.23	46.7085
1405.81	47.1502
1407.39	48.0959
1408.97	48.1937
1410.54	47.8846
1412.12	48.0064
1413.7	47.9555
1415.27	48.4778
1416.85	48.2206
1418.43	47.601
1420	49.2247
1421.58	50.8867
1423.15	52.6195
1424.73	52.9748
1426.3	54.1665
1427.87	55.718
1429.45	56.872
1431.02	57.9838
1432.6	58.3793
1434.17	59.4473
1435.74	59.5275
1437.31	59.6485
1438.89	61.1779
1440.46	60.5168
1442.03	60.3254
1443.6	60.6197
1445.17	61.453
1446.74	62.5052
1448.31	63.6153
1449.88	63.3584
1451.45	62.9533
1453.02	62.4216
1454.59	60.856
1456.16	60.1461
1457.72	58.787
1459.29	57.68
1460.86	56.5906
1462.43	56.2087
1463.99	55.5319
1465.56	53.7204
1467.13	52.2959
1468.69	51.0008
1470.26	49.7091
1471.83	48.836
1473.39	46.5757
1474.95	44.5269
1476.52	42.3075
1478.08	40.4455
1479.65	39.6273
1481.21	39.1002
1482.78	38.3565
1484.34	37.8485
1485.9	36.9558
1487.47	35.1025
1489.03	33.156
1490.59	33.4004
1492.15	33.1909
1493.71	33.4665
1495.27	32.9306
1496.84	32.8811
1498.39	33.5336
1499.96	32.8971
1501.52	32.0023
1503.07	31.9658
1504.64	32.0768
1506.19	31.2964
1507.75	30.7577
1509.31	30.1855
1510.87	29.233
1512.43	28.9763
1513.98	28.9573
1515.54	29.0433
1517.1	29.6733
1518.65	28.1947
1520.21	28.307
1521.77	28.3051
1523.32	27.5152
1524.88	27.1863
1526.44	27.0892
1527.99	25.8659
1529.54	24.864
1531.1	23.6305
1532.65	23.0727
1534.21	22.7695
1535.76	22.2113
1537.31	21.6983
1538.87	21.036
1540.42	21.2159
1541.97	20.7019
1543.52	19.7852
1545.07	20.4224
1546.63	21.0234
1548.18	20.6114
1549.73	19.8406
1551.28	19.8782
1552.83	20.6948
1554.38	21.153
1555.93	21.4632
1557.48	22.1914
1559.03	23.041
1560.57	23.2663
1562.12	23.4222
1563.67	23.5975
1565.22	24.6804
1566.77	25.5637
1568.31	27.455
1569.86	28.4158
1571.41	28.3624
1572.95	28.9285
1574.5	29.9524
1576.05	31.2937
1577.59	32.6906
1579.14	33.8763
1580.68	36.186
1582.23	37.7358
1583.77	38.6827
1585.31	39.6957
1586.86	41.1753
1588.4	42.1064
1589.95	43.5066
1591.49	44.4083
1593.03	45.2692
1594.57	46.1976
1596.11	46.752
1597.66	47.2971
1599.2	47.7453
1600.74	48.0679
1602.28	49.0851
1603.82	49.3804
1605.36	49.2711
1606.9	49.7323
1608.44	49.794
1609.98	50.4756
1611.52	49.5974
1613.06	50.6667
1614.6	50.3621
1616.13	50.5013
1617.67	50.8375
1619.21	50.453
1620.75	50.9473
1622.28	51.8344
1623.82	51.9668
1625.36	52.0816
1626.89	53.0354
1628.43	53.1376
1629.96	52.5026
1631.5	52.4618
1633.04	52.4583
1634.57	53.4557
1636.11	53.6408
1637.64	53.7164
1639.17	53.9072
1640.71	54.138
1642.24	54.2523
1643.77	53.8605
1645.31	54.2963
1646.84	53.8681
1648.37	53.1857
1649.9	52.9496
1651.43	52.7573
1652.96	52.1649
1654.5	52.0421
1656.03	51.6635
1657.56	50.813
1659.09	49.5477
1660.62	47.9164
1662.15	45.7113
1663.67	43.6871
1665.2	41.9154
1666.73	40.5272
1668.26	38.4878
1669.79	36.8237
1671.32	35.0171
1672.84	33.9693
1674.37	31.6834
1675.9	30.6525
1677.43	29.6155
1678.95	28.8069
1680.48	27.45
1682	26.4164
1683.53	24.5211
1685.05	23.2853
1686.58	22.651
1688.1	21.1514
1689.63	20.1307
1691.15	18.746
1692.68	18.622
1694.2	18.2056
1695.72	16.6186
1697.25	16.3907
1698.77	15.6826
1700.29	15.3134
1701.81	15.0519
1703.33	15.0197
1704.86	13.8144
1706.38	14.0021
1707.9	14.6104
1709.42	13.6219
1710.94	14.0702
1712.46	13.7352
1713.98	13.9339
1715.5	12.9958
1717.02	12.7929
1718.54	12.0938
1720.06	11.831
1721.57	11.3724
1723.09	10.1851
1724.61	10.442
1726.13	9.84346
1727.64	10.3584
1729.16	9.75708
1730.68	9.71135
1732.19	8.3713
1733.71	7.57532
1735.23	7.09578
1736.74	6.30064
1738.26	5.49859
1739.77	6.07755
1741.29	6.687
1742.8	6.41277
1744.31	6.01498
1745.83	6.62638
1747.34	6.65456
1748.85	6.86578
1750.37	6.45822
1751.88	7.2233
1753.39	7.08489
1754.91	6.81164
1756.42	6.43541
1757.93	6.15296
1759.44	5.81702
1760.95	5.96219
1762.46	5.39393
1763.97	5.10936
1765.48	4.47041
1766.99	4.91936
1768.5	4.3762
1770.01	3.36811
1771.52	2.60325
1773.03	2.57568
1774.54	2.34094
1776.04	2.38426
1777.55	2.37631
1779.06	2.22339
1780.57	2.01801
1782.07	2.22051
1783.58	2.29134
1785.09	2.53639
1786.59	3.24953
1788.1	2.54678
1789.6	2.52421
1791.11	2.07896
1792.61	2.75607
1794.12	2.6613
1795.62	3.06034
1797.13	3.08175
1798.63	2.93731
1800.13	2.8653
1801.64	2.55452
1803.14	2.98851
1804.64	3.03752
1806.15	3.44207
1807.65	3.37669
1809.15	4.02967
1810.65	4.27205
1812.15	4.42268
1813.65	4.97643
1815.16	4.99564
1816.66	5.10715
1818.15	4.73813
1819.66	5.06905
1821.16	5.12956
1822.65	4.78623
1824.15	4.95929
1825.65	4.54769
1827.15	4.77977
1828.65	5.0953
1830.15	5.79477
1831.64	5.1137
1833.14	5.20923
1834.64	5.206
1836.14	5.0474
1837.63	4.94184
1839.13	5.09867
1840.62	4.28201
1842.12	3.61401
1843.62	2.54992
1845.11	2.00776
1846.61	1.70531
1848.1	1.68482
1849.6	2.3761
1851.09	2.73096
1852.58	3.14166
1854.08	3.38059
1855.57	3.22095
1857.06	3.62941
1858.55	3.90376
1860.05	5.02717
1861.54	4.37351
1863.03	4.43035
1864.52	5.2655
1866.01	5.95425
1867.5	6.39173
1869	6.18314
1870.49	6.8839
1871.98	6.88452
1873.47	6.60746
1874.96	6.55974
1876.44	7.096
1877.93	7.6931
1879.42	8.21393
1880.91	8.28099
1882.4	8.00737
1882.47	7.9371
1883.96	7.70423
1885.46	6.86806
1886.95	6.88717
1888.44	5.95107
1889.94	5.72076
1891.43	5.14552
1892.93	4.83844
1894.42	4.00911
1895.91	3.54538
1897.4	3.18781
1898.89	3.31788
1900.39	3.81068
1901.88	4.03201
1903.37	3.31415
1904.86	2.27487
1906.35	2.54018
1907.84	2.26168
1909.33	2.34456
1910.82	2.48401
1912.31	1.85653
1913.8	1.30004
1915.29	1.3194
1916.77	1.26339
1918.26	1.54012
1919.75	2.18246
1921.24	2.46521
1922.73	2.50526
1924.21	2.02217
1925.7	2.21514
1927.19	1.90819
1928.67	1.89579
1930.16	2.71609
1931.64	2.80604
1933.13	3.64191
1934.61	3.32646
1936.1	3.81606
1937.58	3.70509
1939.07	4.27139
1940.55	4.29241
1942.04	4.59791
1943.52	4.91152
1945	4.60766
1946.49	4.55258
1947.97	4.88615
1949.45	4.95247
1950.93	4.95244
1952.42	5.32648
1953.9	5.03837
1955.38	4.76198
1956.86	5.12846
1958.34	4.70456
1959.82	4.19311
1961.3	3.7238
1962.78	3.41889
1964.26	3.63274
1965.74	3.59689
1967.22	3.76222
1968.7	3.79291
1970.18	3.85695
1971.65	4.20021
1973.13	4.83958
1974.61	4.90398
1976.09	5.53076
1977.57	6.08753
1979.04	6.98418
1980.52	8.19395
1982	8.71233
1983.47	8.85606
1984.95	8.85282
1986.42	8.17601
1987.9	8.94361
1989.37	8.89307
1990.85	8.86403
1992.32	8.77017
1993.8	8.26219
1995.27	8.04582
1996.75	7.56197
1998.22	7.64041
1999.69	7.894
2001.17	7.78496
2002.64	7.51013
2004.11	7.37403
2005.58	6.97616
2007.05	6.53831
2008.53	6.11552
2010	5.76265
2011.47	5.41739
2012.94	5.88706
2014.41	5.18144
2015.88	4.9729
2017.35	4.48751
2018.82	4.0228
2020.29	3.56585
2021.76	3.47553
2023.23	3.05435
2024.7	3.07882
2026.16	3.05045
2027.63	2.50391
2029.1	2.70142
2030.57	2.94356
2032.03	1.62035
2033.5	1.56942
2034.97	0.791418
2036.44	1.7507
2037.9	1.52906
2039.37	1.28928
2040.83	1.5049
2042.3	1.82824
2043.76	2.80769
2045.23	3.48366
2046.69	3.97584
2048.16	3.75504
2049.62	4.67468
2051.08	5.41691
2052.55	5.50922
2054.01	6.13709
2055.47	6.23325
2056.94	5.94246
2058.4	6.78268
2059.86	6.89862
2061.32	7.81272
2062.79	7.51098
2064.25	7.94495
2065.71	7.92219
2067.17	8.54844
2068.63	9.6546
2070.09	9.83843
2071.55	10.9444
2073.01	10.8517
2074.47	11.0962
2075.93	11.6911
2077.39	12.4032
2078.85	12.5126
2080.31	13.5267
2081.76	14.1201
2083.22	14.8599
2084.68	15.0286
2086.13	15.962
2087.59	16.9436
2089.05	16.9946
2090.51	17.9372
2091.96	18.5261
2093.42	19.3773
2094.87	20.1308
2096.33	20.3079
2097.78	21.1403
2099.24	21.693
2100.69	22.1104
2102.15	22.3231
2103.6	22.0817
2105.06	22.4063
2106.51	22.9344
2107.96	22.905
2109.42	24.0421
2110.87	24.267
2112.32	24.943
2113.77	26.1614
2115.23	26.5214
2116.68	26.9977
2118.13	26.9394
2119.58	27.2439
2121.03	27.6134
2122.48	29.1601
2123.93	29.7243
2125.38	29.8638
2126.83	30.448
2128.28	30.6651
2129.73	30.5846
2131.18	31.5224
2132.63	31.8462
2134.08	32.3646
