#Acq. time (s)=	45
#Accumulations=	2
#Range (cm-¹)=	200...3150
#Windows=	2
#Auto scanning=	Off
#Autofocus=	Off
#Macrospot=	Off
#AutoExposure=	Off
#Spike filter=	Multiple accum.
#Delay time (s)=	0
#Binning=	1
#Readout mode=	Signal
#DeNoise=	Off
#ICS correction=	On
#Dark correction=	Off
#Inst. Process=	Off
#Detector Gain=	Best Dynamic Range
#Detector ADC=	20 kHz       
#Detector temperature (°C)=	-70.08
#Instrument=	LabRAM HR Evol
#Detector=	Synapse
#Objective=	x100
#Grating=	600 gr/mm
#ND Filter=	100%
#Laser (nm)=	532 
#Hole=	100.021
#Range=	Auto
#Laser Pol.=	No
#Raman. Pol.=	No
#Laser Pol. (°)=	-0.0007625
#Raman Pol. (°)=	89.9995
#Collection=	Microscope
#StageXY=	Marzhauser
#StageZ=	Marzhauser
#X (µm)=	-2511
#Y (µm)=	-127.6
#Z (µm)=	-10.65
#Full time(mm:ss)=	3:09
#Project=	
#Sample=	
#Site=	
#Title=	Mb_40_24_20_2x_45s_532 nm_x100_100%_600 gr_mm
#Remark=	
#Date=	14.07.2022 12:12
#Acquired=	14.07.2022 12:12:07
#Base:Fit=	10.08.2022 10:47:00
#Base:Sub=	10.08.2022 10:47:12
#Filter:Polynom=	16.08.2022 10:11:48
#AxisType[0]=Intens
#AxisUnit[0]=Cnt
#AxisType[1]=Spectr
#AxisUnit[1]=1/cm
200.554	39.5834
202.369	30.9095
204.183	26.0347
205.999	22.177
207.813	19.337
209.626	17.4001
211.439	16.216
213.253	14.9272
215.065	14.6196
216.877	14.7816
218.688	15.0301
220.5	14.3654
222.312	16.1209
224.123	16.7022
225.933	16.6049
227.742	17.438
229.552	17.7873
231.361	17.1557
233.171	16.6427
234.98	17.6109
236.787	16.133
238.595	16.8401
240.402	18.7398
242.209	18.7468
244.015	20.2712
245.822	20.6398
247.627	21.9024
249.435	22.6089
251.24	25.3455
253.045	28.9985
254.849	32.4335
256.653	35.7612
258.457	38.5764
260.26	41.4179
262.063	44.7161
263.866	47.8932
265.668	49.8257
267.47	52.9474
269.271	54.9725
271.073	57.9357
272.873	59.249
274.674	58.6485
276.474	58.872
278.274	58.8159
280.073	59.3904
281.872	59.2179
283.671	59.5938
285.47	59.926
287.268	61.886
289.065	64.2731
290.863	66.2838
292.66	68.1236
294.456	69.56
296.253	71.7693
298.049	74.8854
299.844	77.1063
301.637	78.5918
303.432	80.1186
305.227	82.6632
307.021	82.621
308.815	82.9214
310.609	83.2627
312.402	85.0294
314.195	83.9963
315.987	83.2099
317.777	83.3901
319.569	81.8734
321.36	81.509
323.151	81.0838
324.942	81.1356
326.733	79.0293
328.521	80.0386
330.31	79.8577
332.1	77.2807
333.889	76.843
335.677	75.5123
337.464	76.2192
339.252	75.8995
341.039	76.1937
342.826	73.8107
344.611	72.3109
346.398	69.4586
348.184	67.1313
349.97	66.384
351.754	62.6167
353.539	59.3516
355.324	58.443
357.106	55.2532
358.89	51.4986
360.674	48.5097
362.455	45.623
364.239	43.0796
366.021	41.6559
367.804	40.2563
369.584	38.7397
371.366	35.8269
373.145	33.4306
374.926	33.1137
376.707	33.3008
378.485	31.7132
380.265	31.5736
382.045	30.0265
383.822	30.4762
385.601	31.0429
387.378	31.3708
389.156	30.023
390.934	30.4549
392.71	29.6455
394.487	29.0986
396.262	28.1082
398.038	28.8571
399.813	28.8993
401.588	29.4756
403.362	29.1646
405.137	30.2509
406.912	30.8385
408.685	31.7256
410.459	32.2017
412.23	33.8022
414.004	33.9586
415.775	33.247
417.548	33.7074
419.318	32.3934
421.089	32.2479
422.86	33.1476
424.63	32.8842
426.401	33.3204
428.17	32.0583
429.94	31.0111
431.708	29.5827
433.478	28.7605
435.245	27.495
437.012	27.556
438.781	26.6479
440.547	24.8177
442.315	23.2809
444.081	24.1857
445.846	20.5842
447.613	19.9677
449.378	20.2632
451.142	19.6274
452.908	18.4474
454.672	16.2343
456.435	13.3813
458.2	10.7406
459.963	9.99398
461.725	10.8029
463.489	11.0294
465.251	9.75825
467.012	8.79654
468.775	8.11679
470.536	7.56067
472.296	7.9785
474.056	8.70016
475.817	7.73092
477.576	7.50479
479.335	7.27438
481.094	7.35371
482.854	7.11523
484.612	8.15392
486.37	9.94755
488.127	10.7926
489.886	13.1861
491.642	14.5754
493.398	15.7955
495.154	16.6257
496.91	18.6216
498.667	20.0105
500.422	20.1464
502.176	18.0836
503.93	19.2099
505.684	19.7505
507.438	20.539
509.191	22.373
510.946	21.5555
512.698	21.022
514.45	21.6533
516.202	20.25
517.954	20.3107
519.705	19.3712
521.456	20.2198
523.206	18.8069
524.956	18.5854
526.706	15.8355
528.456	14.7526
530.207	13.9681
531.956	15.051
533.704	14.4748
535.452	15.771
537.2	14.9145
538.947	13.8676
540.694	12.5002
542.441	10.9843
544.188	10.0822
545.934	10.8121
547.68	11.9389
549.425	12.1677
551.17	10.9428
552.915	9.59429
554.659	8.26625
556.403	7.51589
558.145	7.78116
559.889	7.05561
561.632	6.33177
563.375	5.66387
565.117	4.09276
566.859	3.8775
568.601	4.65563
570.342	3.99905
572.083	5.26802
573.824	5.03314
575.565	4.37146
577.303	5.55892
579.043	4.03018
580.782	4.64039
582.521	5.63682
584.26	5.08298
585.998	3.87725
587.734	2.00602
589.472	1.76525
591.21	2.25005
592.947	1.82633
594.684	2.02286
596.418	1.53091
598.154	1.10804
599.89	0.787713
601.626	1.12265
603.361	0.0289664
605.094	1.51196
606.828	2.22614
608.562	3.16241
610.296	2.49565
612.027	4.47746
613.761	5.14496
615.493	7.64622
617.224	8.25931
618.956	9.14065
620.688	9.54165
622.419	9.96486
624.149	10.672
625.879	10.6225
627.61	9.89118
629.338	11.3348
631.068	11.0672
632.797	12.3312
634.525	13.2107
636.254	12.8493
637.98	11.7934
639.708	10.8127
641.436	11.4128
643.162	12.099
644.889	12.4449
646.614	11.3032
648.34	11.1973
650.067	11.3034
651.791	11.2188
653.516	13.2246
655.239	13.4202
656.964	12.9436
658.687	13.059
660.411	12.2672
662.133	11.7359
663.857	11.7053
665.58	9.99254
667.301	12.2929
669.024	10.2237
670.744	8.96521
672.464	8.67217
674.186	7.64059
675.905	7.70626
677.626	9.49115
679.345	10.4727
681.065	10.3154
682.783	10.7763
684.503	11.5636
686.22	12.0435
687.939	12.3815
689.656	11.8275
691.372	13.4039
693.09	13.4914
694.806	13.6682
696.523	13.6186
698.239	14.2004
699.953	12.9257
701.67	11.8806
703.384	11.1796
705.098	12.8491
706.813	13.0273
708.526	13.5363
710.239	13.1539
711.954	12.5593
713.666	13.4569
715.378	14.3915
717.091	14.0411
718.802	14.3563
720.513	13.7168
722.226	12.7307
723.936	12.5816
725.646	12.0971
727.355	13.3117
729.067	12.4892
730.776	12.3152
732.484	12.3147
734.192	13.1782
735.902	13.4123
737.61	13.0991
739.317	12.7533
741.024	11.7997
742.731	11.6762
744.439	11.6935
746.145	11.8121
747.851	13.1835
749.556	14.7138
751.262	15.2528
752.966	17.2297
754.673	16.8678
756.377	19.6251
758.081	21.1198
759.784	22.2598
761.487	25.6202
763.19	27.1575
764.892	29.005
766.594	29.4847
768.296	30.9054
770	31.6298
771.701	32.1628
773.402	31.4162
775.102	32.6974
776.803	34.17
778.503	33.7892
780.202	33.8845
781.901	34.3778
783.6	35.6219
785.299	35.2873
786.997	37.97
788.695	39.4202
790.393	41.3757
792.09	40.463
793.787	41.3046
795.484	40.7289
797.18	40.0985
798.877	39.1538
800.572	39.4428
802.268	38.189
803.963	37.3442
805.658	37.2001
807.35	37.9497
809.044	38.1255
810.738	37.9926
812.432	38.0616
814.125	37.0855
815.818	37.5466
817.51	38.142
819.202	37.3043
820.894	35.9863
822.584	36.2203
824.275	36.2055
825.966	36.6014
827.657	37.8171
829.347	38.3175
831.037	38.551
832.725	39.2268
834.414	39.7592
836.103	39.5712
837.792	40.2578
839.481	41.1755
841.167	43.0858
842.854	43.1427
844.542	44.114
846.229	44.7473
847.914	44.7093
849.6	44.7458
851.287	43.9795
852.973	43.9058
854.656	43.6962
856.341	42.8832
858.026	42.1238
859.711	40.8424
861.393	41.0505
863.077	39.4024
864.761	38.5414
866.442	39.018
868.125	38.3882
869.808	38.1596
871.489	38.1049
873.171	35.6013
874.85	34.93
876.532	33.6065
878.213	33.2278
879.892	31.3572
881.572	30.9495
883.251	30.8994
884.931	31.6767
886.61	30.0075
888.287	31.0231
889.966	30.6701
891.643	31.3509
893.321	31.1529
894.997	31.6689
896.675	31.8703
898.352	32.5656
900.028	32.7587
901.704	31.6534
903.379	31.3243
905.055	33.2634
906.729	35.7789
908.404	34.9615
910.077	35.2252
911.75	36.0071
913.425	36.5952
915.097	36.5438
916.771	37.6916
918.443	37.7048
920.116	37.3864
921.787	38.6086
923.46	38.9007
925.13	39.1685
926.8	37.4655
928.472	37.9817
930.141	36.4897
931.813	36.9039
933.481	35.9639
935.15	35.2543
936.82	33.9411
938.488	33.1671
940.156	31.9074
941.825	31.4946
943.492	29.8667
945.158	29.9011
946.827	28.8993
948.493	29.1229
950.158	30.3168
951.824	28.9479
953.491	28.1238
955.156	25.8375
956.82	24.4723
958.486	24.8343
960.15	23.8351
961.814	24.0713
963.477	24.5023
965.142	26.1062
966.804	26.4614
968.467	26.7058
970.129	26.7212
971.79	27.9687
973.454	28.516
975.115	29.9041
976.776	30.6704
978.436	29.6646
980.096	29.9349
981.756	29.5987
983.417	29.7427
985.077	29.5739
986.736	29.7884
988.394	29.9826
990.052	27.8684
991.71	27.0016
993.368	29.477
995.025	29.8437
996.682	28.9644
998.341	28.3077
999.998	28.194
1001.65	26.9644
1003.31	27.2973
1004.97	27.1633
1006.62	26.1171
1008.28	26.7436
1009.93	27.3995
1011.58	28.3606
1013.24	29.1049
1014.89	30.1217
1016.54	29.6245
1018.2	29.2795
1019.85	30.9689
1021.5	31.9983
1023.16	33.1897
1024.81	33.6549
1026.46	33.3504
1028.11	35.4939
1029.76	37.6699
1031.41	38.0126
1033.06	38.4847
1034.71	37.4573
1036.36	38.3811
1038.01	39.6444
1039.66	41.4667
1041.31	44.3652
1042.95	44.7552
1044.6	45.3071
1046.25	45.2276
1047.9	44.9665
1049.54	43.8934
1051.19	44.8491
1052.84	45.6758
1054.48	44.2654
1056.13	43.5959
1057.77	42.4495
1059.42	40.1589
1061.06	38.812
1062.71	38.6273
1064.35	37.4
1066	35.8304
1067.64	34.4135
1069.28	32.8992
1070.93	33.2204
1072.57	32.3226
1074.21	33.1288
1075.85	31.5364
1077.49	28.9985
1079.13	27.2422
1080.78	27.1853
1082.42	26.4951
1084.06	25.946
1085.7	26.418
1087.34	26.7851
1088.97	25.55
1090.61	25.8687
1092.25	25.5866
1093.89	25.0603
1095.53	25.0789
1097.17	23.1268
1098.8	21.667
1100.44	21.3727
1102.08	22.447
1103.71	21.668
1105.35	22.0528
1106.99	22.7358
1108.62	22.2131
1110.26	22.726
1111.89	22.5628
1113.52	22.2496
1115.16	22.0525
1116.79	21.6543
1118.43	22.5717
1120.06	22.2036
1121.69	21.3956
1123.32	21.2607
1124.96	19.3111
1126.59	18.7679
1128.22	19.247
1129.85	19.9777
1131.48	20.1316
1133.11	21.0256
1134.75	20.4654
1136.37	18.971
1138	19.4217
1139.63	18.5121
1141.26	17.5281
1142.89	17.9123
1144.52	17.57
1146.15	16.0223
1147.78	14.9559
1149.4	15.0532
1151.03	15.2062
1152.66	14.7751
1154.28	12.355
1155.91	11.6265
1157.54	11.7852
1159.16	12.4168
1160.79	11.4766
1162.41	11.3315
1164.04	11.0057
1165.66	9.87575
1167.29	9.75222
1168.91	8.59782
1170.53	5.90363
1172.16	5.67306
1173.78	4.74129
1175.4	2.96444
1177.02	2.07096
1178.65	0.710412
1180.27	0.555564
1181.89	1.4981
1183.51	1.65789
1185.13	2.22383
1186.75	3.04267
1188.37	3.73531
1189.99	3.56679
1191.61	5.17062
1193.23	7.099
1194.85	8.22171
1196.47	9.9748
1198.08	12.2601
1199.7	13.5808
1201.32	16.0451
1202.94	17.9042
1204.55	19.6493
1206.17	22.098
1207.79	24.2562
1209.4	26.9677
1211.02	28.9391
1212.63	30.9668
1214.25	34.2236
1215.86	36.8276
1217.48	39.7659
1219.09	43.4941
1220.71	46.676
1222.32	49.8722
1223.93	53.0685
1225.54	56.9579
1227.16	58.2306
1228.77	62.8369
1230.38	65.4851
1231.99	67.3498
1233.6	69.5722
1235.22	72.5532
1236.83	76.6519
1238.44	80.483
1240.05	82.6598
1241.66	84.7935
1243.26	86.5527
1244.87	89.8469
1246.48	92.1876
1248.09	94.6077
1249.7	94.8125
1251.31	96.2916
1252.92	98.3708
1254.52	99.2782
1256.13	100.756
1257.74	103.324
1259.34	103.968
1260.95	106.14
1262.55	108.262
1264.16	110.109
1265.76	112.097
1267.37	113.807
1268.97	115.138
1270.58	117.534
1272.18	119.297
1273.78	121.192
1275.39	121.592
1276.99	123.588
1278.59	125.219
1280.2	124.631
1281.8	125.706
1283.4	126.755
1285	127.975
1286.6	131.259
1288.2	131.718
1289.8	133.137
1291.4	135
1293	136.523
1294.6	138.532
1296.2	140.145
1297.8	141.714
1299.4	142.517
1301	142.132
1302.6	142.545
1304.19	143.64
1305.79	143.265
1307.39	143.046
1308.99	144.207
1310.58	143.819
1312.18	146.29
1313.77	148.919
1315.37	149.627
1316.96	150.845
1318.56	150.721
1320.15	150.832
1321.75	151.036
1323.34	150.136
1324.94	151.084
1326.53	150.146
1328.12	148.843
1329.72	147.418
1331.31	146.794
1332.9	145.202
1334.49	143.955
1336.08	144.465
1337.67	142.182
1339.27	141.503
1340.86	141.592
1342.45	140.564
1344.04	138.634
1345.63	137.405
1347.22	137.115
1348.8	136.226
1350.39	135.688
1351.98	134.24
1353.57	133.087
1355.16	131.596
1356.75	132.126
1358.33	129.577
1359.92	127.646
1361.51	125.885
1363.09	125.5
1364.68	122.293
1366.27	121.29
1367.85	118.778
1369.44	118.408
1371.02	116.694
1372.61	114.753
1374.19	114.3
1375.77	112.661
1377.36	111.109
1378.94	109.906
1380.52	108.239
1382.11	109.074
1383.69	108.079
1385.27	107.788
1386.85	108.723
1388.43	109.188
1390.02	110.762
1391.6	113.024
1393.18	112.817
1394.76	112.604
1396.34	114.307
1397.92	114.743
1399.5	115.869
1401.08	117.793
1402.65	118.308
1404.23	120.819
1405.81	122.196
1407.39	124.549
1408.97	126.552
1410.54	131.097
1412.12	134.693
1413.7	137.986
1415.27	142.685
1416.85	145.488
1418.43	150.564
1420	154.525
1421.58	158.322
1423.15	163.134
1424.73	169.325
1426.3	174.257
1427.87	178.275
1429.45	183.141
1431.02	188.267
1432.6	191.736
1434.17	195.327
1435.74	197.916
1437.31	199.88
1438.89	202.319
1440.46	204.886
1442.03	205.921
1443.6	206.544
1445.17	207.749
1446.74	208.055
1448.31	207.896
1449.88	206.325
1451.45	205.539
1453.02	204.113
1454.59	200.565
1456.16	198.803
1457.72	197.69
1459.29	194.166
1460.86	190.675
1462.43	186.939
1463.99	183.713
1465.56	178.565
1467.13	173.768
1468.69	169.174
1470.26	164.534
1471.83	158.998
1473.39	153.898
1474.95	148.489
1476.52	141.348
1478.08	135.669
1479.65	131.518
1481.21	125.806
1482.78	121.266
1484.34	116.749
1485.9	113.063
1487.47	108.37
1489.03	105.035
1490.59	101.27
1492.15	97.5863
1493.71	94.8956
1495.27	90.7424
1496.84	88.0811
1498.39	85.8691
1499.96	83.1982
1501.52	84.1062
1503.07	82.8221
1504.64	79.7381
1506.19	78.6426
1507.75	77.1348
1509.31	75.3557
1510.87	73.2845
1512.43	72.5492
1513.98	71.0535
1515.54	69.3013
1517.1	68.6938
1518.65	68.4469
1520.21	66.1931
1521.77	67.5845
1523.32	68.3202
1524.88	69.359
1526.44	70.4527
1527.99	71.7571
1529.54	72.4639
1531.1	73.4507
1532.65	74.2481
1534.21	76.8276
1535.76	77.9027
1537.31	77.672
1538.87	79.7332
1540.42	82.7462
1541.97	85.3323
1543.52	87.669
1545.07	91.2369
1546.63	94.1727
1548.18	95.8367
1549.73	97.9809
1551.28	99.9802
1552.83	102.161
1554.38	103.902
1555.93	106.531
1557.48	107.555
1559.03	110.023
1560.57	112.645
1562.12	114.598
1563.67	116.818
1565.22	119.777
1566.77	122.301
1568.31	125.842
1569.86	126.448
1571.41	128.711
1572.95	131.285
1574.5	134.285
1576.05	137.023
1577.59	139.648
1579.14	143.351
1580.68	143.366
1582.23	144.67
1583.77	147.571
1585.31	148.116
1586.86	149.972
1588.4	151.486
1589.95	152.825
1591.49	154.992
1593.03	155.695
1594.57	157.767
1596.11	157.929
1597.66	157.884
1599.2	158.15
1600.74	158.515
1602.28	157.863
1603.82	156.959
1605.36	154.967
1606.9	153.695
1608.44	153.311
1609.98	152.638
1611.52	152.74
1613.06	152.172
1614.6	152.676
1616.13	152.275
1617.67	152.013
1619.21	152.302
1620.75	151.437
1622.28	151.156
1623.82	150.036
1625.36	149.243
1626.89	149.017
1628.43	148.003
1629.96	147.608
1631.5	146.001
1633.04	145.767
1634.57	146.028
1636.11	147.327
1637.64	146.546
1639.17	146.25
1640.71	148.251
1642.24	150.004
1643.77	150.438
1645.31	150.749
1646.84	150.199
1648.37	150.889
1649.9	151.846
1651.43	152.498
1652.96	152.315
1654.5	151.809
1656.03	151.673
1657.56	150.816
1659.09	149.404
1660.62	148.204
1662.15	146.392
1663.67	145.728
1665.2	142.447
1666.73	139.203
1668.26	136.26
1669.79	131.027
1671.32	127.631
1672.84	122.574
1674.37	117.24
1675.9	113.448
1677.43	108.806
1678.95	103.604
1680.48	99.4567
1682	94.348
1683.53	90.5873
1685.05	87.3181
1686.58	83.6511
1688.1	79.1905
1689.63	74.6101
1691.15	70.9755
1692.68	67.5987
1694.2	65.1123
1695.72	62.1673
1697.25	58.6254
1698.77	55.1578
1700.29	51.3323
1701.81	48.8882
1703.33	46.2232
1704.86	44.4189
1706.38	42.3674
1707.9	38.9428
1709.42	37.7449
1710.94	35.2707
1712.46	33.4503
1713.98	33.1963
1715.5	32.7066
1717.02	32.7803
1718.54	31.3626
1720.06	30.3066
1721.57	29.7249
1723.09	29.2705
1724.61	29.4696
1726.13	29.6581
1727.64	28.6889
1729.16	27.4158
1730.68	27.3252
1732.19	27.3757
1733.71	26.7896
1735.23	25.9914
1736.74	26.6898
1738.26	25.1651
1739.77	23.8987
1741.29	21.6964
1742.8	21.4024
1744.31	21.1544
1745.83	19.9515
1747.34	18.5521
1748.85	17.1043
1750.37	16.4788
1751.88	17.024
1753.39	16.3993
1754.91	16.3226
1756.42	16.1625
1757.93	15.3782
1759.44	16.3883
1760.95	16.5798
1762.46	15.1287
1763.97	13.8467
1765.48	13.5867
1766.99	13.6647
1768.5	13.3894
1770.01	12.4494
1771.52	11.8748
1773.03	11.6536
1774.54	10.8715
1776.04	10.5499
1777.55	10.3007
1779.06	9.63361
1780.57	9.20601
1782.07	8.31918
1783.58	7.70738
1785.09	8.34208
1786.59	8.06369
1788.1	8.69252
1789.6	8.73503
1791.11	7.59597
1792.61	6.57288
1794.12	6.02381
1795.62	5.74789
1797.13	4.88002
1798.63	3.61739
1800.13	4.03044
1801.64	3.52058
1803.14	3.14739
1804.64	4.03551
1806.15	4.09795
1807.65	4.03587
1809.15	3.17255
1810.65	3.01713
1812.15	2.67411
1813.65	1.64031
1815.16	2.34996
1816.66	2.55169
1818.15	2.46678
1819.66	2.39403
1821.16	2.44285
1822.65	2.97108
1824.15	3.76889
1825.65	4.24792
1827.15	5.60775
1828.65	5.48289
1830.15	6.07076
1831.64	7.52442
1833.14	7.17196
1834.64	6.98935
1836.14	6.56836
1837.63	6.69962
1839.13	6.24539
1840.62	6.53256
1842.12	6.79431
1843.62	6.60357
1845.11	6.78194
1846.61	6.54883
1848.1	6.5945
1849.6	6.10989
1851.09	5.48029
1852.58	4.97822
1854.08	4.62693
1855.57	3.802
1857.06	3.10688
1858.55	2.81114
1860.05	3.1792
1861.54	3.34379
1863.03	2.66835
1864.52	2.05599
1866.01	0.94228
1867.5	-0.391453
1869	-0.314036
1870.49	-0.184351
1871.98	0.427109
1873.47	0.406823
1874.96	1.19493
1876.44	2.29121
1877.93	2.64597
1879.42	3.73657
1880.91	3.52879
1882.4	3.44434
1882.47	2.53355
1883.96	4.06882
1885.46	4.5163
1886.95	5.41987
1888.44	6.53648
1889.94	7.99631
1891.43	8.24528
1892.93	9.12862
1894.42	9.22475
1895.91	9.64318
1897.4	8.755
1898.89	9.7485
1900.39	10.1242
1901.88	10.7191
1903.37	11.1424
1904.86	11.588
1906.35	11.0756
1907.84	12.6076
1909.33	13.4404
1910.82	14.466
1912.31	15.0827
1913.8	15.3829
1915.29	15.3496
1916.77	15.2899
1918.26	15.2878
1919.75	15.9049
1921.24	15.0375
1922.73	14.154
1924.21	13.9691
1925.7	14.1855
1927.19	14.73
1928.67	14.4203
1930.16	14.4287
1931.64	14.5759
1933.13	13.9495
1934.61	13.1791
1936.1	11.9145
1937.58	10.9738
1939.07	10.6993
1940.55	10.1497
1942.04	10.283
1943.52	10.0427
1945	8.93443
1946.49	7.96681
1947.97	7.50743
1949.45	7.18041
1950.93	5.86662
1952.42	5.53665
1953.9	5.57414
1955.38	5.38788
1956.86	5.80601
1958.34	6.3605
1959.82	4.82875
1961.3	5.08834
1962.78	4.28318
1964.26	5.18829
1965.74	4.32856
1967.22	4.19733
1968.7	3.33577
1970.18	3.01139
1971.65	3.22517
1973.13	4.43695
1974.61	4.8582
1976.09	5.59492
1977.57	6.25899
1979.04	8.42627
1980.52	8.92073
1982	9.95625
1983.47	10.121
1984.95	10.942
1986.42	10.9113
1987.9	10.9631
1989.37	12.1273
1990.85	11.7713
1992.32	11.9263
1993.8	12.3736
1995.27	12.6916
1996.75	13.6438
1998.22	14.0838
1999.69	14.5864
2001.17	14.4136
2002.64	14.1255
2004.11	14.4112
2005.58	14.5987
2007.05	14.5652
2008.53	14.6386
2010	15.0748
2011.47	15.1047
2012.94	14.8952
2014.41	14.2732
2015.88	14.9758
2017.35	15.0899
2018.82	15.2712
2020.29	15.5257
2021.76	15.97
2023.23	16.0049
2024.7	16.0764
2026.16	16.7008
2027.63	17.2324
2029.1	16.2364
2030.57	14.985
2032.03	14.8076
2033.5	14.722
2034.97	14.9036
2036.44	14.943
2037.9	16.5069
2039.37	16.1182
2040.83	15.7473
2042.3	15.3271
2043.76	15.6206
2045.23	15.5351
2046.69	15.223
2048.16	15.9271
2049.62	15.3863
2051.08	15.8787
2052.55	16.2027
2054.01	15.6554
2055.47	16.0128
2056.94	15.8159
2058.4	16.4516
2059.86	16.7591
2061.32	16.446
2062.79	16.5952
2064.25	16.1518
2065.71	18.297
2067.17	20.2902
2068.63	21.6338
2070.09	21.5629
2071.55	22.7021
2073.01	24.0852
2074.47	24.1229
2075.93	24.8366
2077.39	25.0121
2078.85	26.8271
2080.31	28.7566
2081.76	29.2927
2083.22	31.3139
2084.68	32.6969
2086.13	33.7759
2087.59	36.3706
2089.05	38.4319
2090.51	39.1511
2091.96	39.4741
2093.42	39.5514
2094.87	40.6294
2096.33	41.0321
2097.78	42.7105
2099.24	44.1095
2100.69	46.2857
2102.15	47.8638
2103.6	49.1127
2105.06	50.8945
2106.51	52.2779
2107.96	53.132
2109.42	55.1651
2110.87	56.4993
2112.32	57.3841
2113.77	59.2464
2115.23	61.0099
2116.68	62.5562
2118.13	64.6569
2119.58	66.4065
2121.03	68.2764
2122.48	70.1626
2123.93	73.5167
2125.38	76.5368
2126.83	77.8802
2128.28	79.7946
2129.73	81.9324
2131.18	84.3114
2132.63	86.8166
2134.08	88.8241
2135.53	92.6058
2136.97	95.3913
2138.42	99.5697
