#Acq. time (s)=	45
#Accumulations=	2
#Range (cm-¹)=	200...3150
#Windows=	2
#Auto scanning=	Off
#Autofocus=	Off
#Macrospot=	Off
#AutoExposure=	Off
#Spike filter=	Multiple accum.
#Delay time (s)=	0
#Binning=	1
#Readout mode=	Signal
#DeNoise=	Off
#ICS correction=	On
#Dark correction=	Off
#Inst. Process=	Off
#Detector Gain=	Best Dynamic Range
#Detector ADC=	20 kHz       
#Detector temperature (°C)=	-69.85
#Instrument=	LabRAM HR Evol
#Detector=	Synapse
#Objective=	x100
#Grating=	600 gr/mm
#ND Filter=	100%
#Laser (nm)=	532 
#Hole=	100.021
#Range=	Auto
#Laser Pol.=	No
#Raman. Pol.=	No
#Laser Pol. (°)=	-0.0007625
#Raman Pol. (°)=	89.9995
#Collection=	Microscope
#StageXY=	Marzhauser
#StageZ=	Marzhauser
#X (µm)=	-1080.6
#Y (µm)=	595.5
#Z (µm)=	584.35
#Full time(mm:ss)=	3:18
#Project=	
#Sample=	
#Site=	
#Title=	Mb_40_y_38_2x_45s_532 nm_x100_100%_600 gr_mm
#Remark=	
#Date=	19.07.2022 12:34
#Acquired=	19.07.2022 12:34:10
#Base:Fit=	10.08.2022 10:52:48
#Base:Sub=	10.08.2022 10:52:53
#Filter:Polynom=	16.08.2022 10:09:04
#AxisType[0]=Intens
#AxisUnit[0]=Cnt
#AxisType[1]=Spectr
#AxisUnit[1]=1/cm
200.423	46.2892
202.238	41.9252
204.052	38.1235
205.868	34.9389
207.682	31.4472
209.495	28.2705
211.308	25.3256
213.12	23.0641
214.935	20.274
216.746	17.7024
218.558	15.6768
220.369	13.4846
222.18	11.9201
223.992	10.1778
225.802	8.43888
227.612	6.43561
229.421	6.77149
231.23	6.83839
233.039	5.62227
234.849	5.97462
236.657	3.66559
238.465	2.1911
240.272	1.14748
242.079	1.38953
243.885	1.23913
245.691	0.0351533
247.497	-0.468006
249.305	-1.69531
251.11	-2.06414
252.915	-1.3341
254.719	-0.590081
256.523	-0.0580885
258.327	-0.142481
260.13	-0.354087
261.933	0.209605
263.736	1.55217
265.538	2.5459
267.34	3.48784
269.141	4.12129
270.943	4.28938
272.744	5.30334
274.544	5.66805
276.344	6.98545
278.144	7.68017
279.944	7.43423
281.743	8.28978
283.542	8.06585
285.34	8.80822
287.138	10.0617
288.936	10.1905
290.733	10.1736
292.53	11.2861
294.327	10.9923
296.123	11.9355
297.919	12.845
299.715	13.3223
301.508	14.612
303.303	14.7908
305.098	15.4784
306.892	16.0116
308.686	16.8204
310.479	16.397
312.273	17.6715
314.065	17.9708
315.858	18.4909
317.648	19.5681
319.44	20.3439
321.231	20.2761
323.022	19.4849
324.813	20.6415
326.604	19.8567
328.392	20.2083
330.181	20.9966
331.971	22.0043
333.76	20.7806
335.548	20.1918
337.335	21.0484
339.123	20.6818
340.91	21.0875
342.698	21.6128
344.483	21.7805
346.269	20.2643
348.055	18.9256
349.841	19.5953
351.625	19.7614
353.41	19.1764
355.195	18.6822
356.977	18.9818
358.762	17.5199
360.545	16.9438
362.329	16.43
364.11	15.6559
365.893	15.6025
367.675	15.0635
369.455	15.0555
371.237	13.8044
373.017	12.5337
374.798	12.4826
376.578	12.0373
378.357	11.4055
380.137	10.632
381.917	10.7817
383.694	10.0361
385.473	10.5611
387.249	9.06391
389.028	8.87427
390.806	9.85433
392.581	10.0423
394.359	10.7867
396.134	9.35075
397.91	9.76825
399.684	9.41841
401.46	9.69306
403.234	9.53461
405.009	9.72601
406.784	10.0798
408.557	9.5638
410.331	9.80893
412.103	10.1795
413.876	10.5555
415.647	10.6799
417.42	10.499
419.191	11.6809
420.961	11.0817
422.733	10.2903
424.502	10.2548
426.273	9.78377
428.042	8.59662
429.812	8.21621
431.58	7.44817
433.35	6.61743
435.118	5.94892
436.885	5.5423
438.653	6.02801
440.42	5.32292
442.188	4.83056
443.954	4.88584
445.719	5.41493
447.486	4.43365
449.251	5.18808
451.015	5.24619
452.781	6.06968
454.545	7.26798
456.308	6.85546
458.073	7.31212
459.836	7.33736
461.598	8.16859
463.362	9.56466
465.124	10.3134
466.885	11.2718
468.648	11.628
470.408	12.2824
472.169	13.1575
473.929	14.4119
475.69	15.8106
477.45	18.6484
479.208	20.3706
480.967	21.2761
482.727	22.3447
484.485	22.9297
486.243	24.1685
488	24.2954
489.759	25.8066
491.515	27.3578
493.272	27.5463
495.028	27.9392
496.783	28.8153
498.54	30.1718
500.295	30.6461
502.05	31.4007
503.804	32.4249
505.558	32.2428
507.311	31.2323
509.064	30.0132
510.819	30.413
512.572	29.6689
514.324	29.6835
516.076	29.1727
517.827	28.6777
519.578	27.8829
521.329	27.9383
523.08	28.1203
524.83	26.3818
526.58	25.6652
528.329	25.5617
530.08	26.0534
531.829	25.5481
533.578	25.3268
535.326	24.8466
537.074	25.1672
538.821	23.7692
540.568	23.0229
542.315	22.0137
544.062	21.9139
545.808	20.8547
547.554	20.1597
549.299	19.7944
551.044	20.0494
552.789	20.1813
554.533	19.8961
556.278	20.6912
558.019	19.782
559.763	19.898
561.506	19.4769
563.249	19.1127
564.991	19.2612
566.733	17.947
568.475	17.9924
570.217	16.9725
571.958	15.6666
573.699	14.4912
575.439	14.158
577.177	14.0472
578.917	12.9735
580.656	12.0703
582.396	11.6495
584.134	11.3649
585.873	11.1266
587.609	10.1419
589.347	11.8012
591.084	9.82067
592.822	8.6112
594.558	7.4749
596.295	7.57899
598.029	8.13863
599.765	7.54082
601.5	6.56862
603.235	5.5174
604.968	5.5135
606.703	6.1991
608.437	6.2936
610.171	7.08445
611.902	6.92376
613.635	9.54562
615.368	11.4075
617.099	12.1408
618.831	11.1819
620.563	11.9959
622.294	12.5412
624.024	11.902
625.755	10.8878
627.485	11.6072
629.213	12.2826
630.943	13.676
632.673	13.7087
634.4	15.5435
636.129	16.7339
637.855	16.2829
639.584	17.0018
641.312	16.528
643.037	17.2878
644.764	15.41
646.491	14.5858
648.216	14.3508
649.942	14.8044
651.666	14.705
653.392	14.7689
655.115	15.9504
656.84	15.4094
658.563	15.2954
660.287	15.5092
662.011	15.8154
663.732	15.7484
665.456	14.8287
667.177	15.682
668.899	15.8528
670.62	15.9483
672.342	16.1142
674.061	15.7985
675.781	16.1385
677.502	14.6905
679.22	16.2544
680.941	16.6174
682.659	18.0228
684.379	19.5971
686.096	20.6589
687.815	21.6101
689.532	24.2923
691.248	26.3081
692.966	29.0537
694.682	29.4016
696.4	31.3623
698.115	32.6906
699.829	33.8345
701.546	33.9692
703.26	34.9691
704.974	36.1376
706.689	38.292
708.402	39.5299
710.115	40.7455
711.83	41.811
713.542	43.821
715.254	45.1492
716.967	46.1869
718.679	45.8984
720.39	45.3871
722.102	45.0278
723.812	45.4423
725.522	45.924
727.232	44.8204
728.943	43.8969
730.652	43.2951
732.361	43.378
734.069	44.3502
735.779	44.7075
737.487	44.8936
739.194	45.0802
740.901	45.3164
742.608	45.1296
744.316	45.5541
746.022	46.0313
747.728	45.7963
749.433	46.9342
751.138	46.9573
752.843	48.772
754.549	48.8571
756.254	49.269
757.957	50.054
759.661	51.1931
761.364	52.0621
763.067	52.1451
764.769	52.953
766.471	53.8046
768.175	55.735
769.877	56.8905
771.578	57.8239
773.279	57.6484
774.98	57.6792
776.68	57.3439
778.38	59.0451
780.079	57.9245
781.779	59.666
783.478	60.8763
785.176	61.9827
786.875	64.3903
788.573	65.4835
790.27	66.3361
791.968	65.9447
793.665	65.0688
795.361	65.9388
797.058	65.2527
798.754	64.7524
800.45	63.8393
802.145	64.0494
803.84	63.5313
805.535	63.8945
807.23	64.8353
808.922	63.6238
810.616	62.8754
812.309	61.8452
814.002	61.6045
815.695	62.7031
817.388	61.7838
819.08	61.8383
820.772	61.5087
822.464	61.9693
824.153	61.2316
825.844	61.4119
827.535	60.5802
829.225	60.3515
830.915	59.5361
832.605	58.7782
834.292	59.1325
835.981	58.1227
837.67	58.2886
839.359	57.4002
841.047	55.8554
842.732	54.7091
844.42	53.3316
846.107	51.7216
847.794	50.71
849.479	50.3263
851.165	49.3715
852.851	48.9375
854.534	47.6719
856.22	46.5515
857.905	45.8838
859.589	46.1571
861.272	45.877
862.956	46.3046
864.639	44.7265
866.321	45.737
868.004	45.9956
869.687	45.5399
871.367	45.5227
873.049	44.9125
874.731	44.2663
876.41	42.6872
878.092	43.3008
879.771	45.3729
881.451	45.1667
883.131	46.4591
884.809	46.9412
886.489	47.8966
888.166	47.8715
889.845	48.4836
891.522	47.5937
893.2	46.2131
894.878	46.3518
896.554	45.4641
898.231	44.2212
899.906	43.5173
901.583	42.4635
903.258	41.5571
904.934	41.3546
906.608	41.5261
908.283	40.7459
909.956	40.7773
911.631	40.7092
913.304	41.2641
914.976	40.855
916.65	41.1194
918.322	40.4431
919.995	38.1834
921.666	37.1521
923.339	36.2229
925.009	34.8646
926.679	34.3052
928.351	34.5173
930.021	34.6017
931.692	34.3244
933.361	32.6465
935.029	32.4861
936.699	32.8961
938.367	32.6416
940.035	33.3531
941.704	33.1457
943.371	32.551
945.038	31.9194
946.706	31.4401
948.372	30.5003
950.038	31.1424
951.705	30.9952
953.37	30.4481
955.035	30.5375
956.7	29.3969
958.366	27.9311
960.03	27.7136
961.693	27.9392
963.357	28.8237
965.021	28.3944
966.684	27.7494
968.346	27.662
970.008	28.0567
971.67	27.7706
973.334	27.051
974.995	26.4695
976.655	26.8438
978.316	27.8774
979.976	27.3586
981.638	27.2156
983.297	28.9476
984.957	30.2916
986.616	30.7347
988.274	33.0306
989.932	32.6583
991.59	32.3657
993.248	30.6474
994.907	29.3335
996.565	27.1413
998.221	24.4541
999.878	20.9766
1001.53	16.2317
1003.19	13.8378
1004.85	13.9959
1006.5	14.9648
1008.16	17.2661
1009.81	24.502
1011.46	34.4237
1013.12	46.4728
1014.77	60.0465
1016.43	74.5683
1018.08	90.7932
1019.73	106.355
1021.38	122.325
1023.04	137.554
1024.69	151.571
1026.34	164.889
1027.99	177.146
1029.64	187.72
1031.29	198.98
1032.94	208.739
1034.59	217.089
1036.24	223.243
1037.89	228.75
1039.54	232.741
1041.19	237.531
1042.84	240.445
1044.48	241.876
1046.13	242.478
1047.78	241.328
1049.42	239.943
1051.07	236.999
1052.72	233.136
1054.36	228.308
1056.01	223.302
1057.66	216.941
1059.3	209.1
1060.94	200.157
1062.59	188.789
1064.23	178.165
1065.88	166.891
1067.52	153.216
1069.16	138.515
1070.81	123.632
1072.45	106.875
1074.09	91.2832
1075.73	74.9959
1077.38	60.3399
1079.02	45.3851
1080.66	32.9699
1082.3	20.731
1083.94	11.1703
1085.58	5.48866
1087.22	2.19208
1088.86	1.33495
1090.5	3.33866
1092.13	7.85288
1093.77	11.8572
1095.41	15.6639
1097.05	19.1717
1098.68	21.3179
1100.32	23.9664
1101.96	25.5139
1103.6	27.518
1105.23	28.938
1106.87	30.4162
1108.5	30.732
1110.14	31.1658
1111.77	31.5311
1113.41	32.7069
1115.04	32.584
1116.67	32.2849
1118.31	31.8956
1119.94	31.7294
1121.58	31.8317
1123.21	32.2151
1124.84	30.2321
1126.47	29.2626
1128.1	28.3131
1129.73	27.9266
1131.37	27.5868
1133	25.645
1134.63	25.6962
1136.26	24.7382
1137.89	24.6333
1139.52	23.4635
1141.14	22.2776
1142.77	21.7475
1144.4	21.2897
1146.03	21.5331
1147.66	19.6006
1149.29	18.5031
1150.91	17.7003
1152.54	16.9542
1154.17	15.6701
1155.79	14.8371
1157.42	13.1483
1159.04	11.7246
1160.67	9.68669
1162.3	8.20432
1163.92	6.44934
1165.55	5.49198
1167.17	4.82151
1168.79	4.9378
1170.42	5.02454
1172.04	5.06764
1173.66	5.23874
1175.28	4.86252
1176.91	4.8899
1178.53	5.02799
1180.15	3.90677
1181.77	4.4619
1183.39	4.48957
1185.01	5.57934
1186.63	5.61047
1188.25	5.73904
1189.87	4.96754
1191.49	4.95554
1193.11	5.20719
1194.73	4.85078
1196.35	4.3751
1197.97	4.26153
1199.59	5.17922
1201.2	5.89899
1202.82	6.20516
1204.44	6.10097
1206.05	6.26127
1207.67	7.24543
1209.29	8.22988
1210.9	9.87234
1212.52	11.5929
1214.13	13.1188
1215.75	14.8277
1217.36	16.097
1218.97	17.853
1220.59	19.7469
1222.2	21.2625
1223.82	23.8342
1225.43	25.8128
1227.04	27.0027
1228.65	28.3244
1230.26	31.293
1231.88	33.5957
1233.49	35.993
1235.1	37.2531
1236.71	39.7388
1238.32	41.8784
1239.93	44.0004
1241.54	45.5854
1243.15	48.1594
1244.76	50.0185
1246.37	51.1963
1247.97	52.1036
1249.58	53.795
1251.19	55.0329
1252.8	56.1993
1254.41	57.076
1256.01	58.4338
1257.62	59.5395
1259.23	60.4404
1260.83	62.3216
1262.44	63.7309
1264.04	64.2591
1265.65	64.5137
1267.25	63.9917
1268.86	64.8997
1270.46	66.0539
1272.07	66.4175
1273.67	67.1694
1275.27	67.1914
1276.88	68.8561
1278.48	71.5945
1280.08	72.9301
1281.68	74.1672
1283.28	74.5028
1284.89	75.5411
1286.49	76.9454
1288.09	77.1082
1289.69	78.0583
1291.29	78.7023
1292.89	79.6403
1294.49	79.2335
1296.09	78.6912
1297.69	79.7631
1299.29	80.0387
1300.88	80.8919
1302.48	80.1086
1304.08	82.2702
1305.68	82.2079
1307.27	82.2249
1308.87	83.6457
1310.47	83.744
1312.06	84.4289
1313.66	84.3148
1315.25	84.2082
1316.85	85.1581
1318.44	85.4788
1320.04	85.2592
1321.63	85.6726
1323.23	86.3415
1324.82	84.9395
1326.41	85.4737
1328.01	86.0269
1329.6	86.0169
1331.19	85.901
1332.78	84.4867
1334.38	84.2521
1335.97	84.6612
1337.56	83.2782
1339.15	82.5731
1340.74	82.2304
1342.33	80.3178
1343.92	78.5789
1345.51	77.3307
1347.1	75.5112
1348.69	75.7803
1350.28	75.6475
1351.87	73.8351
1353.46	73.0519
1355.04	72.6586
1356.63	72.4649
1358.22	71.7473
1359.81	69.6048
1361.39	68.8436
1362.98	68.0583
1364.57	66.2381
1366.15	64.9428
1367.74	63.3493
1369.32	62.2704
1370.91	61.041
1372.49	59.5278
1374.07	57.9519
1375.66	56.7182
1377.24	55.8624
1378.83	54.1306
1380.41	53.7768
1381.99	53.0065
1383.57	53.4563
1385.16	52.2634
1386.74	52.6622
1388.32	53.3122
1389.9	54.112
1391.48	54.8535
1393.06	55.4216
1394.64	55.72
1396.22	56.5558
1397.8	56.7831
1399.38	57.7338
1400.96	57.8822
1402.54	58.7964
1404.12	59.467
1405.7	61.2902
1407.28	61.9432
1408.85	63.0142
1410.43	64.7038
1412.01	66.0459
1413.58	68.6879
1415.16	70.1788
1416.74	71.9983
1418.31	73.6219
1419.89	75.933
1421.46	78.6192
1423.04	80.4876
1424.61	84.204
1426.19	87.8586
1427.76	92.4249
1429.33	94.8384
1430.91	98.1025
1432.48	100.946
1434.05	103.745
1435.63	106.137
1437.2	109.025
1438.77	111.631
1440.34	114.373
1441.91	116.153
1443.49	116.506
1445.05	117.421
1446.63	117.556
1448.2	117.777
1449.77	118.076
1451.34	117.292
1452.91	116.958
1454.47	114.943
1456.04	113.581
1457.61	112.278
1459.18	110.633
1460.75	109.044
1462.31	106.867
1463.88	104.776
1465.45	101.375
1467.01	98.3268
1468.58	94.8077
1470.15	90.5639
1471.71	87.2635
1473.28	83.4744
1474.84	80.476
1476.41	77.8858
1477.97	74.5571
1479.54	70.3689
1481.1	66.6632
1482.66	63.2575
1484.23	59.6898
1485.79	56.3482
1487.35	53.518
1488.91	50.4768
1490.48	47.9396
1492.04	45.5723
1493.6	43.953
1495.16	42.727
1496.72	40.7672
1498.28	40.3424
1499.84	39.2317
1501.4	38.2577
1502.96	38.089
1504.52	37.2759
1506.08	36.2761
1507.64	35.4235
1509.2	35.7217
1510.76	35.0721
1512.31	34.5116
1513.87	33.8021
1515.43	33.8621
1516.99	33.0871
1518.54	33.4143
1520.1	32.0624
1521.66	31.0207
1523.21	30.9207
1524.77	30.8804
1526.32	30.8432
1527.88	30.3681
1529.43	29.7879
1530.99	30.4668
1532.54	29.501
1534.09	29.8356
1535.65	30.3878
1537.2	30.628
1538.75	31.5563
1540.31	31.6602
1541.86	32.9723
1543.41	33.4643
1544.96	34.3026
1546.51	34.8558
1548.06	36.7719
1549.62	37.4377
1551.17	39.275
1552.72	40.1587
1554.27	40.4675
1555.82	39.9019
1557.36	41.0868
1558.91	41.5007
1560.46	42.8446
1562.01	43.559
1563.56	44.4206
1565.11	45.3488
1566.66	45.897
1568.2	47.2019
1569.75	48.3681
1571.3	50.1829
1572.84	51.4699
1574.39	52.4229
1575.93	53.7962
1577.48	54.8809
1579.02	56.1565
1580.57	56.9542
1582.11	58.7686
1583.66	60.2612
1585.2	60.8017
1586.75	61.1464
1588.29	61.8546
1589.83	61.6257
1591.38	62.0485
1592.92	63.5087
1594.46	63.9335
1596	64.7811
1597.54	64.4697
1599.09	64.5898
1600.63	64.6071
1602.17	63.5651
1603.71	63.2886
1605.25	63.3721
1606.79	63.2695
1608.33	62.9307
1609.87	62.5818
1611.41	63.0924
1612.95	62.9066
1614.48	62.9335
1616.02	63.7855
1617.56	64.5301
1619.1	65.8502
1620.64	64.6633
1622.17	65.0828
1623.71	66.1874
1625.25	67.2991
1626.78	68.1246
1628.32	69.2039
1629.86	69.1007
1631.39	69.8268
1632.92	71.5167
1634.46	72.5965
1635.99	73.6645
1637.53	74.7514
1639.06	75.8129
1640.59	76.0537
1642.13	76.4526
1643.66	77.8452
1645.19	79.6273
1646.73	80.1987
1648.26	82.4203
1649.79	83.774
1651.32	83.9264
1652.85	85.2188
1654.38	85.0498
1655.92	85.357
1657.45	85.0489
1658.98	84.8494
1660.51	84.2172
1662.04	82.5282
1663.57	81.5364
1665.09	80.568
1666.62	78.1448
1668.15	75.3736
1669.68	74.0693
1671.21	71.5031
1672.73	68.9291
1674.26	66.0376
1675.79	63.3143
1677.31	60.7318
1678.84	57.9724
1680.37	55.219
1681.89	51.8729
1683.42	48.9494
1684.94	45.681
1686.47	43.0673
1687.99	39.397
1689.52	36.9942
1691.04	35.2578
1692.57	33.0228
1694.09	30.1341
1695.61	27.1131
1697.14	24.2871
1698.66	23.4001
1700.18	21.6288
1701.7	19.9559
1703.22	18.3729
1704.75	16.6316
1706.27	15.711
1707.79	14.2515
1709.31	12.9287
1710.83	11.7493
1712.35	10.6917
1713.87	9.10137
1715.39	8.4838
1716.91	7.92781
1718.43	7.52462
1719.95	7.74762
1721.46	7.9076
1722.98	7.51104
1724.5	7.77454
1726.02	7.19517
1727.53	6.85246
1729.05	7.27304
1730.57	6.74105
1732.08	7.23459
1733.6	6.87462
1735.12	6.50439
1736.63	5.76636
1738.15	5.13559
1739.66	5.00973
1741.18	4.86175
1742.69	4.22484
1744.21	4.13668
1745.72	4.86263
1747.23	4.14367
1748.74	3.86481
1750.26	3.61851
1751.77	3.71612
1753.28	3.15454
1754.8	2.84655
1756.31	2.39265
1757.82	2.42051
1759.33	1.95047
1760.84	1.08538
1762.35	0.723892
1763.86	0.996733
1765.37	1.1268
1766.88	0.439753
1768.39	0.258306
1769.9	0.0148581
1771.41	-0.152025
1772.92	-0.0817593
1774.43	-0.307081
1775.93	-0.743202
1777.44	-0.696993
1778.95	-1.23833
1780.46	-0.807455
1781.96	-0.827838
1783.47	-1.12137
1784.98	-0.624675
1786.48	-0.0511647
1787.99	0.148569
1789.49	0.6995
1791	0.759268
1792.5	0.552374
1794.01	0.560021
1795.51	1.15828
1797.02	1.42729
1798.52	1.19006
1800.03	1.39955
1801.53	2.18228
1803.03	2.51236
1804.53	2.32613
1806.04	2.29971
1807.54	2.00312
1809.04	1.67386
1810.54	1.11266
1812.04	1.32941
1813.54	1.9398
1815.05	1.48971
1816.55	1.43202
1818.05	1.19023
1819.55	1.28559
1821.05	1.83633
1822.55	1.62582
1824.05	1.8704
1825.54	1.9921
1827.04	2.11706
1828.54	1.95008
1830.04	1.83356
1831.54	1.80964
1833.03	2.01522
1834.53	1.85402
1836.03	2.05213
1837.52	1.85797
1839.02	2.03906
1840.52	2.24595
1842.01	2.21589
1843.51	3.33864
1845	3.0759
1846.5	3.15208
1847.99	3.1878
1849.49	3.4817
1850.98	4.07506
1852.47	3.94553
1853.97	4.75327
1855.46	4.89117
1856.95	4.72375
1858.45	4.83022
1859.94	5.63932
1861.43	5.68066
1862.92	6.27535
1864.41	6.1626
1865.91	6.19494
1867.4	6.93242
1868.89	7.7085
1870.38	8.0603
1871.87	7.76066
1873.36	7.73307
1874.85	7.64989
1876.34	7.50329
1877.83	6.85219
1879.31	6.06264
1880.8	5.80108
1882.29	5.7058
1882.56	6.07557
1884.05	6.1426
1885.54	6.66285
1887.04	6.67184
1888.53	6.74518
1890.03	6.21721
1891.52	6.10828
1893.01	5.79442
1894.5	4.99673
1895.99	4.74933
1897.49	4.25385
1898.98	3.82335
1900.47	3.74787
1901.96	3.27579
1903.45	3.39775
1904.94	3.8352
1906.43	3.59016
1907.92	2.57949
1909.41	2.03998
1910.9	1.81168
1912.39	2.37595
1913.88	2.66665
1915.37	2.89297
1916.86	3.26342
1918.35	2.77093
1919.84	3.28508
1921.32	3.6566
1922.81	4.04149
1924.3	3.85342
1925.78	3.3918
1927.27	3.93877
1928.76	2.79339
1930.24	2.93891
1931.73	4.10208
1933.21	4.88704
1934.7	4.72643
1936.18	5.08221
1937.67	4.67003
1939.15	4.71075
1940.64	4.4834
1942.12	4.41993
1943.6	4.36618
1945.09	5.23827
1946.57	4.96906
1948.05	4.58086
1949.54	4.80207
1951.02	4.90765
1952.5	5.92964
1953.98	7.67925
1955.46	7.87961
1956.94	7.99883
1958.42	7.96599
1959.91	8.3425
1961.39	7.83554
1962.87	7.28677
1964.34	6.03825
1965.82	6.0621
1967.3	5.48098
1968.78	5.82959
1970.26	6.12425
1971.74	5.8333
1973.22	5.50081
1974.7	5.1295
1976.17	5.0223
1977.65	4.91864
1979.13	4.69763
1980.6	4.58747
1982.08	4.80842
1983.56	5.08032
1985.03	4.58977
1986.51	5.11355
1987.98	5.40415
1989.46	6.66961
1990.93	6.68579
1992.41	6.83394
1993.88	7.01303
1995.36	6.40454
1996.83	6.43882
1998.3	6.41176
1999.78	7.2409
2001.25	7.66308
2002.72	8.301
2004.2	9.39908
2005.67	10.2128
2007.14	10.5059
2008.61	10.9219
2010.08	11.3326
2011.55	11.5665
2013.02	12.2849
2014.49	13.3204
2015.97	14.6709
2017.43	16.0662
2018.9	17.1545
2020.37	17.0462
2021.84	17.7471
2023.31	18.8527
2024.78	19.539
2026.25	20.2809
2027.72	20.2064
2029.19	19.5071
2030.65	19.9669
2032.12	21.1107
2033.59	21.3374
2035.05	20.8228
2036.52	19.5967
2037.98	20.208
2039.45	20.4898
2040.92	20.7903
2042.38	20.695
2043.85	20.1627
2045.31	19.6935
2046.78	18.3288
2048.24	17.6695
2049.71	17.9703
2051.17	17.7978
2052.63	17.9211
2054.1	17.565
2055.56	17.1238
2057.02	17.1045
2058.48	17.3285
2059.95	18.4811
2061.41	18.0752
2062.87	18.0911
2064.33	17.4557
2065.79	17.0324
2067.25	17.1763
2068.71	17.5561
2070.17	18.3822
2071.63	18.4363
2073.09	19.1498
2074.55	20.3725
2076.01	21.2081
2077.47	21.5576
2078.93	22.5702
2080.39	22.938
2081.85	23.684
2083.3	24.1027
2084.76	24.6021
2086.22	25.6472
2087.68	26.5056
2089.13	27.514
2090.59	28.2452
2092.05	28.7899
2093.5	29.4962
2094.96	30.4272
2096.41	31.4988
2097.87	33.0773
2099.32	33.8874
2100.78	35.8155
2102.23	37.6538
2103.69	38.5859
2105.14	39.8593
2106.59	39.8517
2108.05	40.3529
2109.5	41.4757
2110.95	43.1036
2112.41	43.7523
2113.86	44.5129
2115.31	45.2928
2116.76	46.0593
2118.21	47.5596
2119.67	48.3392
2121.12	49.9879
2122.57	52.1534
2124.02	53.4217
2125.47	55.0482
2126.92	57.0801
2128.37	59.3442
2129.82	61.2024
2131.27	63.1271
2132.71	64.6941
