#Acq. time (s)=	45
#Accumulations=	2
#Range (cm-¹)=	200...3150
#Windows=	2
#Auto scanning=	Off
#Autofocus=	Off
#Macrospot=	Off
#AutoExposure=	Off
#Spike filter=	Multiple accum.
#Delay time (s)=	0
#Binning=	1
#Readout mode=	Signal
#DeNoise=	Off
#ICS correction=	On
#Dark correction=	Off
#Inst. Process=	Off
#Detector Gain=	Best Dynamic Range
#Detector ADC=	20 kHz       
#Detector temperature (°C)=	-70.08
#Instrument=	LabRAM HR Evol
#Detector=	Synapse
#Objective=	x100
#Grating=	600 gr/mm
#ND Filter=	100%
#Laser (nm)=	532 
#Hole=	100.021
#Range=	Auto
#Laser Pol.=	No
#Raman. Pol.=	No
#Laser Pol. (°)=	-0.0007625
#Raman Pol. (°)=	89.9995
#Collection=	Microscope
#StageXY=	Marzhauser
#StageZ=	Marzhauser
#X (µm)=	-2507.1
#Y (µm)=	-53.1
#Z (µm)=	-10.8
#Full time(mm:ss)=	3:09
#Project=	
#Sample=	
#Site=	
#Title=	Mb_40_24_39_2x_45s_532 nm_x100_100%_600 gr_mm
#Remark=	
#Date=	14.07.2022 13:47
#Acquired=	14.07.2022 13:47:25
#Edit:Spike=	14.07.2022 13:48:32
#Base:Fit=	10.08.2022 10:47:00
#Base:Sub=	10.08.2022 10:47:12
#Filter:Polynom=	16.08.2022 10:11:48
#AxisType[0]=Intens
#AxisUnit[0]=Cnt
#AxisType[1]=Spectr
#AxisUnit[1]=1/cm
200.554	112.381
202.369	101.458
204.183	90.9547
205.999	80.0118
207.813	71.029
209.626	62.3826
211.439	54.9861
213.253	48.5792
215.065	42.0833
216.877	35.3198
218.688	31.0494
220.5	27.586
222.312	25.3234
224.123	22.3005
225.933	18.1287
227.742	15.5409
229.552	14.1844
231.361	13.8827
233.171	12.2811
234.98	12.4912
236.787	12.5404
238.595	12.567
240.402	12.3723
242.209	12.6477
244.015	12.8006
245.822	14.2265
247.627	16.0291
249.435	16.3265
251.24	17.6799
253.045	18.5494
254.849	22.148
256.653	23.7292
258.457	27.8188
260.26	31.0246
262.063	32.9948
263.866	33.7123
265.668	35.4325
267.47	37.4948
269.271	39.9008
271.073	41.7729
272.873	43.0079
274.674	43.4286
276.474	44.0566
278.274	44.7782
280.073	47.186
281.872	49.178
283.671	51.5634
285.47	53.2451
287.268	55.4218
289.065	58.2774
290.863	59.9906
292.66	61.4038
294.456	63.2063
296.253	66.2285
298.049	69.72
299.844	73.7296
301.637	77.4233
303.432	81.2018
305.227	83.5618
307.021	88.5992
308.815	93.5045
310.609	95.5943
312.402	98.5129
314.195	100.563
315.987	103.589
317.777	106.918
319.569	107.653
321.36	108.791
323.151	109.258
324.942	110.406
326.733	109.823
328.521	107.956
330.31	105.203
332.1	102.018
333.889	99.8926
335.677	98.8277
337.464	96.145
339.252	92.1345
341.039	89.9777
342.826	86.5026
344.611	82.8529
346.398	79.762
348.184	76.8799
349.97	72.4027
351.754	66.1694
353.539	61.0755
355.324	57.2125
357.106	52.3176
358.89	48.5028
360.674	43.7605
362.455	38.5605
364.239	33.295
366.021	29.7189
367.804	27.3917
369.584	24.2395
371.366	21.3438
373.145	17.0137
374.926	12.9326
376.707	11.4272
378.485	8.87129
380.265	6.41669
382.045	6.26472
383.822	6.45651
385.601	8.94633
387.378	11.7048
389.156	12.6318
390.934	14.1111
392.71	15.3479
394.487	15.899
396.262	17.4023
398.038	17.9896
399.813	16.6396
401.588	18.8472
403.362	20.6124
405.137	20.5626
406.912	19.0379
408.685	19.7722
410.459	22.1688
412.23	21.7497
414.004	21.2752
415.775	20.8904
417.548	19.3752
419.318	20.3135
421.089	20.6168
422.86	22.8531
424.63	22.9931
426.401	22.4827
428.17	21.1142
429.94	20.421
431.708	20.0236
433.478	19.4463
435.245	18.2754
437.012	16.5788
438.781	15.1892
440.547	14.3684
442.315	14.7987
444.081	13.9456
445.846	12.1859
447.613	11.4749
449.378	11.232
451.142	11.1488
452.908	11.6919
454.672	12.8146
456.435	11.3034
458.2	9.74333
459.963	8.51442
461.725	8.39789
463.489	9.07523
465.251	10.2014
467.012	10.9625
468.775	12.9675
470.536	14.9366
472.296	15.1151
474.056	16.3035
475.817	15.5523
477.576	15.2451
479.335	15.3991
481.094	15.7376
482.854	16.812
484.612	18.8742
486.37	20.5101
488.127	21.2309
489.886	23.9131
491.642	25.513
493.398	24.3195
495.154	25.2054
496.91	26.7975
498.667	26.7439
500.422	26.8108
502.176	28.0745
503.93	28.7913
505.684	29.1571
507.438	30.1829
509.191	29.6339
510.946	28.8587
512.698	27.1387
514.45	26.5794
516.202	25.3742
517.954	25.2392
519.705	25.4104
521.456	23.6118
523.206	22.5542
524.956	22.9491
526.706	24.5598
528.456	24.3582
530.207	24.6614
531.956	24.6452
533.704	24.4033
535.452	23.8068
537.2	23.7326
538.947	24.1934
540.694	23.8209
542.441	23.0592
544.188	22.1783
545.934	21.712
547.68	21.5834
549.425	21.0418
551.17	20.0654
552.915	21.0346
554.659	19.5359
556.403	18.6665
558.145	17.5824
559.889	15.9171
561.632	15.4738
563.375	15.2388
565.117	16.5692
566.859	16.4695
568.601	15.6352
570.342	15.2296
572.083	14.5029
573.824	12.6893
575.565	11.6805
577.303	10.9289
579.043	10.2951
580.782	9.46066
582.521	9.79623
584.26	9.26557
585.998	9.18567
587.734	8.14383
589.472	7.13437
591.21	5.69195
592.947	5.33162
594.684	5.14079
596.418	4.77271
598.154	3.46362
599.89	3.93416
601.626	5.67889
603.361	7.13499
605.094	8.64756
606.828	10.2223
608.562	10.3983
610.296	11.1812
612.027	12.7695
613.761	12.8956
615.493	12.0334
617.224	13.2107
618.956	12.7599
620.688	13.6328
622.419	13.0613
624.149	14.7963
625.879	15.5222
627.61	15.2987
629.338	16.0515
631.068	16.6087
632.797	16.119
634.525	16.5095
636.254	16.7708
637.98	18.1794
639.708	19.0655
641.436	18.3607
643.162	19.3125
644.889	17.6185
646.614	17.2578
648.34	17.6535
650.067	18.2297
651.791	16.8202
653.516	15.426
655.239	13.5227
656.964	12.2336
658.687	11.9669
660.411	11.0787
662.133	9.66239
663.857	10.2081
665.58	8.91305
667.301	8.76062
669.024	9.04872
670.744	9.61919
672.464	10.2827
674.186	12.1988
675.905	14.8021
677.626	16.9527
679.345	20.3896
681.065	22.4786
682.783	23.9381
684.503	25.5423
686.22	27.1801
687.939	28.3453
689.656	28.0605
691.372	28.5236
693.09	27.3186
694.806	23.4455
696.523	22.9372
698.239	21.8672
699.953	20.4913
701.67	18.2262
703.384	20.0754
705.098	22.2296
706.813	25.7319
708.526	29.3304
710.239	35.8859
711.954	39.5265
713.666	41.9639
715.378	45.6113
717.091	48.4549
718.802	50.7521
720.513	53.4238
722.226	54.7314
723.936	55.6346
725.646	57.4944
727.355	58.7258
729.067	60.0552
730.776	60.706
732.484	62.6258
734.192	62.5087
735.902	62.97
737.61	62.3134
739.317	62.1722
741.024	62.1263
742.731	64.3402
744.439	65.2895
746.145	66.6518
747.851	67.5736
749.556	70.2696
751.262	72.7399
752.966	74.9406
754.673	77.0197
756.377	78.4754
758.081	79.9997
759.784	81.77
761.487	82.1535
763.19	82.5652
764.892	83.2302
766.594	81.9461
768.296	80.8386
770	78.637
771.701	75.4077
773.402	73.1961
775.102	70.8038
776.803	68.5226
778.503	67.0775
780.202	67.2987
781.901	68.6817
783.6	70.0081
785.299	72.5019
786.997	75.3172
788.695	82.3287
790.393	85.3889
792.09	88.9264
793.787	89.3601
795.484	90.361
797.18	89.5589
798.877	89.3422
800.572	91.1548
802.268	91.9897
803.963	91.2976
805.658	91.0313
807.35	90.8434
809.044	91.5002
810.738	90.5546
812.432	88.9063
814.125	87.7058
815.818	86.7649
817.51	85.3698
819.202	84.6187
820.894	84.3486
822.584	83.3125
824.275	83.6959
825.966	84.6151
827.657	84.7828
829.347	83.8372
831.037	83.2135
832.725	82.3701
834.414	83.246
836.103	83.34
837.792	82.1428
839.481	81.7053
841.167	81.7096
842.854	80.7711
844.542	80.7816
846.229	80.0653
847.914	79.6206
849.6	79.6523
851.287	77.4313
852.973	76.8165
854.656	75.5215
856.341	74.9931
858.026	75.1087
859.711	74.6241
861.393	74.0465
863.077	75.3808
864.761	74.9426
866.442	73.2247
868.125	73.5523
869.808	72.3798
871.489	72.5003
873.171	71.8935
874.85	70.8395
876.532	70.9478
878.213	69.1095
879.892	70.1609
881.572	69.8987
883.251	69.358
884.931	69.2928
886.61	69.4107
888.287	69.1572
889.966	69.0953
891.643	68.2661
893.321	67.1562
894.997	66.042
896.675	65.941
898.352	65.1947
900.028	65.8273
901.704	66.1061
903.379	65.7405
905.055	66.6982
906.729	66.7611
908.404	67.1431
910.077	65.7318
911.75	65.3934
913.425	65.1267
915.097	63.9985
916.771	64.0403
918.443	63.2069
920.116	62.4431
921.787	61.7102
923.46	59.5722
925.13	58.7771
926.8	56.9538
928.472	55.8393
930.141	53.2663
931.813	51.9186
933.481	50.786
935.15	47.6715
936.82	45.2388
938.488	41.6954
940.156	38.1749
941.825	36.3151
943.492	34.5689
945.158	33.0814
946.827	32.395
948.493	29.1077
950.158	26.4845
951.824	25.8269
953.491	25.5606
955.156	26.0465
956.82	26.1211
958.486	26.5092
960.15	27.8941
961.814	29.9495
963.477	33.6826
965.142	37.0458
966.804	40.4826
968.467	44.7549
970.129	49.2112
971.79	52.4146
973.454	56.4623
975.115	59.0262
976.776	61.6438
978.436	64.6055
980.096	64.5356
981.756	66.4161
983.417	69.5956
985.077	70.2858
986.736	71.6204
988.394	72.8945
990.052	72.4191
991.71	72.9332
993.368	73.1624
995.025	73.1337
996.682	72.1661
998.341	69.4634
999.998	67.8622
1001.65	66.2128
1003.31	64.7008
1004.97	63.0725
1006.62	61.4354
1008.28	61.1386
1009.93	61.5421
1011.58	60.4963
1013.24	60.436
1014.89	61.6518
1016.54	60.8427
1018.2	59.3704
1019.85	60.1898
1021.5	60.1946
1023.16	61.5589
1024.81	63.5181
1026.46	63.367
1028.11	62.9602
1029.76	63.4707
1031.41	64.4665
1033.06	66.6586
1034.71	67.8655
1036.36	69.1718
1038.01	70.7551
1039.66	71.9167
1041.31	74.3574
1042.95	78.2439
1044.6	80.7363
1046.25	81.1682
1047.9	82.0312
1049.54	83.7435
1051.19	85.0647
1052.84	85.5577
1054.48	85.5698
1056.13	84.5405
1057.77	81.4507
1059.42	81.3084
1061.06	80.8216
1062.71	77.9559
1064.35	77.7214
1066	76.8721
1067.64	74.7247
1069.28	73.1962
1070.93	69.5446
1072.57	66.9707
1074.21	64.7178
1075.85	62.7169
1077.49	59.8135
1079.13	56.8738
1080.78	54.0565
1082.42	52.5369
1084.06	51.361
1085.7	50.556
1087.34	49.8856
1088.97	50.477
1090.61	49.9091
1092.25	50.4607
1093.89	49.9209
1095.53	51.6407
1097.17	52.16
1098.8	52.1152
1100.44	53.4008
1102.08	53.3674
1103.71	52.5522
1105.35	51.8953
1106.99	50.3631
1108.62	49.8093
1110.26	48.6646
1111.89	49.0768
1113.52	47.8158
1115.16	44.0668
1116.79	41.2403
1118.43	40.084
1120.06	38.4834
1121.69	37.6198
1123.32	35.7498
1124.96	36.0571
1126.59	34.8832
1128.22	34.1733
1129.85	35.5345
1131.48	34.3049
1133.11	33.1871
1134.75	32.6163
1136.37	32.3853
1138	31.3078
1139.63	32.2785
1141.26	33.84
1142.89	32.8541
1144.52	31.9511
1146.15	31.0709
1147.78	31.0133
1149.4	29.6404
1151.03	27.7294
1152.66	25.4614
1154.28	24.5479
1155.91	23.484
1157.54	22.0051
1159.16	19.0399
1160.79	17.0154
1162.41	15.3887
1164.04	14.5274
1165.66	12.91
1167.29	12.8485
1168.91	11.7719
1170.53	13.1115
1172.16	12.7224
1173.78	13.6073
1175.4	14.8045
1177.02	15.9531
1178.65	17.2814
1180.27	18.519
1181.89	19.4566
1183.51	20.4603
1185.13	21.777
1186.75	21.7868
1188.37	22.3835
1189.99	22.2688
1191.61	22.8062
1193.23	23.4734
1194.85	22.4148
1196.47	20.9731
1198.08	21.5473
1199.7	21.0159
1201.32	20.6102
1202.94	21.8261
1204.55	23.7247
1206.17	29.1028
1207.79	31.7759
1209.4	36.3688
1211.02	42.9128
1212.63	49.1251
1214.25	56.3775
1215.86	63.2957
1217.48	69.1683
1219.09	75.2568
1220.71	82.2395
1222.32	88.8218
1223.93	93.3995
1225.54	99.7101
1227.16	104.281
1228.77	109.557
1230.38	113.283
1231.99	116.453
1233.6	118.831
1235.22	121.41
1236.83	123.4
1238.44	124.413
1240.05	126.738
1241.66	129.15
1243.26	130.239
1244.87	133.324
1246.48	134.483
1248.09	137.441
1249.7	138.956
1251.31	140.309
1252.92	141.705
1254.52	142.16
1256.13	142.698
1257.74	143.35
1259.34	143.791
1260.95	141.791
1262.55	141.396
1264.16	139.653
1265.76	136.817
1267.37	135.21
1268.97	132.808
1270.58	130.551
1272.18	130.852
1273.78	129.027
1275.39	126.889
1276.99	125.288
1278.59	125.266
1280.2	124.333
1281.8	126.177
1283.4	129.698
1285	133.797
1286.6	137.085
1288.2	140.553
1289.8	144.087
1291.4	147.756
1293	149.459
1294.6	149.77
1296.2	150.748
1297.8	151.127
1299.4	153.381
1301	154.236
1302.6	154.891
1304.19	156.091
1305.79	157.684
1307.39	157.215
1308.99	157.6
1310.58	156.145
1312.18	154.258
1313.77	152.366
1315.37	151.755
1316.96	150.894
1318.56	150.844
1320.15	151.519
1321.75	149.93
1323.34	149.53
1324.94	148.98
1326.53	145.882
1328.12	143.764
1329.72	140.793
1331.31	138.057
1332.9	136.485
1334.49	133.775
1336.08	132.523
1337.67	132.245
1339.27	130.136
1340.86	127.768
1342.45	127.743
1344.04	127.425
1345.63	127.989
1347.22	128.106
1348.8	128.058
1350.39	128.915
1351.98	130.167
1353.57	128.278
1355.16	128.161
1356.75	129.393
1358.33	130.312
1359.92	130.928
1361.51	132.392
1363.09	133.016
1364.68	133.394
1366.27	132.834
1367.85	133.702
1369.44	133.666
1371.02	132.986
1372.61	133.349
1374.19	131.769
1375.77	133.323
1377.36	134.629
1378.94	137.049
1380.52	138.36
1382.11	140.347
1383.69	142.053
1385.27	141.645
1386.85	142.66
1388.43	142.701
1390.02	142.551
1391.6	142.497
1393.18	143.205
1394.76	143.896
1396.34	142.794
1397.92	144.002
1399.5	144.741
1401.08	145.831
1402.65	147.07
1404.23	146.949
1405.81	147.274
1407.39	149.365
1408.97	151.367
1410.54	155.968
1412.12	158.656
1413.7	163.528
1415.27	168.834
1416.85	174.148
1418.43	179.491
1420	185.385
1421.58	192.75
1423.15	200.238
1424.73	207.368
1426.3	213.975
1427.87	221.702
1429.45	228.387
1431.02	235.617
1432.6	241.664
1434.17	249.552
1435.74	255.125
1437.31	260.152
1438.89	264.924
1440.46	269.046
1442.03	271.38
1443.6	274.421
1445.17	275.849
1446.74	277.219
1448.31	278.015
1449.88	277.213
1451.45	276.995
1453.02	273.319
1454.59	271.669
1456.16	267.639
1457.72	263.249
1459.29	256.365
1460.86	248.614
1462.43	239.929
1463.99	232.377
1465.56	223.519
1467.13	213.912
1468.69	204.293
1470.26	193.971
1471.83	185.081
1473.39	175.062
1474.95	165.622
1476.52	157.549
1478.08	147.827
1479.65	138.523
1481.21	128.796
1482.78	120.498
1484.34	113.078
1485.9	105.991
1487.47	98.8616
1489.03	92.9437
1490.59	86.5737
1492.15	83.2634
1493.71	79.8027
1495.27	76.1495
1496.84	72.5922
1498.39	70.6427
1499.96	69.4417
1501.52	67.6463
1503.07	66.9293
1504.64	65.1747
1506.19	63.3361
1507.75	63.9422
1509.31	64.0721
1510.87	62.2357
1512.43	62.3959
1513.98	61.9015
1515.54	61.9656
1517.1	61.6946
1518.65	61.7423
1520.21	60.8468
1521.77	61.9845
1523.32	62.6291
1524.88	62.9711
1526.44	62.8405
1527.99	62.4677
1529.54	61.3053
1531.1	61.1182
1532.65	62.5293
1534.21	63.5586
1535.76	63.2647
1537.31	63.3554
1538.87	63.9036
1540.42	65.1717
1541.97	67.432
1543.52	68.8824
1545.07	70.73
1546.63	72.9676
1548.18	74.8796
1549.73	77.3741
1551.28	78.7002
1552.83	82.1617
1554.38	83.9879
1555.93	86.3709
1557.48	89.609
1559.03	92.4764
1560.57	95.544
1562.12	97.6715
1563.67	100.222
1565.22	103.521
1566.77	108.156
1568.31	111.808
1569.86	115.976
1571.41	120.087
1572.95	122.175
1574.5	125.05
1576.05	129.78
1577.59	131.899
1579.14	135.259
1580.68	139.137
1582.23	143.517
1583.77	148.774
1585.31	155.868
1586.86	159.72
1588.4	164.362
1589.95	170.143
1591.49	174.15
1593.03	178.521
1594.57	183.395
1596.11	187.604
1597.66	190.326
1599.2	193.285
1600.74	195.675
1602.28	196.774
1603.82	198.626
1605.36	198.573
1606.9	199.066
1608.44	199.634
1609.98	199.49
1611.52	198.312
1613.06	197.281
1614.6	196.742
1616.13	194.603
1617.67	192.639
1619.21	189.486
1620.75	187.038
1622.28	184.335
1623.82	182.074
1625.36	179.645
1626.89	176.636
1628.43	173.33
1629.96	170.277
1631.5	165.728
1633.04	162.395
1634.57	158.776
1636.11	155.218
1637.64	151.14
1639.17	147.485
1640.71	143.708
1642.24	141.278
1643.77	137.522
1645.31	133.457
1646.84	130.355
1648.37	127.051
1649.9	124.169
1651.43	122.486
1652.96	121.641
1654.5	120.248
1656.03	120.319
1657.56	120.146
1659.09	120.142
1660.62	119.622
1662.15	118.375
1663.67	116.706
1665.2	115.681
1666.73	113.886
1668.26	111.792
1669.79	109.927
1671.32	108.971
1672.84	106.176
1674.37	103.271
1675.9	100.941
1677.43	98.1909
1678.95	94.9197
1680.48	91.6693
1682	87.8107
1683.53	84.839
1685.05	81.0937
1686.58	79.4071
1688.1	77.3606
1689.63	74.281
1691.15	70.76
1692.68	66.9775
1694.2	64.0458
1695.72	61.48
1697.25	61.1159
1698.77	59.2516
1700.29	56.5906
1701.81	55.4204
1703.33	53.2449
1704.86	51.2412
1706.38	50.682
1707.9	49.084
1709.42	48.0488
1710.94	47.6238
1712.46	47.1459
1713.98	46.0827
1715.5	45.9532
1717.02	44.8785
1718.54	45.483
1720.06	43.3943
1721.57	42.8291
1723.09	42.1708
1724.61	42.1826
1726.13	42.3776
1727.64	42.2742
1729.16	41.981
1730.68	41.0563
1732.19	39.5816
1733.71	39.2817
1735.23	38.4811
1736.74	37.3375
1738.26	36.3493
1739.77	36.1692
1741.29	35.5159
1742.8	34.1322
1744.31	33.2033
1745.83	32.3186
1747.34	31.5475
1748.85	29.2484
1750.37	28.1194
1751.88	27.0838
1753.39	25.5032
1754.91	24.03
1756.42	22.7876
1757.93	21.3403
1759.44	19.7204
1760.95	19.0767
1762.46	18.2089
1763.97	17.0025
1765.48	14.5053
1766.99	13.2812
1768.5	11.8832
1770.01	11.27
1771.52	10.4796
1773.03	9.7757
1774.54	7.83718
1776.04	6.98739
1777.55	6.75515
1779.06	6.35637
1780.57	5.62545
1782.07	6.11868
1783.58	5.47951
1785.09	5.56087
1786.59	5.21043
1788.1	3.93221
1789.6	3.60624
1791.11	4.0624
1792.61	3.51098
1794.12	3.28319
1795.62	2.53073
1797.13	2.50168
1798.63	2.64771
1800.13	2.70021
1801.64	2.8154
1803.14	2.96792
1804.64	2.13987
1806.15	1.90191
1807.65	2.07244
1809.15	1.90882
1810.65	0.943227
1812.15	0.811835
1813.65	1.18298
1815.16	0.308775
1816.66	0.175003
1818.15	-0.636554
1819.66	-0.605632
1821.16	-0.0563617
1822.65	-0.0829333
1824.15	-0.415848
1825.65	-0.238357
1827.15	-0.683466
1828.65	-1.07755
1830.15	-1.6433
1831.64	-1.04317
1833.14	-1.87272
1834.64	-1.43228
1836.14	-1.38949
1837.63	-1.09878
1839.13	-1.28574
1840.62	-1.64221
1842.12	-1.86804
1843.62	-2.21822
1845.11	-2.50254
1846.61	-2.60986
1848.1	-3.00389
1849.6	-3.12453
1851.09	-1.92646
1852.58	-1.21043
1854.08	-1.06217
1855.57	-0.766261
1857.06	-0.642818
1858.55	-0.297498
1860.05	-0.606218
1861.54	-0.116694
1863.03	0.609641
1864.52	1.92309
1866.01	2.34971
1867.5	2.96313
1869	2.85609
1870.49	2.94207
1871.98	3.20905
1873.47	3.94708
1874.96	4.63308
1876.44	5.19439
1877.93	4.83684
1879.42	4.69134
1880.91	5.33774
1882.4	5.87926
1882.47	5.70637
1883.96	6.12822
1885.46	6.66099
1886.95	6.1665
1888.44	6.38829
1889.94	7.32275
1891.43	7.08833
1892.93	8.59426
1894.42	8.81673
1895.91	9.41502
1897.4	9.17667
1898.89	9.70335
1900.39	9.74835
1901.88	10.2294
1903.37	10.6869
1904.86	11.1339
1906.35	10.1085
1907.84	9.94853
1909.33	9.82153
1910.82	10.0011
1912.31	9.72309
1913.8	9.46334
1915.29	9.36815
1916.77	9.2986
1918.26	9.45364
1919.75	10.0501
1921.24	10.4775
1922.73	11.0739
1924.21	11.8259
1925.7	10.8764
1927.19	9.97237
1928.67	10.232
1930.16	9.75266
1931.64	10.0193
1933.13	10.3112
1934.61	10.7797
1936.1	10.9382
1937.58	10.8537
1939.07	9.63568
1940.55	9.85011
1942.04	8.57431
1943.52	8.78913
1945	9.04007
1946.49	8.33339
1947.97	7.65417
1949.45	7.13537
1950.93	6.62852
1952.42	6.39347
1953.9	6.11053
1955.38	5.60192
1956.86	5.2348
1958.34	5.12537
1959.82	4.82677
1961.3	4.13152
1962.78	4.50636
1964.26	4.26663
1965.74	4.07038
1967.22	4.53626
1968.7	3.57519
1970.18	4.78501
1971.65	4.49619
1973.13	4.7209
1974.61	4.47227
1976.09	4.8007
1977.57	4.37459
1979.04	3.89199
1980.52	3.36633
1982	3.32445
1983.47	3.50382
1984.95	3.16679
1986.42	2.88777
1987.9	2.65696
1989.37	2.39638
1990.85	2.44249
1992.32	3.25726
1993.8	3.52641
1995.27	3.51357
1996.75	3.67781
1998.22	3.43627
1999.69	2.58094
2001.17	2.73745
2002.64	4.30543
2004.11	5.03328
2005.58	4.70693
2007.05	4.16222
2008.53	4.15602
2010	3.66968
2011.47	2.94254
2012.94	3.14114
2014.41	3.72998
2015.88	3.76039
2017.35	4.03863
2018.82	3.91341
2020.29	4.20012
2021.76	4.54655
2023.23	5.31592
2024.7	5.45547
2026.16	6.33956
2027.63	7.16886
2029.1	7.46504
2030.57	6.81167
2032.03	7.35478
2033.5	8.28923
2034.97	8.25993
2036.44	9.35281
2037.9	9.91105
2039.37	9.74473
2040.83	9.55579
2042.3	9.85912
2043.76	10.4303
2045.23	9.64617
2046.69	8.62533
2048.16	8.59813
2049.62	8.53872
2051.08	7.30362
2052.55	7.00474
2054.01	6.54257
2055.47	6.48887
2056.94	6.38136
2058.4	6.40413
2059.86	6.63176
2061.32	6.67693
2062.79	6.79329
2064.25	6.98465
2065.71	6.5205
2067.17	5.87404
2068.63	5.80847
2070.09	5.74403
2071.55	5.80053
2073.01	6.05357
2074.47	6.92464
2075.93	7.04677
2077.39	6.46133
2078.85	6.5644
2080.31	7.39461
2081.76	9.76189
2083.22	10.1223
2084.68	11.202
2086.13	12.9521
2087.59	13.531
2089.05	14.6593
2090.51	14.5561
2091.96	14.9898
2093.42	16.071
2094.87	16.5573
2096.33	17.515
2097.78	17.8515
2099.24	18.462
2100.69	17.6701
2102.15	17.8234
2103.6	17.8795
2105.06	19.8772
2106.51	20.8612
2107.96	20.5097
2109.42	21.2889
2110.87	20.3324
2112.32	19.9937
2113.77	20.5757
2115.23	21.7191
2116.68	21.9226
2118.13	22.5348
2119.58	22.6569
2121.03	23.9509
2122.48	23.4505
2123.93	23.9878
2125.38	25.5511
2126.83	25.1856
2128.28	25.8462
2129.73	26.9218
2131.18	27.688
