#Acq. time (s)=	45
#Accumulations=	2
#Range (cm-¹)=	200...3150
#Windows=	2
#Auto scanning=	Off
#Autofocus=	Off
#Macrospot=	Off
#AutoExposure=	Off
#Spike filter=	Multiple accum.
#Delay time (s)=	0
#Binning=	1
#Readout mode=	Signal
#DeNoise=	Off
#ICS correction=	On
#Dark correction=	Off
#Inst. Process=	Off
#Detector Gain=	Best Dynamic Range
#Detector ADC=	20 kHz       
#Detector temperature (°C)=	-70.08
#Instrument=	LabRAM HR Evol
#Detector=	Synapse
#Objective=	x100
#Grating=	600 gr/mm
#ND Filter=	100%
#Laser (nm)=	532 
#Hole=	100.021
#Range=	Auto
#Laser Pol.=	No
#Raman. Pol.=	No
#Laser Pol. (°)=	-0.0007625
#Raman Pol. (°)=	89.9995
#Collection=	Microscope
#StageXY=	Marzhauser
#StageZ=	Marzhauser
#X (µm)=	-2483.4
#Y (µm)=	-55.7
#Z (µm)=	-10.55
#Full time(mm:ss)=	3:19
#Project=	
#Sample=	
#Site=	
#Title=	Mb_40_24_40_2x_45s_532 nm_x100_100%_600 gr_mm
#Remark=	
#Date=	14.07.2022 13:52
#Acquired=	14.07.2022 13:52:03
#Edit:Spike=	14.07.2022 13:56:19
#Base:Fit=	10.08.2022 10:47:00
#Base:Sub=	10.08.2022 10:47:12
#Filter:Polynom=	16.08.2022 10:11:48
#AxisType[0]=Intens
#AxisUnit[0]=Cnt
#AxisType[1]=Spectr
#AxisUnit[1]=1/cm
200.554	7.19929
202.369	7.97259
204.183	9.03042
205.999	11.5922
207.813	12.4992
209.626	12.8762
211.439	12.7181
213.253	11.9324
215.065	11.7627
216.877	11.3248
218.688	10.1468
220.5	10.0792
222.312	10.37
224.123	9.59934
225.933	8.98372
227.742	7.65864
229.552	6.83539
231.361	6.73608
233.171	7.5631
234.98	8.16469
236.787	7.85929
238.595	6.18798
240.402	5.44269
242.209	6.14766
244.015	6.11277
245.822	5.67905
247.627	5.56595
249.435	5.06669
251.24	4.02728
253.045	3.55354
254.849	4.02245
256.653	5.33
258.457	4.85133
260.26	5.87366
262.063	4.63002
263.866	5.30087
265.668	5.63091
267.47	6.57893
269.271	8.12627
271.073	8.35335
272.873	8.81511
274.674	10.2541
276.474	11.5499
278.274	11.2278
280.073	11.5756
281.872	10.358
283.671	11.6496
285.47	11.6557
287.268	12.0821
289.065	13.5512
290.863	14.0302
292.66	14.0428
294.456	13.1099
296.253	11.8637
298.049	12.3773
299.844	13.2232
301.637	14.488
303.432	15.3693
305.227	16.5412
307.021	16.132
308.815	15.8594
310.609	16.9433
312.402	17.1292
314.195	16.0934
315.987	16.2252
317.777	16.6338
319.569	18.0217
321.36	19.1682
323.151	19.7545
324.942	18.4441
326.733	16.8876
328.521	15.8561
330.31	16.6236
332.1	16.9658
333.889	15.4039
335.677	15.5767
337.464	16.0476
339.252	15.1543
341.039	14.5066
342.826	14.2999
344.611	14.6528
346.398	14.7467
348.184	14.0039
349.97	12.4364
351.754	11.3925
353.539	12.1398
355.324	11.9221
357.106	11.8849
358.89	10.9675
360.674	10.0453
362.455	10.2921
364.239	8.98199
366.021	8.41564
367.804	7.8608
369.584	6.74591
371.366	5.14463
373.145	5.03336
374.926	3.94076
376.707	4.24421
378.485	4.1234
380.265	2.52542
382.045	3.09657
383.822	2.87518
385.601	3.56863
387.378	4.22103
389.156	6.76277
390.934	5.55495
392.71	5.08882
394.487	4.35028
396.262	3.31753
398.038	2.75714
399.813	3.54664
401.588	3.21848
403.362	2.54847
405.137	5.2076
406.912	5.54169
408.685	5.96969
410.459	5.29275
412.23	4.74752
414.004	3.51366
415.775	4.27447
417.548	3.3065
419.318	4.3758
421.089	4.219
422.86	4.58536
424.63	5.59732
426.401	5.42596
428.17	5.39253
429.94	4.25915
431.708	3.18168
433.478	3.4594
435.245	3.10115
437.012	3.61147
438.781	3.61773
440.547	4.61321
442.315	5.02606
444.081	6.28503
445.846	5.00246
447.613	4.90558
449.378	4.16422
451.142	4.02517
452.908	3.90845
454.672	4.98528
456.435	4.71557
458.2	3.98794
459.963	4.40356
461.725	5.70603
463.489	6.53553
465.251	7.42723
467.012	8.50414
468.775	8.90607
470.536	11.6574
472.296	11.6854
474.056	13.3699
475.817	13.7839
477.576	15.315
479.335	15.1499
481.094	17.0559
482.854	17.2599
484.612	17.8236
486.37	18.1897
488.127	20.7659
489.886	21.5107
491.642	22.8826
493.398	25.4179
495.154	25.6316
496.91	27.5848
498.667	28.011
500.422	28.8175
502.176	28.7136
503.93	29.7694
505.684	29.884
507.438	31.7163
509.191	30.8379
510.946	30.5748
512.698	30.5414
514.45	31.205
516.202	31.226
517.954	29.9859
519.705	31.5503
521.456	32.4433
523.206	33.3825
524.956	33.1836
526.706	32.94
528.456	32.1085
530.207	31.4911
531.956	30.8768
533.704	29.473
535.452	29.1599
537.2	28.9155
538.947	29.1131
540.694	29.5284
542.441	29.216
544.188	26.8821
545.934	27.6684
547.68	27.7501
549.425	27.2526
551.17	27.0845
552.915	26.591
554.659	26.3043
556.403	24.8258
558.145	25.1567
559.889	24.0874
561.632	23.6803
563.375	21.3831
565.117	21.2255
566.859	19.7593
568.601	18.0642
570.342	16.6463
572.083	16.0828
573.824	15.7129
575.565	15.7124
577.303	13.7361
579.043	14.2433
580.782	14.9289
582.521	13.5941
584.26	12.2359
585.998	10.8002
587.734	10.6638
589.472	9.08418
591.21	9.52647
592.947	8.53655
594.684	7.70694
596.418	7.5256
598.154	6.85995
599.89	7.65435
601.626	7.52052
603.361	6.75468
605.094	7.35059
606.828	7.94345
608.562	7.64771
610.296	7.71508
612.027	6.76115
613.761	6.27077
615.493	5.45468
617.224	6.40748
618.956	5.99273
620.688	5.7878
622.419	7.00253
624.149	7.10958
625.879	7.2303
627.61	7.95864
629.338	8.95281
631.068	9.87428
632.797	10.5951
634.525	10.4829
636.254	9.87181
637.98	10.76
639.708	11.0289
641.436	12.225
643.162	12.8
644.889	13.1764
646.614	13.2734
648.34	11.8656
650.067	10.3464
651.791	10.6574
653.516	9.73244
655.239	10.0513
656.964	10.4202
658.687	9.8749
660.411	8.53742
662.133	8.24897
663.857	8.21712
665.58	8.75801
667.301	8.36186
669.024	8.00121
670.744	8.37134
672.464	9.31662
674.186	10.3197
675.905	9.73686
677.626	11.702
679.345	10.4558
681.065	10.1427
682.783	9.91765
684.503	9.87177
686.22	10.4996
687.939	11.1753
689.656	11.6687
691.372	13.55
693.09	13.0362
694.806	13.2641
696.523	13.0831
698.239	13.9566
699.953	14.6779
701.67	16.4282
703.384	17.3746
705.098	17.6665
706.813	18.9855
708.526	20.6049
710.239	20.425
711.954	22.1658
713.666	23.8768
715.378	23.8557
717.091	24.4213
718.802	23.6739
720.513	25.576
722.226	25.18
723.936	26.7971
725.646	27.0763
727.355	26.7536
729.067	26.6579
730.776	25.9354
732.484	25.9068
734.192	24.7553
735.902	24.879
737.61	25.8437
739.317	26.3776
741.024	28.5464
742.731	29.0262
744.439	29.8363
746.145	30.2328
747.851	32.465
749.556	33.0644
751.262	35.8764
752.966	38.4172
754.673	41.2665
756.377	43.3147
758.081	44.8751
759.784	46.8143
761.487	47.2776
763.19	49.4591
764.892	50.5516
766.594	52.4928
768.296	55.4016
770	56.3915
771.701	57.7076
773.402	59.1721
775.102	60.3958
776.803	63.1555
778.503	64.7963
780.202	65.4356
781.901	67.4946
783.6	68.8367
785.299	70.1606
786.997	71.0399
788.695	71.4624
790.393	72.6723
792.09	74.0541
793.787	74.7816
795.484	75.2686
797.18	76.5847
798.877	76.2106
800.572	76.1725
802.268	76.4966
803.963	75.7639
805.658	76.0478
807.35	76.4493
809.044	76.826
810.738	75.5639
812.432	75.5057
814.125	75.7201
815.818	74.9934
817.51	74.9216
819.202	75.2526
820.894	76.3294
822.584	77.1187
824.275	77.3101
825.966	78.0227
827.657	76.7641
829.347	76.4376
831.037	76.016
832.725	76.4269
834.414	75.1969
836.103	75.6054
837.792	75.0718
839.481	73.9087
841.167	72.2987
842.854	70.3806
844.542	70.165
846.229	68.7315
847.914	68.3749
849.6	66.487
851.287	65.0305
852.973	64.3272
854.656	62.5396
856.341	62.7284
858.026	61.4026
859.711	61.9916
861.393	61.6813
863.077	61.2935
864.761	59.6764
866.442	60.1546
868.125	58.9391
869.808	58.9301
871.489	58.1184
873.171	57.7628
874.85	57.3586
876.532	56.985
878.213	56.3889
879.892	56.0692
881.572	55.7279
883.251	55.553
884.931	56.1992
886.61	54.8811
888.287	55.6282
889.966	57.4111
891.643	58.6655
893.321	58.1516
894.997	58.6894
896.675	58.706
898.352	59.8957
900.028	61.5102
901.704	61.4976
903.379	61.8407
905.055	62.0328
906.729	62.1477
908.404	62.4556
910.077	61.6261
911.75	60.9943
913.425	61.5679
915.097	61.7141
916.771	60.978
918.443	60.8995
920.116	61.2984
921.787	61.312
923.46	60.0594
925.13	59.1678
926.8	57.8899
928.472	58.4894
930.141	57.2701
931.813	55.555
933.481	54.764
935.15	54.0218
936.82	53.4967
938.488	52.7709
940.156	52.0621
941.825	50.0424
943.492	49.3322
945.158	46.9084
946.827	45.6714
948.493	44.4033
950.158	43.619
951.824	43.2731
953.491	42.6954
955.156	41.9892
956.82	40.359
958.486	37.2599
960.15	37.8346
961.814	37.2431
963.477	37.0747
965.142	37.7476
966.804	39.5947
968.467	41.0872
970.129	42.436
971.79	45.5722
973.454	47.4573
975.115	47.9052
976.776	47.5723
978.436	48.5937
980.096	50.3859
981.756	51.6394
983.417	51.1137
985.077	50.4415
986.736	51.6108
988.394	53.244
990.052	54.5285
991.71	55.9692
993.368	56.3405
995.025	57.6469
996.682	58.5239
998.341	58.0308
999.998	57.4331
1001.65	57.2627
1003.31	55.8683
1004.97	56.3765
1006.62	56.6719
1008.28	56.7181
1009.93	58.0672
1011.58	60.7315
1013.24	60.6956
1014.89	63.1693
1016.54	65.8062
1018.2	68.2327
1019.85	70.687
1021.5	71.961
1023.16	73.6804
1024.81	74.6201
1026.46	76.2439
1028.11	76.8488
1029.76	78.8318
1031.41	79.9564
1033.06	80.8527
1034.71	81.9778
1036.36	81.846
1038.01	82.007
1039.66	82.1299
1041.31	82.6976
1042.95	85.117
1044.6	86.3347
1046.25	87.8146
1047.9	88.4282
1049.54	88.9237
1051.19	87.8837
1052.84	86.9636
1054.48	86.5351
1056.13	85.0244
1057.77	83.8123
1059.42	82.733
1061.06	82.0915
1062.71	79.0531
1064.35	75.501
1066	74.6958
1067.64	73.9934
1069.28	73.8478
1070.93	72.8081
1072.57	71.5476
1074.21	68.8237
1075.85	66.2924
1077.49	63.2859
1079.13	61.5202
1080.78	59.7048
1082.42	58.7971
1084.06	57.9295
1085.7	58.199
1087.34	59.2663
1088.97	59.0089
1090.61	59.3809
1092.25	59.468
1093.89	60.7169
1095.53	61.3758
1097.17	62.9879
1098.8	61.8298
1100.44	62.1459
1102.08	60.7159
1103.71	60.9534
1105.35	61.3901
1106.99	60.3343
1108.62	59.4093
1110.26	57.5632
1111.89	57.4237
1113.52	49.0081
1115.16	44.2728
1116.79	38.5835
1118.43	33.8264
1120.06	31.5322
1121.69	31.2531
1123.32	31.0618
1124.96	32.2597
1126.59	35.4724
1128.22	38.2584
1129.85	42.2076
1131.48	52.256
1133.11	62.4363
1134.75	73.6179
1136.37	84.7069
1138	94.4719
1139.63	104.79
1141.26	115.116
1142.89	123.605
1144.52	130.843
1146.15	139.029
1147.78	145.183
1149.4	149.948
1151.03	154.404
1152.66	156.828
1154.28	159.323
1155.91	159.833
1157.54	161.494
1159.16	162.267
1160.79	162.716
1162.41	162.804
1164.04	161.34
1165.66	158.424
1167.29	156.522
1168.91	152.882
1170.53	149.717
1172.16	145.65
1173.78	139.566
1175.4	135.228
1177.02	128.92
1178.65	120.34
1180.27	111.471
1181.89	104.206
1183.51	94.834
1185.13	85.9512
1186.75	75.903
1188.37	63.6674
1189.99	51.5055
1191.61	40.3209
1193.23	29.3367
1194.85	16.2975
1196.47	11.8809
1198.08	8.2925
1199.7	7.01892
1201.32	8.46955
1202.94	10.0204
1204.55	11.1885
1206.17	13.6045
1207.79	18.1389
1209.4	24.3997
1211.02	32.5414
1212.63	41.5768
1214.25	47.8616
1215.86	53.0774
1217.48	57.4656
1219.09	61.1849
1220.71	66.5175
1222.32	70.2576
1223.93	72.9362
1225.54	74.897
1227.16	77.5964
1228.77	79.8929
1230.38	82.6733
1231.99	85.1989
1233.6	87.1082
1235.22	89.4424
1236.83	91.1864
1238.44	94.6568
1240.05	96.6843
1241.66	98.3974
1243.26	101.369
1244.87	103.474
1246.48	105.982
1248.09	108.595
1249.7	111.113
1251.31	113.307
1252.92	114.94
1254.52	117.44
1256.13	120.129
1257.74	121.528
1259.34	123.265
1260.95	125.504
1262.55	128.195
1264.16	129.825
1265.76	132.457
1267.37	135.424
1268.97	138.187
1270.58	142.508
1272.18	145.771
1273.78	146.985
1275.39	149.116
1276.99	152.092
1278.59	155.927
1280.2	157.911
1281.8	161.561
1283.4	162.758
1285	163.495
1286.6	165.698
1288.2	167.615
1289.8	169.833
1291.4	171.698
1293	173.932
1294.6	175.685
1296.2	175.571
1297.8	176.86
1299.4	176.665
1301	178.626
1302.6	179.32
1304.19	180.383
1305.79	179.816
1307.39	181.003
1308.99	181.067
1310.58	180.704
1312.18	180.602
1313.77	179.445
1315.37	178.234
1316.96	177.825
1318.56	177.535
1320.15	175.598
1321.75	173.964
1323.34	172.784
1324.94	171.365
1326.53	168.748
1328.12	166.256
1329.72	163.971
1331.31	161.153
1332.9	159.96
1334.49	157.234
1336.08	154.797
1337.67	151.905
1339.27	149.388
1340.86	145.799
1342.45	143.316
1344.04	140.168
1345.63	138.199
1347.22	135.657
1348.8	132.15
1350.39	128.71
1351.98	124.653
1353.57	121.7
1355.16	119.583
1356.75	117.286
1358.33	115.076
1359.92	111.439
1361.51	108.81
1363.09	106.538
1364.68	104.555
1366.27	102.267
1367.85	100.342
1369.44	99.5587
1371.02	98.9601
1372.61	96.9272
1374.19	94.8889
1375.77	94.4281
1377.36	94.3366
1378.94	94.2892
1380.52	96.9218
1382.11	97.1749
1383.69	98.1023
1385.27	99.536
1386.85	101.122
1388.43	101.183
1390.02	101.279
1391.6	101.356
1393.18	101.928
1394.76	102.297
1396.34	103.708
1397.92	103.556
1399.5	103.792
1401.08	104.868
1402.65	107.765
1404.23	109.547
1405.81	111.37
1407.39	113.284
1408.97	115.966
1410.54	119.258
1412.12	122.849
1413.7	125.637
1415.27	130.206
1416.85	133.368
1418.43	138.374
1420	142.384
1421.58	146.513
1423.15	151.907
1424.73	158.121
1426.3	162.753
1427.87	168.35
1429.45	175.027
1431.02	180.133
1432.6	185.847
1434.17	190.283
1435.74	195.122
1437.31	199.447
1438.89	201.748
1440.46	205.152
1442.03	207.858
1443.6	209.154
1445.17	209.407
1446.74	210.563
1448.31	209.654
1449.88	209.447
1451.45	207.807
1453.02	207.083
1454.59	204.816
1456.16	202.927
1457.72	200.634
1459.29	197.259
1460.86	193.052
1462.43	189.174
1463.99	184.152
1465.56	177.235
1467.13	170.765
1468.69	164.789
1470.26	158.985
1471.83	153.253
1473.39	146.565
1474.95	140.963
1476.52	134.221
1478.08	128.475
1479.65	122.634
1481.21	116.23
1482.78	110.132
1484.34	104.396
1485.9	98.7537
1487.47	94.368
1489.03	90.0139
1490.59	86.5112
1492.15	83.3196
1493.71	80.6744
1495.27	76.4197
1496.84	73.9708
1498.39	69.5212
1499.96	66.4718
1501.52	66.1899
1503.07	65.1251
1504.64	62.7925
1506.19	61.3812
1507.75	60.5683
1509.31	57.6335
1510.87	56.8483
1512.43	55.1988
1513.98	53.7625
1515.54	50.972
1517.1	48.3556
1518.65	47.645
1520.21	46.8186
1521.77	46.1419
1523.32	45.0989
1524.88	44.5052
1526.44	44.2337
1527.99	44.9213
1529.54	43.5653
1531.1	43.6565
1532.65	43.3037
1534.21	44.3645
1535.76	45.4804
1537.31	46.6192
1538.87	48.297
1540.42	50.041
1541.97	50.3421
1543.52	51.9142
1545.07	54.4278
1546.63	56.4914
1548.18	59.1927
1549.73	60.1903
1551.28	62.2411
1552.83	64.826
1554.38	66.2343
1555.93	68.7659
1557.48	71.2757
1559.03	73.7442
1560.57	77.3311
1562.12	79.5316
1563.67	82.5364
1565.22	85.7746
1566.77	88.629
1568.31	91.6155
1569.86	94.2237
1571.41	97.8501
1572.95	99.8373
1574.5	104.429
1576.05	107.072
1577.59	111.443
1579.14	116.314
1580.68	119.885
1582.23	122.721
1583.77	125.473
1585.31	127.79
1586.86	129.027
1588.4	131.387
1589.95	132.818
1591.49	133.71
1593.03	134.659
1594.57	136.911
1596.11	138.362
1597.66	137.499
1599.2	137.193
1600.74	137.487
1602.28	136.848
1603.82	137.119
1605.36	136.07
1606.9	135.297
1608.44	135.191
1609.98	134.973
1611.52	135.058
1613.06	135.647
1614.6	135.82
1616.13	136.074
1617.67	136.975
1619.21	136.732
1620.75	138.275
1622.28	139.625
1623.82	140.945
1625.36	141.739
1626.89	142.506
1628.43	144.563
1629.96	145.604
1631.5	146.447
1633.04	148.473
1634.57	150.129
1636.11	151.599
1637.64	153.402
1639.17	155.42
1640.71	158.238
1642.24	159.967
1643.77	162.83
1645.31	165.997
1646.84	168.82
1648.37	171.289
1649.9	171.952
1651.43	174.678
1652.96	175.482
1654.5	177.236
1656.03	178.067
1657.56	177.792
1659.09	176.125
1660.62	173.935
1662.15	171.577
1663.67	169.777
1665.2	166.722
1666.73	163.774
1668.26	159.641
1669.79	154.837
1671.32	150.852
1672.84	145.135
1674.37	139.237
1675.9	135.318
1677.43	130.226
1678.95	124.509
1680.48	119.224
1682	112.717
1683.53	107.761
1685.05	101.853
1686.58	96.0956
1688.1	90.442
1689.63	86.1984
1691.15	81.5416
1692.68	75.1571
1694.2	69.579
1695.72	64.3941
1697.25	60.4284
1698.77	56.7846
1700.29	51.9309
1701.81	47.5489
1703.33	45.0277
1704.86	40.6147
1706.38	37.6073
1707.9	34.8477
1709.42	31.601
1710.94	28.4599
1712.46	26.1182
1713.98	24.1471
1715.5	22.4175
1717.02	20.3531
1718.54	18.4982
1720.06	17.7865
1721.57	15.6949
1723.09	14.3633
1724.61	13
1726.13	12.5342
1727.64	12.7092
1729.16	12.2511
1730.68	11.1345
1732.19	9.64294
1733.71	8.58348
1735.23	7.28158
1736.74	6.76802
1738.26	6.25053
1739.77	5.77372
1741.29	5.52795
1742.8	5.85119
1744.31	5.00058
1745.83	4.71396
1747.34	5.15151
1748.85	4.80359
1750.37	5.0034
1751.88	5.15206
1753.39	4.15052
1754.91	3.98817
1756.42	3.44279
1757.93	3.10402
1759.44	3.59362
1760.95	2.87902
1762.46	2.76562
1763.97	2.47517
1765.48	2.63042
1766.99	2.53622
1768.5	2.20316
1770.01	3.14623
1771.52	4.64143
1773.03	4.54808
1774.54	4.23329
1776.04	3.72813
1777.55	4.06179
1779.06	3.8586
1780.57	2.63882
1782.07	2.92529
1783.58	2.00414
1785.09	1.94596
1786.59	2.39324
1788.1	3.1268
1789.6	2.85957
1791.11	3.19923
1792.61	3.27132
1794.12	4.07014
1795.62	4.1297
1797.13	4.14841
1798.63	4.87691
1800.13	4.2659
1801.64	4.44816
1803.14	3.68734
1804.64	3.33285
1806.15	2.46461
1807.65	3.17609
1809.15	3.28986
1810.65	3.48179
1812.15	3.49043
1813.65	3.53748
1815.16	4.42097
1816.66	4.64573
1818.15	4.68545
1819.66	4.08669
1821.16	4.58048
1822.65	4.74401
1824.15	4.63049
1825.65	4.11184
1827.15	3.89536
1828.65	3.7957
1830.15	3.56419
1831.64	3.47653
1833.14	3.07931
1834.64	3.26347
1836.14	2.35848
1837.63	1.87383
1839.13	0.667674
1840.62	0.549721
1842.12	0.510403
1843.62	0.118674
1845.11	-0.0110245
1846.61	0.163957
1848.1	-0.142737
1849.6	-0.352295
1851.09	-0.686337
1852.58	-0.303685
1854.08	-0.0149664
1855.57	0.320429
1857.06	1.10934
1858.55	1.87939
1860.05	3.04134
1861.54	3.45815
1863.03	3.93381
1864.52	3.80488
1866.01	4.36614
1867.5	4.07433
1869	4.25226
1870.49	3.72011
1871.98	3.85359
1873.47	3.96016
1874.96	3.38708
1876.44	4.1634
1877.93	4.16934
1879.42	5.0748
1880.91	6.3061
1882.4	7.16206
1882.47	7.39335
1883.96	7.30045
1885.46	6.98852
1886.95	7.43385
1888.44	7.73317
1889.94	6.82338
1891.43	6.95366
1892.93	6.87604
1894.42	6.62658
1895.91	5.74894
1897.4	5.15114
1898.89	4.63255
1900.39	4.56349
1901.88	4.22502
1903.37	3.44024
1904.86	3.48301
1906.35	3.38667
1907.84	3.89483
1909.33	2.18203
1910.82	1.66842
1912.31	1.52615
1913.8	1.6207
1915.29	2.75491
1916.77	3.39336
1918.26	3.35866
1919.75	3.24528
1921.24	3.33345
1922.73	4.01436
1924.21	4.2582
1925.7	4.91086
1927.19	4.72227
1928.67	4.7984
1930.16	3.90224
1931.64	4.4906
1933.13	4.45766
1934.61	4.38611
1936.1	4.31413
1937.58	4.97236
1939.07	4.61421
1940.55	4.93049
1942.04	6.25876
1943.52	5.85734
1945	5.7164
1946.49	5.89956
1947.97	5.57261
1949.45	6.3373
1950.93	6.19852
1952.42	6.2206
1953.9	6.52732
1955.38	6.30326
1956.86	6.28573
1958.34	6.11378
1959.82	6.04913
1961.3	6.05807
1962.78	5.56675
1964.26	5.46697
1965.74	5.93107
1967.22	5.25983
1968.7	4.75465
1970.18	4.1296
1971.65	4.57158
1973.13	4.97032
1974.61	5.26859
1976.09	5.55131
1977.57	5.87237
1979.04	5.83221
1980.52	6.07667
1982	4.97132
1983.47	4.93947
1984.95	5.64478
1986.42	5.41862
1987.9	5.43269
1989.37	6.51727
1990.85	6.36968
1992.32	5.74461
1993.8	6.18365
1995.27	6.34468
1996.75	5.81051
1998.22	5.20426
1999.69	6.20417
2001.17	6.59294
2002.64	6.73412
2004.11	7.06667
2005.58	9.134
2007.05	9.55844
2008.53	9.98167
2010	10.7563
2011.47	11.6152
2012.94	11.345
2014.41	11.9872
2015.88	11.7335
2017.35	10.6738
2018.82	10.6945
2020.29	11.3794
2021.76	11.7405
2023.23	12.4096
2024.7	12.3862
2026.16	13.3603
2027.63	14.0064
2029.1	13.7716
2030.57	14.4895
2032.03	15.2721
2033.5	15.3645
2034.97	15.7984
2036.44	16.1087
2037.9	16.2701
2039.37	16.3909
2040.83	16.6892
2042.3	18.2408
2043.76	19.1957
2045.23	20.8948
2046.69	23.1403
2048.16	24.1752
2049.62	24.8623
2051.08	25.2668
2052.55	25.4841
2054.01	26.2886
2055.47	27.7868
2056.94	29.1541
2058.4	29.7743
2059.86	30.7511
2061.32	32.144
2062.79	33.2151
2064.25	34.1658
2065.71	34.7419
2067.17	36.1082
2068.63	37.1921
2070.09	38.3611
2071.55	40.6374
2073.01	42.2666
2074.47	42.8032
2075.93	44.6572
2077.39	46.5792
2078.85	47.6617
2080.31	48.7476
2081.76	49.8902
2083.22	51.3084
2084.68	52.5449
2086.13	52.413
2087.59	52.7707
2089.05	53.2691
2090.51	53.9864
2091.96	54.9066
2093.42	56.0711
2094.87	57.7849
2096.33	59.1606
2097.78	60.9646
2099.24	62.9913
2100.69	65.001
2102.15	66.6151
2103.6	68.7454
2105.06	69.6147
2106.51	70.6137
2107.96	72.1986
2109.42	73.7715
2110.87	75.7276
2112.32	78.3565
2113.77	81.4803
2115.23	83.4363
2116.68	86.1243
2118.13	89.2977
2119.58	92.2244
2121.03	93.7357
2122.48	96.2613
2123.93	99.0422
2125.38	102.653
2126.83	107.066
2128.28	110.462
2129.73	113.278
2131.18	117.91
2132.63	121.798
2134.08	125.26
2135.53	130.677
