#Acq. time (s)=	45
#Accumulations=	2
#Range (cm-¹)=	200...3150
#Windows=	2
#Auto scanning=	Off
#Autofocus=	Off
#Macrospot=	Off
#AutoExposure=	Off
#Spike filter=	Multiple accum.
#Delay time (s)=	0
#Binning=	1
#Readout mode=	Signal
#DeNoise=	Off
#ICS correction=	On
#Dark correction=	Off
#Inst. Process=	Off
#Detector Gain=	Best Dynamic Range
#Detector ADC=	20 kHz       
#Detector temperature (°C)=	-70.08
#Instrument=	LabRAM HR Evol
#Detector=	Synapse
#Objective=	x100
#Grating=	600 gr/mm
#ND Filter=	100%
#Laser (nm)=	532 
#Hole=	100.021
#Range=	Auto
#Laser Pol.=	No
#Raman. Pol.=	No
#Laser Pol. (°)=	-0.0007625
#Raman Pol. (°)=	89.9995
#Collection=	Microscope
#StageXY=	Marzhauser
#StageZ=	Marzhauser
#X (µm)=	-2509.9
#Y (µm)=	-102.1
#Z (µm)=	-10.45
#Full time(mm:ss)=	3:18
#Project=	
#Sample=	
#Site=	
#Title=	Mb_40_24_25_2x_45s_532 nm_x100_100%_600 gr_mm
#Remark=	
#Date=	14.07.2022 12:34
#Acquired=	14.07.2022 12:34:23
#Base:Fit=	10.08.2022 10:47:00
#Base:Sub=	10.08.2022 10:47:12
#Filter:Polynom=	16.08.2022 10:11:48
#AxisType[0]=Intens
#AxisUnit[0]=Cnt
#AxisType[1]=Spectr
#AxisUnit[1]=1/cm
200.554	51.737
202.369	52.6098
204.183	47.7162
205.999	42.2044
207.813	38.2238
209.626	34.5774
211.439	32.1415
213.253	29.4845
215.065	27.0539
216.877	24.1927
218.688	21.5952
220.5	18.7307
222.312	18.3842
224.123	17.0285
225.933	15.2036
227.742	15.6218
229.552	14.5475
231.361	12.8664
233.171	12.1499
234.98	10.695
236.787	10.5902
238.595	10.3994
240.402	11.3601
242.209	12.2115
244.015	12.0995
245.822	13.3913
247.627	13.7496
249.435	13.8248
251.24	14.6057
253.045	15.3312
254.849	15.3957
256.653	16.9914
258.457	17.3351
260.26	17.3368
262.063	19.7845
263.866	19.3733
265.668	19.5681
267.47	19.9995
269.271	19.623
271.073	20.3692
272.873	20.4796
274.674	20.5977
276.474	21.0473
278.274	22.3639
280.073	22.9968
281.872	21.4371
283.671	21.3314
285.47	20.578
287.268	21.7008
289.065	20.7578
290.863	19.9847
292.66	18.6332
294.456	20.3167
296.253	21.6372
298.049	21.1901
299.844	21.6803
301.637	21.8936
303.432	20.2786
305.227	19.6348
307.021	19.239
308.815	19.4455
310.609	19.1069
312.402	20.0154
314.195	18.8657
315.987	19.7336
317.777	19.5342
319.569	18.7737
321.36	19.2405
323.151	20.6508
324.942	21.8398
326.733	23.4184
328.521	23.2165
330.31	23.6853
332.1	24.6359
333.889	24.8932
335.677	25.7068
337.464	25.1475
339.252	25.0647
341.039	25.4846
342.826	25.3995
344.611	25.6368
346.398	24.88
348.184	22.7224
349.97	21.6521
351.754	20.3569
353.539	19.5259
355.324	18.6224
357.106	17.7604
358.89	16.9411
360.674	18.0081
362.455	17.7073
364.239	17.1936
366.021	16.1094
367.804	15.2517
369.584	15.0996
371.366	13.2689
373.145	12.719
374.926	11.8474
376.707	10.3667
378.485	9.24316
380.265	9.18964
382.045	9.45435
383.822	10.0053
385.601	9.80918
387.378	8.98891
389.156	8.29518
390.934	7.42355
392.71	4.86533
394.487	4.05434
396.262	3.2075
398.038	3.25848
399.813	3.15223
401.588	4.22614
403.362	4.66355
405.137	6.01708
406.912	5.52704
408.685	6.89503
410.459	8.01182
412.23	7.72194
414.004	8.16494
415.775	8.16719
417.548	8.65873
419.318	9.56276
421.089	10.4755
422.86	10.982
424.63	11.8128
426.401	11.4662
428.17	11.4293
429.94	11.067
431.708	10.6508
433.478	11.0537
435.245	11.2323
437.012	11.0735
438.781	11.9705
440.547	12.6172
442.315	12.7336
444.081	12.3147
445.846	11.6231
447.613	11.3647
449.378	11.9231
451.142	12.3809
452.908	11.7799
454.672	11.6558
456.435	12.4725
458.2	13.2426
459.963	12.9665
461.725	12.7263
463.489	12.2321
465.251	12.6725
467.012	13.7548
468.775	13.2955
470.536	12.5748
472.296	12.7429
474.056	11.7774
475.817	11.5328
477.576	10.747
479.335	10.3589
481.094	11.3918
482.854	13.2337
484.612	13.4371
486.37	14.9965
488.127	15.5133
489.886	16.0956
491.642	15.801
493.398	15.962
495.154	15.7379
496.91	16.7958
498.667	16.661
500.422	17.6851
502.176	19.5875
503.93	21.0139
505.684	21.8444
507.438	22.2965
509.191	23.7209
510.946	24.2783
512.698	24.5211
514.45	23.9353
516.202	25.1876
517.954	24.4561
519.705	25.8464
521.456	27.5478
523.206	27.9372
524.956	27.5919
526.706	28.6838
528.456	28.6457
530.207	27.9856
531.956	28.086
533.704	27.8309
535.452	27.4213
537.2	27.5489
538.947	27.8175
540.694	27.2323
542.441	26.2645
544.188	25.7573
545.934	24.9284
547.68	24.7157
549.425	24.081
551.17	23.4835
552.915	23.6756
554.659	23.1763
556.403	22.9517
558.145	23.8958
559.889	22.871
561.632	21.3888
563.375	21.065
565.117	21.2424
566.859	21.7413
568.601	21.8153
570.342	20.7344
572.083	18.7382
573.824	19.3585
575.565	18.8241
577.303	17.8343
579.043	17.6072
580.782	17.9791
582.521	19.3578
584.26	20.2409
585.998	20.0658
587.734	20.6254
589.472	19.6042
591.21	19.4713
592.947	19.3213
594.684	18.7832
596.418	18.7372
598.154	17.3318
599.89	17.5732
601.626	16.2862
603.361	16.6121
605.094	14.8643
606.828	13.8467
608.562	13.1979
610.296	11.3576
612.027	11.5075
613.761	11.5978
615.493	9.33585
617.224	7.57177
618.956	6.5921
620.688	5.06649
622.419	4.88527
624.149	6.1909
625.879	5.92436
627.61	5.15971
629.338	5.23283
631.068	7.14758
632.797	7.97339
634.525	8.07744
636.254	8.00042
637.98	7.9467
639.708	8.68589
641.436	8.79192
643.162	8.99581
644.889	9.63412
646.614	9.33196
648.34	9.86891
650.067	11.177
651.791	13.0777
653.516	13.0983
655.239	14.0069
656.964	14.1704
658.687	13.2987
660.411	14.7078
662.133	14.7729
663.857	16.0896
665.58	17.4195
667.301	18.4978
669.024	19.6064
670.744	20.4173
672.464	20.6721
674.186	21.3371
675.905	22.5998
677.626	24.3655
679.345	25.0995
681.065	24.5784
682.783	23.5763
684.503	22.9591
686.22	22.6237
687.939	22.9665
689.656	24.472
691.372	22.884
693.09	23.897
694.806	26.056
696.523	26.2489
698.239	27.1332
699.953	27.4288
701.67	27.134
703.384	27.1315
705.098	28.0332
706.813	28.034
708.526	29.5882
710.239	31.9211
711.954	33.6171
713.666	33.8143
715.378	36.1443
717.091	36.1261
718.802	35.6257
720.513	35.1019
722.226	35.3079
723.936	36.1508
725.646	37.2962
727.355	38.0794
729.067	38.5279
730.776	38.5783
732.484	39.8375
734.192	40.8457
735.902	42.4612
737.61	43.4559
739.317	43.0262
741.024	42.9682
742.731	42.513
744.439	42.767
746.145	44.5882
747.851	45.7721
749.556	47.0385
751.262	47.2045
752.966	48.4959
754.673	50.2283
756.377	51.2744
758.081	50.3929
759.784	51.3477
761.487	51.5386
763.19	51.4289
764.892	50.8899
766.594	51.3044
768.296	51.9237
770	53.448
771.701	53.3811
773.402	54.1353
775.102	55.578
776.803	54.3033
778.503	54.8918
780.202	54.6473
781.901	54.8901
783.6	55.3739
785.299	55.5728
786.997	55.2065
788.695	54.5836
790.393	55.4857
792.09	55.8889
793.787	58.2577
795.484	60.6253
797.18	61.0948
798.877	60.3489
800.572	61.5459
802.268	61.8685
803.963	63.7782
805.658	65.1658
807.35	66.0324
809.044	67.8756
810.738	70.2958
812.432	69.9688
814.125	70.4589
815.818	73.0854
817.51	74.6108
819.202	75.2495
820.894	75.7532
822.584	75.4036
824.275	76.846
825.966	77.2729
827.657	77.2826
829.347	77.992
831.037	79.2601
832.725	79.2557
834.414	79.0453
836.103	78.831
837.792	78.7664
839.481	78.635
841.167	77.3242
842.854	77.2255
844.542	77.2818
846.229	76.1791
847.914	74.5228
849.6	74.087
851.287	74.3585
852.973	72.7963
854.656	71.0258
856.341	69.91
858.026	68.9385
859.711	68.8123
861.393	66.3955
863.077	66.1861
864.761	65.4834
866.442	65.1684
868.125	63.4257
869.808	61.7098
871.489	60.349
873.171	58.9141
874.85	58.8974
876.532	58.5193
878.213	58.3427
879.892	57.3391
881.572	55.4043
883.251	54.0858
884.931	52.5901
886.61	51.9501
888.287	50.3727
889.966	48.3047
891.643	47.0009
893.321	46.9787
894.997	46.8796
896.675	45.1322
898.352	44.3266
900.028	43.7885
901.704	43.3446
903.379	43.1529
905.055	42.7023
906.729	41.4632
908.404	40.1385
910.077	38.0788
911.75	37.8652
913.425	38.7226
915.097	39.0651
916.771	39.2845
918.443	39.0252
920.116	38.0002
921.787	37.851
923.46	37.4544
925.13	37.8758
926.8	36.757
928.472	35.8983
930.141	35.696
931.813	35.5197
933.481	35.7244
935.15	36.1471
936.82	34.4926
938.488	34.3819
940.156	34.9164
941.825	33.5757
943.492	33.8685
945.158	33.468
946.827	32.5227
948.493	31.8226
950.158	31.2717
951.824	29.6951
953.491	27.9866
955.156	26.32
956.82	25.5573
958.486	23.4593
960.15	21.7101
961.814	20.9044
963.477	19.4646
965.142	19.1563
966.804	17.8892
968.467	16.387
970.129	16.9866
971.79	16.1997
973.454	15.6363
975.115	16.4597
976.776	15.7176
978.436	13.9355
980.096	12.6421
981.756	11.0755
983.417	11.0126
985.077	10.7446
986.736	8.24535
988.394	8.34817
990.052	7.46172
991.71	7.45435
993.368	8.42681
995.025	10.1077
996.682	10.3943
998.341	11.4193
999.998	11.0191
1001.65	9.31885
1003.31	9.13997
1004.97	10.2367
1006.62	10.2954
1008.28	12.0545
1009.93	12.7032
1011.58	14.6352
1013.24	15.7652
1014.89	16.4501
1016.54	18.0325
1018.2	19.3107
1019.85	19.9507
1021.5	23.0013
1023.16	24.963
1024.81	25.1715
1026.46	29.3091
1028.11	30.3999
1029.76	31.7739
1031.41	34.2374
1033.06	34.9915
1034.71	35.6749
1036.36	36.7921
1038.01	37.6233
1039.66	38.4136
1041.31	39.025
1042.95	41.6654
1044.6	43.7228
1046.25	44.9216
1047.9	47.6188
1049.54	46.861
1051.19	47.4819
1052.84	47.4585
1054.48	45.9667
1056.13	45.6088
1057.77	44.8116
1059.42	43.9284
1061.06	44.8823
1062.71	45.7958
1064.35	45.5137
1066	45.6523
1067.64	44.272
1069.28	44.1605
1070.93	44.4428
1072.57	43.4375
1074.21	43.7082
1075.85	43.2171
1077.49	42.9927
1079.13	41.05
1080.78	40.8778
1082.42	39.2585
1084.06	38.5866
1085.7	38.5669
1087.34	38.6569
1088.97	38.0784
1090.61	37.8589
1092.25	37.233
1093.89	36.4076
1095.53	36.5375
1097.17	36.5476
1098.8	36.5105
1100.44	37.3691
1102.08	38.0229
1103.71	38.793
1105.35	38.9526
1106.99	39.3519
1108.62	40.9893
1110.26	39.9025
1111.89	40.1909
1113.52	40.4992
1115.16	40.2095
1116.79	40.502
1118.43	40.6615
1120.06	39.7797
1121.69	40.1073
1123.32	41.3811
1124.96	41.7286
1126.59	41.6473
1128.22	41.9486
1129.85	42.8631
1131.48	42.1102
1133.11	42.7325
1134.75	43.1156
1136.37	43.2509
1138	43.3679
1139.63	44.6603
1141.26	45.9425
1142.89	46.3372
1144.52	45.8823
1146.15	45.8234
1147.78	46.0143
1149.4	46.1736
1151.03	47.607
1152.66	48.1444
1154.28	49.4091
1155.91	48.9484
1157.54	48.4484
1159.16	49.1057
1160.79	49.5642
1162.41	50.0356
1164.04	49.6105
1165.66	49.6712
1167.29	49.3015
1168.91	49.3789
1170.53	48.2408
1172.16	49.1642
1173.78	50.8815
1175.4	52.3307
1177.02	53.6099
1178.65	54.005
1180.27	56.6437
1181.89	59.3663
1183.51	59.6785
1185.13	60.8187
1186.75	62.1371
1188.37	62.6108
1189.99	64.9268
1191.61	65.5085
1193.23	66.5362
1194.85	68.0834
1196.47	69.8591
1198.08	71.3986
1199.7	73.0528
1201.32	74.7004
1202.94	77.9375
1204.55	80.62
1206.17	81.7
1207.79	83.3342
1209.4	85.0668
1211.02	86.7992
1212.63	87.4361
1214.25	88.6738
1215.86	88.6523
1217.48	89.2863
1219.09	90.9439
1220.71	94.0731
1222.32	96.3513
1223.93	97.4912
1225.54	100.337
1227.16	103.793
1228.77	106.664
1230.38	108.811
1231.99	111.136
1233.6	112.64
1235.22	113.672
1236.83	114.595
1238.44	118.055
1240.05	120.679
1241.66	120.563
1243.26	121.118
1244.87	122.96
1246.48	123.925
1248.09	125.512
1249.7	127.819
1251.31	129.632
1252.92	132.07
1254.52	134.091
1256.13	136.225
1257.74	138.825
1259.34	141.392
1260.95	145.232
1262.55	146.718
1264.16	149.509
1265.76	153.213
1267.37	156.927
1268.97	161.099
1270.58	166.988
1272.18	169.942
1273.78	175.264
1275.39	181.015
1276.99	185.298
1278.59	189.044
1280.2	191.612
1281.8	195.04
1283.4	199.393
1285	201.859
1286.6	203.392
1288.2	206.765
1289.8	210.373
1291.4	213.575
1293	215.897
1294.6	218.494
1296.2	221.214
1297.8	225.321
1299.4	228.627
1301	231.664
1302.6	233.342
1304.19	233.466
1305.79	236.218
1307.39	237.939
1308.99	239.172
1310.58	239.503
1312.18	239.995
1313.77	240.187
1315.37	240.765
1316.96	242.196
1318.56	242.697
1320.15	242.052
1321.75	239.891
1323.34	239.201
1324.94	238.267
1326.53	237.092
1328.12	236.867
1329.72	235.805
1331.31	235.019
1332.9	234.392
1334.49	235.192
1336.08	235.542
1337.67	235.808
1339.27	235.124
1340.86	235.383
1342.45	235.81
1344.04	237.096
1345.63	237.293
1347.22	237.739
1348.8	238.716
1350.39	239.488
1351.98	238.002
1353.57	238.218
1355.16	238.15
1356.75	236.457
1358.33	235.766
1359.92	235.235
1361.51	236.201
1363.09	235.673
1364.68	233.565
1366.27	233.085
1367.85	233.563
1369.44	233.144
1371.02	232.076
1372.61	228.803
1374.19	227.131
1375.77	226.391
1377.36	223.952
1378.94	222.279
1380.52	221.322
1382.11	218.398
1383.69	217.897
1385.27	216.659
1386.85	214.585
1388.43	213.526
1390.02	210.97
1391.6	209.12
1393.18	206.42
1394.76	204.954
1396.34	201.971
1397.92	198.414
1399.5	197.091
1401.08	194.842
1402.65	193.634
1404.23	193.11
1405.81	193.378
1407.39	193.547
1408.97	194.662
1410.54	194.977
1412.12	195.019
1413.7	196.781
1415.27	198.728
1416.85	199.479
1418.43	201.641
1420	204.103
1421.58	206.701
1423.15	210.313
1424.73	212.922
1426.3	215.904
1427.87	218.818
1429.45	221.996
1431.02	224.378
1432.6	227.672
1434.17	230.531
1435.74	233.238
1437.31	235.439
1438.89	238.408
1440.46	239.552
1442.03	240.048
1443.6	240.515
1445.17	241.168
1446.74	240.824
1448.31	240.129
1449.88	239.623
1451.45	236.738
1453.02	236.733
1454.59	235.444
1456.16	233.994
1457.72	232.446
1459.29	229.783
1460.86	225.888
1462.43	222.28
1463.99	217.004
1465.56	213.058
1467.13	208.253
1468.69	202.824
1470.26	198.378
1471.83	192.757
1473.39	188.331
1474.95	182.134
1476.52	179.251
1478.08	175.5
1479.65	169.958
1481.21	164.123
1482.78	159.615
1484.34	155.866
1485.9	152.758
1487.47	147.996
1489.03	142.996
1490.59	139.536
1492.15	136.359
1493.71	132.984
1495.27	128.636
1496.84	127.121
1498.39	124.698
1499.96	122.63
1501.52	121.429
1503.07	119.275
1504.64	118.467
1506.19	118.598
1507.75	118.206
1509.31	117.595
1510.87	118.032
1512.43	117.605
1513.98	117.887
1515.54	118.053
1517.1	117.97
1518.65	117.109
1520.21	117.972
1521.77	118.823
1523.32	119.639
1524.88	120.241
1526.44	121.554
1527.99	123.178
1529.54	124.123
1531.1	126.976
1532.65	129.597
1534.21	132.777
1535.76	134.732
1537.31	136.95
1538.87	139.222
1540.42	141.915
1541.97	145.814
1543.52	148.651
1545.07	151.234
1546.63	153.867
1548.18	156.969
1549.73	159.078
1551.28	162.718
1552.83	166.312
1554.38	170.077
1555.93	173.953
1557.48	177.608
1559.03	182.078
1560.57	188.157
1562.12	192.854
1563.67	198.265
1565.22	202.214
1566.77	208.781
1568.31	214.531
1569.86	220.179
1571.41	225.486
1572.95	231.663
1574.5	239.562
1576.05	245.44
1577.59	251.268
1579.14	257.802
1580.68	263.838
1582.23	270.014
1583.77	276.183
1585.31	282.108
1586.86	286.9
1588.4	291.598
1589.95	294.926
1591.49	298.383
1593.03	301.711
1594.57	302.569
1596.11	304.121
1597.66	305.152
1599.2	304.736
1600.74	303.726
1602.28	301.46
1603.82	298.829
1605.36	295.924
1606.9	291.445
1608.44	287.564
1609.98	284.507
1611.52	279.736
1613.06	274.185
1614.6	268.851
1616.13	262.584
1617.67	255.344
1619.21	248.017
1620.75	239.274
1622.28	231.949
1623.82	224.191
1625.36	217.835
1626.89	210.95
1628.43	204.042
1629.96	195.711
1631.5	188.306
1633.04	181.809
1634.57	175.563
1636.11	169.955
1637.64	162.484
1639.17	155.899
1640.71	150.192
1642.24	144.628
1643.77	139.212
1645.31	133.898
1646.84	128.329
1648.37	123.576
1649.9	119.856
1651.43	116.205
1652.96	111.868
1654.5	107.776
1656.03	104.423
1657.56	101.796
1659.09	98.6128
1660.62	95.8056
1662.15	93.6127
1663.67	90.5619
1665.2	88.156
1666.73	84.6845
1668.26	81.1991
1669.79	78.3522
1671.32	74.3335
1672.84	71.0262
1674.37	67.5677
1675.9	63.1707
1677.43	60.6389
1678.95	57.3116
1680.48	54.8471
1682	54.0562
1683.53	52.7315
1685.05	52.2552
1686.58	50.5159
1688.1	47.6654
1689.63	44.8017
1691.15	42.2733
1692.68	38.7418
1694.2	36.9419
1695.72	35.7988
1697.25	33.7442
1698.77	33.5196
1700.29	31.596
1701.81	29.7741
1703.33	27.5403
1704.86	26.0249
1706.38	23.9699
1707.9	22.8578
1709.42	21.2534
1710.94	20.6083
1712.46	17.7683
1713.98	15.6507
1715.5	15.029
1717.02	13.7225
1718.54	13.1603
1720.06	11.404
1721.57	11.3118
1723.09	9.83372
1724.61	8.3692
1726.13	7.31665
1727.64	6.58448
1729.16	5.64156
1730.68	4.04756
1732.19	3.69871
1733.71	2.87285
1735.23	1.78811
1736.74	1.71497
1738.26	1.51953
1739.77	0.979263
1741.29	0.518363
1742.8	-0.969331
1744.31	-1.37657
1745.83	-1.4042
1747.34	-1.41062
1748.85	-1.10927
1750.37	-0.794866
1751.88	-0.46223
1753.39	0.955434
1754.91	1.08566
1756.42	1.21698
1757.93	1.44871
1759.44	1.26945
1760.95	0.559736
1762.46	0.619286
1763.97	0.717318
1765.48	1.02849
1766.99	1.475
1768.5	1.7781
1770.01	2.38835
1771.52	2.37731
1773.03	2.23893
1774.54	2.41019
1776.04	2.01126
1777.55	1.46747
1779.06	1.5455
1780.57	2.21152
1782.07	1.85023
1783.58	2.27851
1785.09	3.03476
1786.59	3.72289
1788.1	2.89449
1789.6	3.364
1791.11	3.09356
1792.61	3.29477
1794.12	3.59162
1795.62	2.90642
1797.13	3.86134
1798.63	3.21238
1800.13	3.13751
1801.64	2.99219
1803.14	2.75497
1804.64	2.61139
1806.15	2.3051
1807.65	1.96218
1809.15	1.42231
1810.65	1.82494
1812.15	1.89699
1813.65	2.21313
1815.16	2.74099
1816.66	3.06413
1818.15	3.31823
1819.66	4.25848
1821.16	4.38419
1822.65	4.33042
1824.15	4.53407
1825.65	4.35633
1827.15	4.82886
1828.65	4.1849
1830.15	3.88165
1831.64	2.93567
1833.14	3.2865
1834.64	4.14629
1836.14	4.20468
1837.63	4.4423
1839.13	4.42683
1840.62	4.28876
1842.12	4.27549
1843.62	4.93149
1845.11	5.7136
1846.61	6.66336
1848.1	7.25575
1849.6	7.41063
1851.09	8.41035
1852.58	8.99903
1854.08	10.5747
1855.57	11.0674
1857.06	11.7491
1858.55	11.9365
1860.05	12.1867
1861.54	11.6992
1863.03	11.3247
1864.52	11.909
1866.01	11.343
1867.5	10.9361
1869	11.4134
1870.49	11.0324
1871.98	12.1521
1873.47	11.693
1874.96	11.2622
1876.44	10.8406
1877.93	10.7736
1879.42	11.0024
1880.91	11.2084
1882.4	11.5178
1882.47	11.4773
1883.96	11.5402
1885.46	11.8925
1886.95	12.1856
1888.44	12.4079
1889.94	12.6091
1891.43	12.4278
1892.93	12.1479
1894.42	11.972
1895.91	11.2949
1897.4	10.5833
1898.89	11.0093
1900.39	10.3589
1901.88	9.56689
1903.37	10.0557
1904.86	10.9267
1906.35	11.4367
1907.84	11.9011
1909.33	11.5257
1910.82	12.2709
1912.31	12.5855
1913.8	13.9183
1915.29	14.8651
1916.77	14.7445
1918.26	15.1814
1919.75	14.897
1921.24	13.98
1922.73	14.7431
1924.21	15.1239
1925.7	15.3524
1927.19	15.3294
1928.67	13.6473
1930.16	13.5261
1931.64	12.5096
1933.13	11.234
1934.61	10.0066
1936.1	9.28762
1937.58	8.6071
1939.07	7.8671
1940.55	8.16746
1942.04	8.65017
1943.52	7.96202
1945	8.47803
1946.49	8.40857
1947.97	7.31862
1949.45	7.12629
1950.93	7.10914
1952.42	7.94396
1953.9	8.29966
1955.38	7.54469
1956.86	6.8108
1958.34	6.92857
1959.82	6.74202
1961.3	6.24461
1962.78	5.57392
1964.26	5.8527
1965.74	5.81883
1967.22	5.73321
1968.7	4.35975
1970.18	3.80015
1971.65	3.62492
1973.13	4.48291
1974.61	3.70604
1976.09	3.92272
1977.57	4.48154
1979.04	4.64969
1980.52	4.3674
1982	4.82995
1983.47	4.24551
1984.95	4.14433
1986.42	3.18274
1987.9	3.63503
1989.37	3.43373
1990.85	2.77511
1992.32	2.72054
1993.8	2.93402
1995.27	3.20793
1996.75	4.34359
1998.22	3.4727
1999.69	3.60279
2001.17	3.05575
2002.64	2.6668
2004.11	2.47621
2005.58	2.21126
2007.05	1.97382
2008.53	2.57418
2010	2.60786
2011.47	3.08765
2012.94	3.55106
2014.41	4.68839
2015.88	4.98051
2017.35	5.36861
2018.82	6.14333
2020.29	6.68388
2021.76	6.75038
2023.23	7.95146
2024.7	9.28763
2026.16	9.96061
2027.63	10.3065
2029.1	10.5448
2030.57	11.1961
2032.03	11.7984
2033.5	12.0508
2034.97	13.5107
2036.44	14.4852
2037.9	16.0394
2039.37	15.9629
2040.83	15.6926
2042.3	15.9926
2043.76	17.69
2045.23	18.6192
2046.69	19.6221
2048.16	20.6638
2049.62	21.8456
2051.08	22.3417
2052.55	22.2391
2054.01	23.1501
2055.47	23.6696
2056.94	23.5801
2058.4	24.1606
2059.86	24.6501
2061.32	25.4143
2062.79	25.7515
2064.25	25.6628
2065.71	26.0771
2067.17	26.7478
2068.63	27.0787
2070.09	27.0103
2071.55	26.5866
2073.01	26.1976
2074.47	25.2183
2075.93	24.2412
2077.39	23.8697
2078.85	23.6735
2080.31	23.8162
2081.76	24.2366
2083.22	24.8142
2084.68	26.6159
2086.13	27.1966
2087.59	27.2474
2089.05	27.0466
2090.51	27.2073
2091.96	27.4076
2093.42	28.1177
2094.87	28.6176
2096.33	29.2645
2097.78	30.0593
2099.24	30.8012
2100.69	31.7509
2102.15	32.3036
2103.6	32.9735
2105.06	34.0704
2106.51	35.4326
2107.96	36.1205
2109.42	36.3378
2110.87	36.8054
2112.32	37.3039
2113.77	38.7483
2115.23	41.0348
2116.68	42.7451
2118.13	43.324
2119.58	43.5619
2121.03	44.8954
2122.48	45.2074
2123.93	45.9
2125.38	47.179
2126.83	49.4512
2128.28	50.0035
2129.73	51.3804
2131.18	53.2572
2132.63	54.4173
2134.08	55.8898
2135.53	57.6905
2136.97	59.9599
2138.42	60.8838
