#Acq. time (s)=	45
#Accumulations=	2
#Range (cm-¹)=	200...3150
#Windows=	2
#Auto scanning=	Off
#Autofocus=	Off
#Macrospot=	Off
#AutoExposure=	Off
#Spike filter=	Multiple accum.
#Delay time (s)=	0
#Binning=	1
#Readout mode=	Signal
#DeNoise=	Off
#ICS correction=	On
#Dark correction=	Off
#Inst. Process=	Off
#Detector Gain=	Best Dynamic Range
#Detector ADC=	20 kHz       
#Detector temperature (°C)=	-69.85
#Instrument=	LabRAM HR Evol
#Detector=	Synapse
#Objective=	x100
#Grating=	600 gr/mm
#ND Filter=	100%
#Laser (nm)=	532 
#Hole=	100.021
#Range=	Auto
#Laser Pol.=	No
#Raman. Pol.=	No
#Laser Pol. (°)=	-0.0007625
#Raman Pol. (°)=	89.9995
#Collection=	Microscope
#StageXY=	Marzhauser
#StageZ=	Marzhauser
#X (µm)=	-1028.7
#Y (µm)=	655.3
#Z (µm)=	584.35
#Full time(mm:ss)=	3:18
#Project=	
#Sample=	
#Site=	
#Title=	Mb_40_y_20_2x_45s_532 nm_x100_100%_600 gr_mm
#Remark=	
#Date=	19.07.2022 10:36
#Acquired=	19.07.2022 10:36:00
#Base:Fit=	10.08.2022 10:52:48
#Base:Sub=	10.08.2022 10:52:53
#Filter:Polynom=	16.08.2022 10:09:04
#AxisType[0]=Intens
#AxisUnit[0]=Cnt
#AxisType[1]=Spectr
#AxisUnit[1]=1/cm
200.423	24.2911
202.238	21.1631
204.052	18.4901
205.868	16.6944
207.682	14.9338
209.495	13.4481
211.308	12.3192
213.12	10.7934
214.935	10.4862
216.746	9.57125
218.558	7.6522
220.369	7.79471
222.18	6.7999
223.992	5.9695
225.802	4.26061
227.612	4.30098
229.421	4.51606
231.23	4.68654
233.039	5.28848
234.849	4.51782
236.657	3.38609
238.465	3.78347
240.272	3.33674
242.079	3.13858
243.885	3.7885
245.691	3.60635
247.497	3.21101
249.305	3.06877
251.11	2.27071
252.915	2.36955
254.719	2.89754
256.523	3.21726
258.327	1.64454
260.13	0.880606
261.933	1.91379
263.736	1.70252
265.538	0.867595
267.34	-0.0138054
269.141	1.4479
270.943	1.1209
272.744	1.00552
274.544	1.74671
276.344	3.50567
278.144	4.46002
279.944	5.62056
281.743	5.19224
283.542	5.43905
285.34	6.53065
287.138	6.08877
288.936	6.75207
290.733	7.52113
292.53	8.32037
294.327	9.51962
296.123	9.29119
297.919	10.0085
299.715	12.033
301.508	12.5419
303.303	12.706
305.098	14.0644
306.892	13.3385
308.686	13.653
310.479	15.08
312.273	15.9908
314.065	17.1643
315.858	17.9449
317.648	18.9791
319.44	19.0023
321.231	19.4313
323.022	20.033
324.813	20.3674
326.604	20.831
328.392	22.4959
330.181	22.0076
331.971	22.5248
333.76	23.1708
335.548	22.3778
337.335	21.4345
339.123	21.6158
340.91	20.4543
342.698	20.6674
344.483	19.2587
346.269	18.3452
348.055	16.9476
349.841	16.7252
351.625	17.0335
353.41	16.7179
355.195	16.4468
356.977	16.4552
358.762	15.9179
360.545	14.6963
362.329	14.5859
364.11	14.4191
365.893	14.3955
367.675	14.2123
369.455	14.4177
371.237	13.9826
373.017	14.1048
374.798	13.7967
376.578	13.5309
378.357	13.8306
380.137	13.8161
381.917	15.0317
383.694	16.0677
385.473	16.368
387.249	16.7273
389.028	17.547
390.806	17.0962
392.581	17.2545
394.359	18.5305
396.134	20.1052
397.91	21.7528
399.684	23.2231
401.46	23.7711
403.234	23.8406
405.009	24.235
406.784	24.1549
408.557	25.3715
410.331	27.0181
412.103	26.9683
413.876	26.7892
415.647	26.4358
417.42	27.2129
419.191	26.0216
420.961	27.2248
422.733	27.3834
424.502	27.1967
426.273	26.2719
428.042	26.025
429.812	24.7454
431.58	25.1231
433.35	23.4405
435.118	23.6173
436.885	22.6984
438.653	22.8631
440.42	23.4022
442.188	23.1952
443.954	22.5584
445.719	21.5717
447.486	22.587
449.251	21.518
451.015	22.5907
452.781	22.6716
454.545	23.8158
456.308	24.1427
458.073	24.2917
459.836	24.1301
461.598	25.9604
463.362	26.007
465.124	27.4515
466.885	28.7842
468.648	30.5355
470.408	32.1498
472.169	32.2607
473.929	32.8652
475.69	33.1408
477.45	35.2135
479.208	34.8429
480.967	35.5815
482.727	36.7309
484.485	37.3539
486.243	37.0168
488	37.5799
489.759	37.7743
491.515	38.0655
493.272	37.3538
495.028	37.089
496.783	37.1831
498.54	35.5562
500.295	34.3641
502.05	34.9551
503.804	35.4326
505.558	35.8179
507.311	35.0468
509.064	35.2524
510.819	34.145
512.572	33.0344
514.324	31.6004
516.076	32.5468
517.827	32.7956
519.578	33.3056
521.329	32.9024
523.08	33.7952
524.83	34.1786
526.58	34.3888
528.329	34.3563
530.08	34.5067
531.829	33.4131
533.578	33.8241
535.326	33.0045
537.074	32.9206
538.821	34.018
540.568	35.1324
542.315	34.3853
544.062	33.5333
545.808	33.3083
547.554	33.1812
549.299	34.3045
551.044	33.8428
552.789	33.7434
554.533	33.0631
556.278	32.0916
558.019	31.3539
559.763	30.1676
561.506	29.7668
563.249	28.7697
564.991	26.8244
566.733	25.5854
568.475	25.3877
570.217	24.0125
571.958	23.1653
573.699	21.2106
575.439	20.2417
577.177	19.008
578.917	16.5543
580.656	15.5346
582.396	14.487
584.134	13.0862
585.873	11.5681
587.609	12.0471
589.347	10.642
591.084	8.33239
592.822	7.21645
594.558	5.74594
596.295	3.77237
598.029	2.68369
599.765	2.47347
601.5	3.16743
603.235	3.94768
604.968	4.11993
606.703	5.08486
608.437	4.95564
610.171	5.13863
611.902	5.64208
613.635	6.24231
615.368	4.89427
617.099	5.15125
618.831	4.32893
620.563	5.34065
622.294	4.06678
624.024	5.13433
625.755	5.57989
627.485	5.58408
629.213	4.80925
630.943	5.67507
632.673	6.41176
634.4	5.95477
636.129	7.05468
637.855	7.04527
639.584	7.21205
641.312	7.1374
643.037	6.79594
644.764	7.57191
646.491	7.76069
648.216	7.66012
649.942	7.58373
651.666	6.80584
653.392	6.55149
655.115	5.58273
656.84	6.2092
658.563	6.47978
660.287	5.6063
662.011	5.81515
663.732	5.41939
665.456	5.9506
667.177	6.96209
668.899	6.89226
670.62	7.48399
672.342	7.55432
674.061	8.98252
675.781	8.07864
677.502	9.36093
679.22	10.1635
680.941	11.3743
682.659	11.6774
684.379	13.5453
686.096	15.8613
687.815	17.1892
689.532	19.1592
691.248	20.0747
692.966	20.7892
694.682	22.0129
696.4	24.3999
698.115	26.695
699.829	27.7458
701.546	28.9562
703.26	32.4362
704.974	33.3599
706.689	35.2644
708.402	36.3817
710.115	39.5023
711.83	41.6147
713.542	42.5261
715.254	43.6147
716.967	44.816
718.679	47.0313
720.39	47.0234
722.102	48.4366
723.812	48.3536
725.522	48.6366
727.232	47.3228
728.943	46.9639
730.652	47.2268
732.361	48.1059
734.069	46.8243
735.779	46.3822
737.487	45.4919
739.194	45.4249
740.901	45.7005
742.608	45.3317
744.316	44.7787
746.022	44.7606
747.728	45.3939
749.433	46.7031
751.138	47.7819
752.843	47.7636
754.549	48.6341
756.254	48.0711
757.957	47.736
759.661	48.1656
761.364	47.4306
763.067	48.116
764.769	47.3405
766.471	48.0678
768.175	47.441
769.877	48.3995
771.578	49.0243
773.279	49.8049
774.98	49.9235
776.68	49.815
778.38	51.8392
780.079	53.2091
781.779	53.6502
783.478	53.1018
785.176	53.9281
786.875	53.8015
788.573	52.8837
790.27	52.3448
791.968	52.8963
793.665	53.7594
795.361	56.2342
797.058	56.8427
798.754	57.5663
800.45	57.5126
802.145	58.654
803.84	59.6766
805.535	58.0652
807.23	58.2613
808.922	59.0248
810.616	58.9368
812.309	58.5646
814.002	59.811
815.695	60.5517
817.388	61.3544
819.08	60.2646
820.772	61.632
822.464	61.614
824.153	62.4778
825.844	61.8332
827.535	61.9172
829.225	62.4362
830.915	63.3154
832.605	63.6034
834.292	63.7591
835.981	62.9671
837.67	62.4625
839.359	61.6793
841.047	58.8728
842.732	59.1132
844.42	58.1033
846.107	57.0066
847.794	57.1348
849.479	54.9489
851.165	54.3352
852.851	53.419
854.534	51.5914
856.22	51.1168
857.905	49.6985
859.589	47.6073
861.272	46.0933
862.956	44.8051
864.639	40.7929
866.321	38.7401
868.004	37.8455
869.687	37.6985
871.367	36.0683
873.049	35.3936
874.731	35.8425
876.41	35.3672
878.092	34.8215
879.771	33.994
881.451	32.2856
883.131	31.4699
884.809	31.5027
886.489	31.7631
888.166	30.9765
889.845	29.7961
891.522	29.4189
893.2	29.9904
894.878	29.0609
896.554	28.067
898.231	28.2728
899.906	27.8635
901.583	27.9434
903.258	26.8063
904.934	26.9271
906.608	27.1173
908.283	27.1624
909.956	27.3112
911.631	28.1224
913.304	28.956
914.976	28.9019
916.65	28.9453
918.322	28.8844
919.995	29.1213
921.666	30.0423
923.339	30.3261
925.009	29.64
926.679	31.9644
928.351	32.1666
930.021	33.2726
931.692	33.1676
933.361	32.517
935.029	33.4937
936.699	33.7738
938.367	34.2232
940.035	35.8224
941.704	34.8072
943.371	36.2342
945.038	36.4346
946.706	34.9523
948.372	34.3286
950.038	35.7593
951.705	35.197
953.37	35.6552
955.035	36.7353
956.7	36.4456
958.366	35.7581
960.03	34.0871
961.693	33.7256
963.357	33.6474
965.021	34.6936
966.684	35.7095
968.346	36.3473
970.008	35.9709
971.67	35.791
973.334	36.4088
974.995	36.1829
976.655	35.3764
978.316	33.9111
979.976	33.5308
981.638	33.653
983.297	32.5453
984.957	31.1229
986.616	30.0278
988.274	30.2529
989.932	27.8209
991.59	26.0468
993.248	22.9101
994.907	18.4638
996.565	14.1542
998.221	10.4472
999.878	5.92558
1001.53	0.80113
1003.19	-2.74717
1004.85	-4.32057
1006.5	-3.94891
1008.16	0.0206249
1009.81	9.30036
1011.46	20.3552
1013.12	36.2218
1014.77	54.0345
1016.43	73.983
1018.08	94.0967
1019.73	116.392
1021.38	136.85
1023.04	159.024
1024.69	178.306
1026.34	198.889
1027.99	216.28
1029.64	232.914
1031.29	250.444
1032.94	265.894
1034.59	279.494
1036.24	292.194
1037.89	302.121
1039.54	309.944
1041.19	317.488
1042.84	323.483
1044.48	329.688
1046.13	332.837
1047.78	333.791
1049.42	333.055
1051.07	330.471
1052.72	325.646
1054.36	318.287
1056.01	310.365
1057.66	300.704
1059.3	289.816
1060.94	277.343
1062.59	262.324
1064.23	245.65
1065.88	227.881
1067.52	209.585
1069.16	189.561
1070.81	168.057
1072.45	145.001
1074.09	123.567
1075.73	98.9994
1077.38	77.8871
1079.02	58.4655
1080.66	40.9418
1082.3	23.6547
1083.94	11.0406
1085.58	2.21715
1087.22	-2.48924
1088.86	-3.37878
1090.5	-1.41664
1092.13	1.89828
1093.77	5.72964
1095.41	10.3668
1097.05	12.8044
1098.68	16.325
1100.32	20.3143
1101.96	23.1936
1103.6	24.623
1105.23	28.3058
1106.87	29.1096
1108.5	31.4695
1110.14	32.0524
1111.77	32.4012
1113.41	32.5669
1115.04	33.4532
1116.67	33.3383
1118.31	33.4267
1119.94	34.0178
1121.58	34.045
1123.21	33.7255
1124.84	34.2573
1126.47	34.344
1128.1	32.4276
1129.73	31.88
1131.37	32.1667
1133	30.7855
1134.63	29.9699
1136.26	29.6891
1137.89	30.3684
1139.52	30.0263
1141.14	29.572
1142.77	27.6717
1144.4	27.3571
1146.03	26.9849
1147.66	26.4881
1149.29	26.2067
1150.91	25.0718
1152.54	24.4636
1154.17	23.1927
1155.79	22.2796
1157.42	20.8211
1159.04	20.0837
1160.67	18.0817
1162.3	16.0522
1163.92	13.933
1165.55	12.2455
1167.17	12.5295
1168.79	13.2394
1170.42	13.4447
1172.04	12.3668
1173.66	11.6547
1175.28	13.3929
1176.91	13.5498
1178.53	13.0683
1180.15	14.249
1181.77	14.4447
1183.39	14.0515
1185.01	14.6904
1186.63	14.3708
1188.25	14.5491
1189.87	15.1678
1191.49	14.5369
1193.11	14.7906
1194.73	14.6714
1196.35	16.0153
1197.97	16.1519
1199.59	17.5927
1201.2	18.2073
1202.82	18.6734
1204.44	19.7538
1206.05	20.2803
1207.67	19.9908
1209.29	20.522
1210.9	22.2339
1212.52	22.2426
1214.13	22.871
1215.75	24.835
1217.36	26.492
1218.97	27.7604
1220.59	28.4287
1222.2	30.8367
1223.82	32.2588
1225.43	34.3902
1227.04	35.898
1228.65	37.3162
1230.26	38.6651
1231.88	40.0366
1233.49	42.281
1235.1	43.6592
1236.71	44.9326
1238.32	46.6598
1239.93	46.7967
1241.54	47.9574
1243.15	50.6847
1244.76	51.8188
1246.37	53.7517
1247.97	56.4728
1249.58	57.1335
1251.19	58.0221
1252.8	58.1227
1254.41	61.4549
1256.01	64.4144
1257.62	66.6157
1259.23	69.5422
1260.83	72.4891
1262.44	76.4643
1264.04	79.6155
1265.65	83.7319
1267.25	87.4033
1268.86	90.959
1270.46	92.1745
1272.07	94.4009
1273.67	96.7762
1275.27	98.9472
1276.88	101.865
1278.48	103.925
1280.08	105.334
1281.68	106.488
1283.28	107.353
1284.89	109.492
1286.49	110.237
1288.09	111.092
1289.69	111.931
1291.29	111.472
1292.89	111.197
1294.49	111.829
1296.09	112.736
1297.69	112.717
1299.29	112.382
1300.88	112.641
1302.48	114.379
1304.08	114.211
1305.68	114.586
1307.27	113.947
1308.87	113.79
1310.47	113.423
1312.06	113.932
1313.66	113.885
1315.25	113.312
1316.85	111.524
1318.44	111.454
1320.04	109.842
1321.63	109.924
1323.23	109.331
1324.82	107.91
1326.41	107.2
1328.01	104.984
1329.6	104.947
1331.19	105.243
1332.78	105.482
1334.38	106.76
1335.97	106.183
1337.56	105.205
1339.15	105.181
1340.74	105.241
1342.33	105.505
1343.92	104.15
1345.51	104.175
1347.1	102.534
1348.69	99.8539
1350.28	98.3623
1351.87	98.8899
1353.46	96.8444
1355.04	95.8788
1356.63	95.0585
1358.22	94.3718
1359.81	92.5936
1361.39	91.2854
1362.98	88.6837
1364.57	87.2848
1366.15	84.9841
1367.74	83.1705
1369.32	81.1592
1370.91	78.2198
1372.49	76.3316
1374.07	74.1307
1375.66	72.2951
1377.24	70.223
1378.83	68.6574
1380.41	68.9506
1381.99	68.2128
1383.57	67.7101
1385.16	67.9998
1386.74	66.915
1388.32	67.0289
1389.9	66.7362
1391.48	66.8084
1393.06	68.4538
1394.64	69.0755
1396.22	69.034
1397.8	71.2444
1399.38	71.8189
1400.96	74.2108
1402.54	75.5212
1404.12	79.3225
1405.7	82.3611
1407.28	85.7407
1408.85	90.9838
1410.43	94.3603
1412.01	98.3262
1413.58	101.847
1415.16	106.943
1416.74	112.431
1418.31	118.64
1419.89	122.967
1421.46	127.757
1423.04	133.859
1424.61	140.786
1426.19	145.884
1427.76	152.298
1429.33	159.422
1430.91	165.6
1432.48	170.059
1434.05	175.743
1435.63	180.399
1437.2	184.403
1438.77	187.397
1440.34	189.054
1441.91	192.31
1443.49	194.568
1445.05	195.708
1446.63	195.768
1448.2	195.758
1449.77	195.021
1451.34	194.884
1452.91	194.43
1454.47	192.915
1456.04	191.48
1457.61	189.831
1459.18	188.574
1460.75	186.414
1462.31	185.243
1463.88	182.018
1465.45	177.682
1467.01	174.547
1468.58	171.355
1470.15	168.182
1471.71	165.415
1473.28	159.785
1474.84	156.653
1476.41	151.85
1477.97	147.872
1479.54	144.231
1481.1	140.489
1482.66	136.187
1484.23	130.714
1485.79	126.252
1487.35	122.277
1488.91	117.484
1490.48	112.558
1492.04	107.15
1493.6	103.855
1495.16	99.9399
1496.72	95.5013
1498.28	91.9864
1499.84	88.5059
1501.4	85.1483
1502.96	80.8051
1504.52	77.699
1506.08	75.4396
1507.64	71.5311
1509.2	67.2444
1510.76	63.2665
1512.31	60.7614
1513.87	57.0961
1515.43	54.7059
1516.99	51.2887
1518.54	48.3646
1520.1	47.988
1521.66	45.7483
1523.21	43.7467
1524.77	42.9465
1526.32	41.149
1527.88	40.5657
1529.43	40.8935
1530.99	39.3929
1532.54	38.0096
1534.09	38.9257
1535.65	40.3763
1537.2	41.8208
1538.75	43.1463
1540.31	44.2365
1541.86	44.0333
1543.41	45.8343
1544.96	47.726
1546.51	48.991
1548.06	49.8599
1549.62	49.964
1551.17	50.5618
1552.72	51.9234
1554.27	52.1187
1555.82	54.5448
1557.36	54.7955
1558.91	55.7696
1560.46	55.8762
1562.01	57.4302
1563.56	58.4879
1565.11	59.5343
1566.66	60.8412
1568.2	61.9258
1569.75	62.9805
1571.3	64.8926
1572.84	66.1653
1574.39	67.9734
1575.93	70.3054
1577.48	72.0651
1579.02	74.1594
1580.57	76.279
1582.11	78.9829
1583.66	79.5927
1585.2	79.9374
1586.75	80.6529
1588.29	82.436
1589.83	84.9256
1591.38	85.8461
1592.92	86.6732
1594.46	87.2422
1596	88.2116
1597.54	88.7652
1599.09	88.3467
1600.63	89.0753
1602.17	89.5064
1603.71	89.2735
1605.25	89.1616
1606.79	87.962
1608.33	85.9796
1609.87	85.5892
1611.41	86.1902
1612.95	84.8781
1614.48	84.6731
1616.02	84.0516
1617.56	83.7444
1619.1	83.3316
1620.64	84.3467
1622.17	83.6914
1623.71	83.3346
1625.25	83.7743
1626.78	83.3129
1628.32	84.0813
1629.86	83.6927
1631.39	83.3655
1632.92	83.8003
1634.46	83.8573
1635.99	85.1394
1637.53	86.2793
1639.06	85.7309
1640.59	86.4229
1642.13	88.0724
1643.66	89.102
1645.19	89.5546
1646.73	89.5983
1648.26	89.8707
1649.79	91.0865
1651.32	92.8428
1652.85	93.4667
1654.38	92.6113
1655.92	92.3485
1657.45	92.9139
1658.98	92.5026
1660.51	91.1973
1662.04	90.7017
1663.57	90.2813
1665.09	90.0766
1666.62	88.2757
1668.15	85.6764
1669.68	83.0833
1671.21	81.8575
1672.73	80.0234
1674.26	78.8526
1675.79	76.7104
1677.31	74.7274
1678.84	72.4193
1680.37	69.3747
1681.89	66.5632
1683.42	64.5834
1684.94	61.3512
1686.47	59.4429
1687.99	56.6645
1689.52	53.3087
1691.04	50.969
1692.57	47.9485
1694.09	45.9844
1695.61	44.5294
1697.14	42.8226
1698.66	39.8974
1700.18	37.7291
1701.7	35.8778
1703.22	32.7559
1704.75	31.1808
1706.27	28.7857
1707.79	27.5323
1709.31	27.5801
1710.83	25.7583
1712.35	24.2157
1713.87	21.7174
1715.39	19.9103
1716.91	19.7447
1718.43	19.0008
1719.95	17.6836
1721.46	16.5686
1722.98	15.6331
1724.5	15.0313
1726.02	15.1535
1727.53	14.8992
1729.05	14.1731
1730.57	13.532
1732.08	13.8007
1733.6	12.8178
1735.12	11.1077
1736.63	10.789
1738.15	11.1928
1739.66	10.9347
1741.18	11.1209
1742.69	10.3634
1744.21	10.2829
1745.72	10.6092
1747.23	10.8157
1748.74	10.6705
1750.26	10.7941
1751.77	11.0616
1753.28	11.1426
1754.8	11.4675
1756.31	10.7591
1757.82	10.4125
1759.33	9.42856
1760.84	8.21954
1762.35	6.90193
1763.86	5.68553
1765.37	5.48145
1766.88	6.2369
1768.39	5.94821
1769.9	6.00067
1771.41	5.39947
1772.92	4.14766
1774.43	3.3918
1775.93	3.32671
1777.44	3.53894
1778.95	2.80272
1780.46	3.08157
1781.96	3.45444
1783.47	4.01169
1784.98	3.57376
1786.48	2.76984
1787.99	2.72232
1789.49	2.37762
1791	2.56671
1792.5	2.39336
1794.01	2.72236
1795.51	2.65524
1797.02	3.26429
1798.52	2.69474
1800.03	2.27508
1801.53	2.06074
1803.03	2.63274
1804.53	2.75578
1806.04	2.46619
1807.54	2.4271
1809.04	2.70385
1810.54	3.7029
1812.04	4.24837
1813.54	4.17211
1815.05	3.76586
1816.55	3.44445
1818.05	3.01817
1819.55	3.56556
1821.05	3.66995
1822.55	3.57517
1824.05	4.56176
1825.54	4.96323
1827.04	5.46426
1828.54	4.90547
1830.04	5.46627
1831.54	5.48295
1833.03	5.43944
1834.53	5.19962
1836.03	4.94844
1837.52	4.39409
1839.02	5.02404
1840.52	4.9703
1842.01	4.62799
1843.51	3.48987
1845	3.76028
1846.5	3.70165
1847.99	3.43725
1849.49	3.78819
1850.98	4.06617
1852.47	3.85745
1853.97	3.60369
1855.46	4.53688
1856.95	5.20712
1858.45	5.12891
1859.94	4.11109
1861.43	3.91345
1862.92	3.39063
1864.41	3.31635
1865.91	3.94341
1867.4	4.80339
1868.89	4.59585
1870.38	4.01535
1871.87	3.73279
1873.36	2.04201
1874.85	1.80267
1876.34	2.00578
1877.83	1.85658
1879.31	1.11361
1880.8	0.835231
1882.29	1.0909
1882.56	1.13699
1884.05	1.51487
1885.54	0.515109
1887.04	1.0016
1888.53	0.401107
1890.03	0.695225
1891.52	1.24764
1893.01	0.630244
1894.5	0.442133
1895.99	0.645759
1897.49	2.15524
1898.98	2.21277
1900.47	3.12117
1901.96	3.25082
1903.45	4.55617
1904.94	5.29795
1906.43	5.16262
1907.92	4.77302
1909.41	5.78525
1910.9	5.09515
1912.39	5.62026
1913.88	4.74077
1915.37	4.84882
1916.86	6.11566
1918.35	7.10594
1919.84	6.82295
1921.32	6.87074
1922.81	6.90579
1924.3	6.49973
1925.78	6.72595
1927.27	7.47056
1928.76	8.6294
1930.24	9.11207
1931.73	8.39591
1933.21	8.69984
1934.7	8.87677
1936.18	8.72197
1937.67	8.23702
1939.15	8.09127
1940.64	6.65653
1942.12	5.93838
1943.6	5.61265
1945.09	5.53513
1946.57	4.81668
1948.05	5.06509
1949.54	5.7012
1951.02	5.56483
1952.5	5.98866
1953.98	6.62681
1955.46	7.20148
1956.94	7.14815
1958.42	6.27771
1959.91	4.84824
1961.39	5.27397
1962.87	4.21997
1964.34	4.66446
1965.82	5.34167
1967.3	5.1737
1968.78	6.79261
1970.26	7.57057
1971.74	8.25
1973.22	7.86805
1974.7	8.1295
1976.17	8.09497
1977.65	8.27546
1979.13	8.18167
1980.6	7.5803
1982.08	8.23074
1983.56	8.39054
1985.03	7.76708
1986.51	8.94501
1987.98	8.62329
1989.46	9.01273
1990.93	9.50237
1992.41	8.62145
1993.88	8.16856
1995.36	8.29945
1996.83	8.77705
1998.3	9.39717
1999.78	10.6963
2001.25	10.8389
2002.72	11.6469
2004.2	11.0964
2005.67	10.4832
2007.14	9.86215
2008.61	9.03834
2010.08	7.73282
2011.55	7.40659
2013.02	7.99072
2014.49	7.24522
2015.97	8.19139
2017.43	7.83933
2018.9	7.3926
2020.37	7.33593
2021.84	8.43137
2023.31	9.00167
2024.78	9.04219
2026.25	8.47939
2027.72	8.17281
2029.19	7.93234
2030.65	8.02491
2032.12	7.68677
2033.59	8.32218
2035.05	9.45414
2036.52	10.3935
2037.98	11.6103
2039.45	12.2482
2040.92	12.268
2042.38	13.4033
2043.85	12.821
2045.31	12.6053
2046.78	12.5792
2048.24	13.2506
2049.71	13.6758
2051.17	14.0994
2052.63	15.726
2054.1	16.0532
2055.56	17.4988
2057.02	17.6143
2058.48	18.8761
2059.95	18.9953
2061.41	19.109
2062.87	19.8141
2064.33	21.1006
2065.79	22.2587
2067.25	22.9657
2068.71	23.6587
2070.17	23.7684
2071.63	24.6679
2073.09	24.4476
2074.55	24.0788
2076.01	24.6066
2077.47	24.1389
2078.93	24.7239
2080.39	24.659
2081.85	25.7123
2083.3	26.0671
2084.76	27.3762
2086.22	28.1286
2087.68	28.0928
2089.13	29.343
2090.59	29.4338
2092.05	30.3604
2093.5	31.7906
2094.96	32.9108
2096.41	33.0603
2097.87	34.0075
2099.32	34.7564
2100.78	36.1728
2102.23	37.726
2103.69	39.0609
2105.14	40.7068
2106.59	42.4059
2108.05	43.7542
2109.5	44.6391
2110.95	45.8359
2112.41	46.5364
2113.86	47.6062
2115.31	48.525
2116.76	48.7424
2118.21	49.8479
2119.67	51.504
2121.12	53.2329
2122.57	54.1235
2124.02	56.0532
2125.47	57.6344
2126.92	58.6667
2128.37	61.3046
2129.82	63.0793
2131.27	65.9317
2132.71	68.9042
2134.16	70.96
