#Acq. time (s)=	45
#Accumulations=	2
#Range (cm-¹)=	200...3150
#Windows=	2
#Auto scanning=	Off
#Autofocus=	Off
#Macrospot=	Off
#AutoExposure=	Off
#Spike filter=	Multiple accum.
#Delay time (s)=	0
#Binning=	1
#Readout mode=	Signal
#DeNoise=	Off
#ICS correction=	On
#Dark correction=	Off
#Inst. Process=	Off
#Detector Gain=	Best Dynamic Range
#Detector ADC=	20 kHz       
#Detector temperature (°C)=	-70.08
#Instrument=	LabRAM HR Evol
#Detector=	Synapse
#Objective=	x100
#Grating=	600 gr/mm
#ND Filter=	100%
#Laser (nm)=	532 
#Hole=	100.021
#Range=	Auto
#Laser Pol.=	No
#Raman. Pol.=	No
#Laser Pol. (°)=	-0.0007625
#Raman Pol. (°)=	89.9995
#Collection=	Microscope
#StageXY=	Marzhauser
#StageZ=	Marzhauser
#X (µm)=	-2469.4
#Y (µm)=	-101.5
#Z (µm)=	-10.4
#Full time(mm:ss)=	3:19
#Project=	
#Sample=	
#Site=	
#Title=	Mb_40_24_32_2x_45s_532 nm_x100_100%_600 gr_mm
#Remark=	
#Date=	14.07.2022 13:03
#Acquired=	14.07.2022 13:03:52
#Base:Fit=	10.08.2022 10:47:00
#Base:Sub=	10.08.2022 10:47:12
#Filter:Polynom=	16.08.2022 10:11:48
#AxisType[0]=Intens
#AxisUnit[0]=Cnt
#AxisType[1]=Spectr
#AxisUnit[1]=1/cm
200.554	1.45166
202.369	1.86844
204.183	2.77423
205.999	2.59087
207.813	2.63637
209.626	2.31704
211.439	2.61769
213.253	2.63359
215.065	2.19918
216.877	1.58871
218.688	1.62722
220.5	2.0426
222.312	2.27037
224.123	1.58151
225.933	2.0182
227.742	2.69276
229.552	3.41297
231.361	4.18878
233.171	4.46142
234.98	4.92901
236.787	5.49067
238.595	4.92722
240.402	5.34361
242.209	5.22614
244.015	5.65425
245.822	5.55621
247.627	5.48306
249.435	5.33042
251.24	5.69267
253.045	5.342
254.849	5.26659
256.653	5.29171
258.457	6.29786
260.26	7.58284
262.063	7.68417
263.866	8.32783
265.668	9.50196
267.47	8.79231
269.271	9.03252
271.073	8.33875
272.873	8.38723
274.674	7.80453
276.474	6.71497
278.274	7.29587
280.073	7.85049
281.872	7.33763
283.671	6.57876
285.47	5.65696
287.268	6.10549
289.065	6.68371
290.863	6.66559
292.66	5.71325
294.456	5.65134
296.253	6.14597
298.049	5.8843
299.844	5.66558
301.637	5.93939
303.432	5.00522
305.227	4.83305
307.021	5.5774
308.815	6.26917
310.609	6.78088
312.402	6.6302
314.195	6.75989
315.987	8.06168
317.777	7.76965
319.569	8.72049
321.36	9.06277
323.151	8.84917
324.942	8.75173
326.733	8.69556
328.521	8.31848
330.31	8.4868
332.1	8.21515
333.889	8.52648
335.677	8.99218
337.464	9.19607
339.252	9.12575
341.039	9.41758
342.826	9.46081
344.611	9.89485
346.398	9.60412
348.184	9.57657
349.97	9.05406
351.754	9.48312
353.539	9.57313
355.324	9.05717
357.106	7.80717
358.89	8.75192
360.674	8.52907
362.455	8.83871
364.239	9.2118
366.021	8.37801
367.804	8.82761
369.584	9.18276
371.366	8.02644
373.145	7.48776
374.926	7.61549
376.707	8.23083
378.485	7.33831
380.265	6.90924
382.045	6.47893
383.822	7.33077
385.601	7.61372
387.378	7.66793
389.156	6.58401
390.934	6.9131
392.71	6.76565
394.487	7.62433
396.262	8.73737
398.038	9.1871
399.813	9.28614
401.588	9.27602
403.362	8.91423
405.137	8.31862
406.912	7.69411
408.685	8.49146
410.459	7.35339
412.23	6.67037
414.004	7.26715
415.775	7.26171
417.548	7.73981
419.318	8.11154
421.089	8.4041
422.86	8.18141
424.63	8.74162
426.401	8.17886
428.17	7.72792
429.94	9.22486
431.708	9.84086
433.478	9.9242
435.245	9.76544
437.012	9.69012
438.781	10.9141
440.547	11.2256
442.315	11.2275
444.081	12.3124
445.846	12.8588
447.613	12.8988
449.378	12.8
451.142	13.3888
452.908	12.8272
454.672	12.6778
456.435	13.0801
458.2	13.8271
459.963	14.25
461.725	14.9702
463.489	15.3557
465.251	16.4043
467.012	17.2946
468.775	18.8286
470.536	19.0725
472.296	20.0235
474.056	20.2956
475.817	19.6867
477.576	19.6413
479.335	20.8588
481.094	21.5721
482.854	22.7978
484.612	22.9334
486.37	22.1392
488.127	21.256
489.886	20.7738
491.642	19.8392
493.398	20.2172
495.154	20.1285
496.91	20.6751
498.667	20.9392
500.422	22.0264
502.176	22.7248
503.93	21.6855
505.684	21.9667
507.438	21.2273
509.191	20.6001
510.946	20.8178
512.698	21.4274
514.45	21.2129
516.202	21.4242
517.954	21.8842
519.705	20.295
521.456	20.17
523.206	19.4026
524.956	19.7814
526.706	19.9444
528.456	19.03
530.207	19.4004
531.956	19.3978
533.704	18.4407
535.452	17.9533
537.2	19.3413
538.947	19.4994
540.694	19.2136
542.441	20.1931
544.188	20.0515
545.934	22.2473
547.68	23.2164
549.425	23.804
551.17	24.6078
552.915	24.4185
554.659	23.6322
556.403	22.8728
558.145	22.3573
559.889	22.3977
561.632	22.3294
563.375	21.2673
565.117	21.0208
566.859	19.7413
568.601	19.2136
570.342	19.2519
572.083	18.3086
573.824	16.6753
575.565	16.4283
577.303	15.5687
579.043	14.527
580.782	14.0672
582.521	13.501
584.26	13.3174
585.998	12.8172
587.734	12.0356
589.472	10.8349
591.21	9.55751
592.947	9.98127
594.684	10.1677
596.418	10.7499
598.154	11.8379
599.89	11.6828
601.626	11.5122
603.361	11.8838
605.094	12.018
606.828	12.0558
608.562	12.804
610.296	12.7883
612.027	13.4465
613.761	13.3486
615.493	13.6797
617.224	14.4627
618.956	14.7597
620.688	15.256
622.419	14.9599
624.149	16.4483
625.879	17.2118
627.61	17.8136
629.338	18.7998
631.068	20.0019
632.797	21.2832
634.525	20.9376
636.254	21.8365
637.98	21.1272
639.708	21.0686
641.436	22.0058
643.162	22.7286
644.889	23.109
646.614	22.8993
648.34	23.5413
650.067	23.5402
651.791	24.4765
653.516	23.8233
655.239	24.9981
656.964	24.4632
658.687	24.0004
660.411	23.8704
662.133	24.5836
663.857	23.8079
665.58	23.916
667.301	23.9987
669.024	24.6558
670.744	25.062
672.464	26.8813
674.186	27.5588
675.905	27.5928
677.626	29.7896
679.345	31.7823
681.065	32.8
682.783	33.8724
684.503	35.3135
686.22	35.9258
687.939	36.9219
689.656	38.263
691.372	38.7736
693.09	40.0424
694.806	41.2186
696.523	41.7053
698.239	42.8063
699.953	42.6863
701.67	44.1834
703.384	45.3541
705.098	44.9074
706.813	45.6854
708.526	46.2814
710.239	48.6031
711.954	48.9261
713.666	49.5234
715.378	50.6324
717.091	51.3668
718.802	51.3281
720.513	51.7793
722.226	52.6934
723.936	52.1059
725.646	53.2395
727.355	53.4693
729.067	52.6987
730.776	53.6228
732.484	53.5562
734.192	53.7211
735.902	53.1537
737.61	52.2988
739.317	51.5134
741.024	51.2876
742.731	51.7352
744.439	52.6487
746.145	52.3067
747.851	51.8513
749.556	51.5024
751.262	52.5429
752.966	53.4317
754.673	54.4324
756.377	55.4566
758.081	55.0666
759.784	54.4996
761.487	55.0715
763.19	57.4464
764.892	58.2368
766.594	59.4304
768.296	61.086
770	62.6038
771.701	62.6386
773.402	62.8344
775.102	64.4907
776.803	65.3013
778.503	67.1332
780.202	68.0141
781.901	69.1603
783.6	70.8778
785.299	71.7867
786.997	74.6125
788.695	74.6677
790.393	74.8109
792.09	76.139
793.787	76.2269
795.484	77.2003
797.18	77.6152
798.877	77.974
800.572	78.0726
802.268	78.6217
803.963	78.3672
805.658	79.2252
807.35	80.3577
809.044	80.547
810.738	82.1701
812.432	81.5316
814.125	80.894
815.818	81.2156
817.51	80.5556
819.202	81.3144
820.894	82.1999
822.584	82.3386
824.275	82.7205
825.966	82.6015
827.657	84.1083
829.347	83.4676
831.037	83.3074
832.725	82.8167
834.414	82.6905
836.103	82.0925
837.792	80.2838
839.481	79.1306
841.167	77.6043
842.854	75.6103
844.542	75.8849
846.229	76.1887
847.914	76.0482
849.6	74.6355
851.287	73.0163
852.973	72.063
854.656	69.9915
856.341	68.2624
858.026	66.7062
859.711	65.7312
861.393	64.6752
863.077	63.9848
864.761	63.1994
866.442	61.8793
868.125	60.7647
869.808	60.3288
871.489	58.6629
873.171	56.6688
874.85	55.6685
876.532	54.6564
878.213	54.3251
879.892	53.6974
881.572	52.888
883.251	51.8486
884.931	51.3898
886.61	52.1615
888.287	51.4691
889.966	51.5752
891.643	51.7814
893.321	51.4678
894.997	51.5826
896.675	50.4517
898.352	50.408
900.028	52.4385
901.704	53.0476
903.379	54.3418
905.055	55.0619
906.729	55.4931
908.404	56.0297
910.077	56.5582
911.75	57.3063
913.425	58.3183
915.097	58.2282
916.771	58.8541
918.443	58.6772
920.116	58.4778
921.787	58.3614
923.46	58.7776
925.13	58.5187
926.8	58.9255
928.472	59.6076
930.141	59.3325
931.813	57.6071
933.481	56.8818
935.15	56.8156
936.82	56.3717
938.488	55.587
940.156	55.9426
941.825	54.19
943.492	54.3591
945.158	54.4287
946.827	53.1289
948.493	52.3366
950.158	50.8713
951.824	49.823
953.491	49.1497
955.156	47.9244
956.82	46.4642
958.486	44.7193
960.15	43.2863
961.814	41.9017
963.477	40.3517
965.142	39.9653
966.804	38.5448
968.467	37.9816
970.129	37.2184
971.79	35.9991
973.454	35.1022
975.115	34.9077
976.776	33.8494
978.436	32.9361
980.096	31.8889
981.756	31.5632
983.417	32.8819
985.077	32.7851
986.736	32.6893
988.394	31.8925
990.052	31.5216
991.71	30.5987
993.368	30.8886
995.025	31.1082
996.682	31.0344
998.341	30.4751
999.998	30.3864
1001.65	29.1692
1003.31	28.7422
1004.97	29.0942
1006.62	29.54
1008.28	29.9305
1009.93	30.5619
1011.58	31.5679
1013.24	31.5043
1014.89	32.0177
1016.54	33.5516
1018.2	34.3962
1019.85	34.7648
1021.5	35.49
1023.16	35.2013
1024.81	35.0163
1026.46	35.8045
1028.11	35.1042
1029.76	34.5334
1031.41	33.951
1033.06	34.0569
1034.71	34.3638
1036.36	34.8259
1038.01	34.504
1039.66	33.3205
1041.31	33.3799
1042.95	33.0508
1044.6	34.2084
1046.25	34.414
1047.9	34.6736
1049.54	34.5389
1051.19	35.2843
1052.84	35.8099
1054.48	35.4074
1056.13	34.7211
1057.77	34.5033
1059.42	33.5124
1061.06	32.8169
1062.71	32.0159
1064.35	31.096
1066	31.3899
1067.64	29.2365
1069.28	27.4917
1070.93	26.7157
1072.57	25.9204
1074.21	24.4739
1075.85	24.738
1077.49	23.7435
1079.13	23.6816
1080.78	23.4544
1082.42	22.7588
1084.06	21.983
1085.7	21.9418
1087.34	22.6145
1088.97	22.5158
1090.61	22.2928
1092.25	22.6828
1093.89	22.4961
1095.53	22.0841
1097.17	22.6578
1098.8	21.8155
1100.44	20.5587
1102.08	19.2073
1103.71	18.7889
1105.35	18.4986
1106.99	17.716
1108.62	16.6045
1110.26	16.4329
1111.89	16.5292
1113.52	15.6754
1115.16	15.9407
1116.79	15.4062
1118.43	14.8183
1120.06	14.2582
1121.69	14.0977
1123.32	14.9469
1124.96	16.4263
1126.59	17.2947
1128.22	16.1934
1129.85	16.2414
1131.48	15.7334
1133.11	15.5025
1134.75	14.4205
1136.37	13.2048
1138	13.2763
1139.63	13.0796
1141.26	12.7877
1142.89	12.6246
1144.52	12.2178
1146.15	11.317
1147.78	11.7835
1149.4	10.5815
1151.03	11.5247
1152.66	11.5638
1154.28	10.286
1155.91	9.80784
1157.54	9.61302
1159.16	8.65746
1160.79	8.24031
1162.41	7.68383
1164.04	7.59461
1165.66	7.62145
1167.29	7.779
1168.91	7.0902
1170.53	6.67944
1172.16	6.33437
1173.78	5.70072
1175.4	5.52739
1177.02	4.8193
1178.65	4.58315
1180.27	3.53138
1181.89	3.34888
1183.51	3.76481
1185.13	4.13633
1186.75	3.77421
1188.37	2.6083
1189.99	3.36888
1191.61	3.67445
1193.23	3.49439
1194.85	3.13085
1196.47	3.60625
1198.08	3.45938
1199.7	3.82948
1201.32	4.4753
1202.94	5.70945
1204.55	7.21354
1206.17	7.45184
1207.79	7.23969
1209.4	8.84989
1211.02	9.46166
1212.63	10.8548
1214.25	12.2926
1215.86	13.5819
1217.48	14.9435
1219.09	17.0766
1220.71	18.2476
1222.32	19.0437
1223.93	20.8529
1225.54	21.746
1227.16	23.4412
1228.77	25.7906
1230.38	27.1252
1231.99	28.3713
1233.6	28.6361
1235.22	28.74
1236.83	30.5154
1238.44	31.8517
1240.05	33.5351
1241.66	34.4513
1243.26	35.8086
1244.87	37.0752
1246.48	37.3582
1248.09	37.2556
1249.7	37.9899
1251.31	38.7641
1252.92	39.1767
1254.52	39.776
1256.13	41.2742
1257.74	41.099
1259.34	42.2764
1260.95	43.0527
1262.55	43.1976
1264.16	43.054
1265.76	43.1131
1267.37	42.8326
1268.97	43.699
1270.58	44.1668
1272.18	43.5615
1273.78	43.2655
1275.39	43.1487
1276.99	43.0925
1278.59	43.8015
1280.2	44.3779
1281.8	44.2933
1283.4	45.5586
1285	45.4325
1286.6	46.136
1288.2	47.6305
1289.8	48.9174
1291.4	49.8026
1293	50.5629
1294.6	50.6581
1296.2	51.1603
1297.8	52.1403
1299.4	53.4121
1301	53.9032
1302.6	54.6199
1304.19	56.4281
1305.79	56.6245
1307.39	57.2526
1308.99	57.442
1310.58	57.6446
1312.18	58.242
1313.77	57.8791
1315.37	58.0145
1316.96	58.1877
1318.56	57.8065
1320.15	56.6632
1321.75	56.2487
1323.34	56.3302
1324.94	55.6966
1326.53	54.3857
1328.12	53.5312
1329.72	53.2713
1331.31	52.2689
1332.9	51.4592
1334.49	50.7997
1336.08	50.0774
1337.67	48.9207
1339.27	48.1366
1340.86	47.0399
1342.45	44.7843
1344.04	44.1254
1345.63	43.1319
1347.22	41.697
1348.8	41.1752
1350.39	39.683
1351.98	38.6572
1353.57	37.2973
1355.16	36.656
1356.75	35.3827
1358.33	34.4899
1359.92	33.2055
1361.51	32.6903
1363.09	32.8676
1364.68	32.0361
1366.27	32.1744
1367.85	31.8043
1369.44	31.693
1371.02	30.8266
1372.61	29.3756
1374.19	29.4392
1375.77	29.3403
1377.36	29.4639
1378.94	29.5688
1380.52	29.4201
1382.11	29.8923
1383.69	29.6762
1385.27	29.108
1386.85	28.7128
1388.43	28.8224
1390.02	28.5913
1391.6	27.4404
1393.18	26.9628
1394.76	27.0938
1396.34	26.7161
1397.92	26.1279
1399.5	26.1985
1401.08	26.3657
1402.65	26.9962
1404.23	26.7717
1405.81	27.1946
1407.39	27.0598
1408.97	27.8097
1410.54	28.3085
1412.12	28.2472
1413.7	29.1208
1415.27	30.7761
1416.85	32.3027
1418.43	33.5556
1420	34.9772
1421.58	35.6255
1423.15	37.723
1424.73	38.6786
1426.3	40.2641
1427.87	42.4526
1429.45	44.1022
1431.02	44.9576
1432.6	46.5293
1434.17	48.9017
1435.74	50.5288
1437.31	51.4626
1438.89	52.3745
1440.46	53.3677
1442.03	53.8827
1443.6	55.2554
1445.17	55.9135
1446.74	57.4043
1448.31	57.8499
1449.88	57.4421
1451.45	57.79
1453.02	58.7008
1454.59	57.6175
1456.16	57.4916
1457.72	57.0977
1459.29	56.3477
1460.86	55.5708
1462.43	53.4627
1463.99	51.5447
1465.56	50.3663
1467.13	49.316
1468.69	48.9156
1470.26	47.2747
1471.83	46.3737
1473.39	44.5023
1474.95	43.1831
1476.52	41.6708
1478.08	41.0721
1479.65	39.7417
1481.21	38.6861
1482.78	36.458
1484.34	34.5989
1485.9	32.4326
1487.47	31.0604
1489.03	29.7309
1490.59	28.3928
1492.15	28.467
1493.71	28.0041
1495.27	26.8941
1496.84	25.4923
1498.39	24.4878
1499.96	23.6586
1501.52	23.2076
1503.07	22.1677
1504.64	22.1052
1506.19	21.6944
1507.75	21.1053
1509.31	20.7557
1510.87	20.4551
1512.43	19.839
1513.98	18.8458
1515.54	17.7235
1517.1	17.5754
1518.65	17.591
1520.21	17.7474
1521.77	17.536
1523.32	17.1152
1524.88	17.2013
1526.44	16.1937
1527.99	16.074
1529.54	16.2766
1531.1	15.7829
1532.65	14.4077
1534.21	14.6585
1535.76	14.7054
1537.31	14.6644
1538.87	14.633
1540.42	15.149
1541.97	15.903
1543.52	17.2448
1545.07	18.3406
1546.63	18.6797
1548.18	18.5886
1549.73	19.7639
1551.28	20.2104
1552.83	20.8626
1554.38	21.6644
1555.93	22.5043
1557.48	22.2532
1559.03	21.802
1560.57	22.3764
1562.12	22.7436
1563.67	24.3913
1565.22	25.596
1566.77	27.2375
1568.31	28.7323
1569.86	29.2439
1571.41	29.7899
1572.95	30.2892
1574.5	30.8105
1576.05	31.7694
1577.59	32.8731
1579.14	34.2405
1580.68	35.6888
1582.23	36.9996
1583.77	37.6883
1585.31	38.7524
1586.86	39.568
1588.4	39.8801
1589.95	40.6598
1591.49	41.2987
1593.03	42.3284
1594.57	42.9706
1596.11	43.2091
1597.66	43.6321
1599.2	42.76
1600.74	42.9032
1602.28	42.8396
1603.82	42.3763
1605.36	42.5086
1606.9	42.6716
1608.44	42.3903
1609.98	42.8879
1611.52	42.7399
1613.06	42.4864
1614.6	42.7513
1616.13	43.0721
1617.67	43.5803
1619.21	43.0773
1620.75	43.3337
1622.28	43.7351
1623.82	43.7835
1625.36	44.6174
1626.89	44.5782
1628.43	44.7783
1629.96	45.0106
1631.5	45.4351
1633.04	45.4699
1634.57	45.608
1636.11	46.6359
1637.64	48.3658
1639.17	49.199
1640.71	50.3242
1642.24	50.8637
1643.77	51.0873
1645.31	50.6441
1646.84	50.349
1648.37	50.9843
1649.9	51.4325
1651.43	51.8426
1652.96	52.2923
1654.5	52.3117
1656.03	52.6138
1657.56	52.4577
1659.09	51.6497
1660.62	51.1775
1662.15	50.4113
1663.67	49.7075
1665.2	48.9037
1666.73	47.975
1668.26	46.9301
1669.79	45.262
1671.32	42.2157
1672.84	40.7529
1674.37	39.1813
1675.9	37.2337
1677.43	35.9039
1678.95	34.7091
1680.48	33.0685
1682	31.8359
1683.53	30.3421
1685.05	28.5691
1686.58	26.7317
1688.1	24.572
1689.63	22.8581
1691.15	21.4282
1692.68	19.6375
1694.2	18.2699
1695.72	16.3713
1697.25	15.1987
1698.77	14.346
1700.29	13.4591
1701.81	12.2238
1703.33	11.4443
1704.86	11.2398
1706.38	10.5726
1707.9	10.4571
1709.42	10.2947
1710.94	9.79727
1712.46	10.3977
1713.98	10.3986
1715.5	9.63907
1717.02	9.23698
1718.54	9.3458
1720.06	8.7816
1721.57	8.72299
1723.09	8.86515
1724.61	9.03647
1726.13	9.35737
1727.64	10.0429
1729.16	10.1135
1730.68	10.4273
1732.19	10.6789
1733.71	10.0678
1735.23	9.78632
1736.74	9.81375
1738.26	9.88111
1739.77	9.70075
1741.29	9.48596
1742.8	9.19806
1744.31	9.01812
1745.83	8.50832
1747.34	8.49895
1748.85	9.84091
1750.37	9.6941
1751.88	9.05651
1753.39	9.10634
1754.91	9.60449
1756.42	9.42217
1757.93	8.91537
1759.44	8.56139
1760.95	8.32032
1762.46	7.22603
1763.97	6.72092
1765.48	6.1286
1766.99	5.6852
1768.5	5.71182
1770.01	5.36577
1771.52	4.90677
1773.03	4.59042
1774.54	4.49926
1776.04	4.20203
1777.55	3.92614
1779.06	4.30211
1780.57	4.0327
1782.07	3.91037
1783.58	3.7533
1785.09	3.81837
1786.59	3.43508
1788.1	3.73797
1789.6	3.7362
1791.11	3.28408
1792.61	3.54856
1794.12	3.45154
1795.62	2.82342
1797.13	2.70638
1798.63	2.23473
1800.13	2.39183
1801.64	2.41906
1803.14	1.88671
1804.64	1.12731
1806.15	0.935675
1807.65	0.789737
1809.15	0.580391
1810.65	0.414906
1812.15	0.183437
1813.65	0.379885
1815.16	0.269279
1816.66	0.739372
1818.15	0.863804
1819.66	1.23762
1821.16	1.24689
1822.65	1.43279
1824.15	1.59305
1825.65	1.52119
1827.15	1.06408
1828.65	1.25876
1830.15	1.50082
1831.64	1.06414
1833.14	1.14751
1834.64	1.19667
1836.14	1.47138
1837.63	0.981991
1839.13	1.23403
1840.62	1.52388
1842.12	1.44466
1843.62	1.23438
1845.11	1.12847
1846.61	1.32255
1848.1	1.63864
1849.6	2.1253
1851.09	2.78558
1852.58	2.58437
1854.08	3.10238
1855.57	3.1839
1857.06	3.57308
1858.55	4.13745
1860.05	4.27156
1861.54	4.17393
1863.03	4.34224
1864.52	4.68756
1866.01	4.25055
1867.5	4.40358
1869	4.56886
1870.49	5.38846
1871.98	5.74434
1873.47	5.45451
1874.96	5.13552
1876.44	5.34859
1877.93	4.49119
1879.42	4.64512
1880.91	4.72567
1882.4	5.0018
1882.47	5.29981
1883.96	5.47903
1885.46	5.60316
1886.95	5.62928
1888.44	5.78406
1889.94	5.92
1891.43	5.9716
1892.93	5.42921
1894.42	5.13597
1895.91	4.73654
1897.4	4.26704
1898.89	4.77309
1900.39	4.27197
1901.88	4.5268
1903.37	4.73689
1904.86	5.16929
1906.35	5.72515
1907.84	5.83863
1909.33	6.37778
1910.82	5.7557
1912.31	5.93797
1913.8	6.55588
1915.29	6.18658
1916.77	6.08016
1918.26	5.76665
1919.75	5.82155
1921.24	5.40768
1922.73	4.60844
1924.21	5.00299
1925.7	5.38534
1927.19	5.61334
1928.67	5.34431
1930.16	5.34907
1931.64	5.2862
1933.13	4.95011
1934.61	4.95501
1936.1	5.19183
1937.58	5.18648
1939.07	5.08632
1940.55	4.98845
1942.04	5.52118
1943.52	5.41067
1945	4.51537
1946.49	3.91311
1947.97	3.56913
1949.45	3.53171
1950.93	2.84248
1952.42	3.66196
1953.9	3.76381
1955.38	4.05529
1956.86	3.73782
1958.34	3.3123
1959.82	3.37871
1961.3	3.75905
1962.78	4.03926
1964.26	3.61848
1965.74	4.12121
1967.22	3.93512
1968.7	5.03862
1970.18	5.60973
1971.65	6.00391
1973.13	6.80881
1974.61	6.9108
1976.09	7.42713
1977.57	7.8103
1979.04	7.89695
1980.52	8.30175
1982	8.07941
1983.47	8.33135
1984.95	7.50076
1986.42	8.04878
1987.9	8.04456
1989.37	7.74971
1990.85	7.74344
1992.32	7.51938
1993.8	7.40444
1995.27	7.15268
1996.75	7.45173
1998.22	8.02918
1999.69	7.95416
2001.17	7.18524
2002.64	7.17206
2004.11	7.79095
2005.58	7.30404
2007.05	7.28276
2008.53	6.59856
2010	6.03434
2011.47	5.51708
2012.94	4.56677
2014.41	4.43457
2015.88	4.6387
2017.35	4.27412
2018.82	4.17372
2020.29	3.6357
2021.76	3.32692
2023.23	3.42838
2024.7	2.83476
2026.16	2.98527
2027.63	3.17173
2029.1	3.1091
2030.57	2.6
2032.03	2.90979
2033.5	2.8113
2034.97	2.97279
2036.44	3.38161
2037.9	3.46446
2039.37	3.67743
2040.83	3.42823
2042.3	3.79594
2043.76	3.88172
2045.23	4.57791
2046.69	5.25422
2048.16	6.03199
2049.62	6.06755
2051.08	6.71609
2052.55	6.6794
2054.01	7.86817
2055.47	7.7798
2056.94	9.01951
2058.4	8.62668
2059.86	9.40198
2061.32	9.61963
2062.79	10.0531
2064.25	10.2502
2065.71	10.1813
2067.17	10.6309
2068.63	10.796
2070.09	10.7676
2071.55	10.9139
2073.01	11.6277
2074.47	11.9369
2075.93	12.8135
2077.39	13.5524
2078.85	13.199
2080.31	13.7999
2081.76	14.0878
2083.22	14.5748
2084.68	14.8895
2086.13	15.2657
2087.59	16.1829
2089.05	16.912
2090.51	16.9096
2091.96	17.0332
2093.42	16.8818
2094.87	17.4021
2096.33	18.4717
2097.78	18.9366
2099.24	19.9839
2100.69	20.6478
2102.15	20.8809
2103.6	21.524
2105.06	22.3572
2106.51	22.9172
2107.96	24.2054
2109.42	25.3036
2110.87	26.3114
2112.32	27.4527
2113.77	29.317
2115.23	30.8635
2116.68	32.2076
2118.13	33.185
2119.58	33.7505
2121.03	34.7276
2122.48	35.2084
2123.93	36.1186
2125.38	36.4848
2126.83	38.3444
2128.28	39.2205
2129.73	40.5164
2131.18	41.1461
2132.63	42.2784
2134.08	43.5689
2135.53	45.207
2136.97	46.4301
2138.42	47.1806
2139.87	48.7724
