#Acq. time (s)=	45
#Accumulations=	2
#Range (cm-¹)=	200...3150
#Windows=	2
#Auto scanning=	Off
#Autofocus=	Off
#Macrospot=	Off
#AutoExposure=	Off
#Spike filter=	Multiple accum.
#Delay time (s)=	0
#Binning=	1
#Readout mode=	Signal
#DeNoise=	Off
#ICS correction=	On
#Dark correction=	Off
#Inst. Process=	Off
#Detector Gain=	Best Dynamic Range
#Detector ADC=	20 kHz       
#Detector temperature (°C)=	-69.85
#Instrument=	LabRAM HR Evol
#Detector=	Synapse
#Objective=	x100
#Grating=	600 gr/mm
#ND Filter=	100%
#Laser (nm)=	532 
#Hole=	100.021
#Range=	Auto
#Laser Pol.=	No
#Raman. Pol.=	No
#Laser Pol. (°)=	-0.0007625
#Raman Pol. (°)=	89.9995
#Collection=	Microscope
#StageXY=	Marzhauser
#StageZ=	Marzhauser
#X (µm)=	-1055
#Y (µm)=	624.9
#Z (µm)=	584.35
#Full time(mm:ss)=	3:18
#Project=	
#Sample=	
#Site=	
#Title=	Mb_40_y_18_2x_45s_532 nm_x100_100%_600 gr_mm
#Remark=	
#Date=	19.07.2022 10:28
#Acquired=	19.07.2022 10:28:31
#Base:Fit=	10.08.2022 10:52:48
#Base:Sub=	10.08.2022 10:52:53
#Filter:Polynom=	16.08.2022 10:09:04
#AxisType[0]=Intens
#AxisUnit[0]=Cnt
#AxisType[1]=Spectr
#AxisUnit[1]=1/cm
200.423	39.5347
202.238	36.2808
204.052	34.4222
205.868	31.5612
207.682	29.3233
209.495	27.9854
211.308	26.232
213.12	24.2711
214.935	22.9506
216.746	20.4501
218.558	18.5603
220.369	16.8509
222.18	14.4366
223.992	14.2809
225.802	12.901
227.612	13.0669
229.421	12.1119
231.23	11.8561
233.039	11.1622
234.849	10.5656
236.657	9.26582
238.465	7.73829
240.272	7.66293
242.079	7.35978
243.885	6.70727
245.691	6.54062
247.497	5.09081
249.305	4.81334
251.11	3.70637
252.915	2.88244
254.719	2.37664
256.523	3.45244
258.327	4.50385
260.13	4.65105
261.933	4.50164
263.736	4.40226
265.538	4.60916
267.34	4.04278
269.141	4.65364
270.943	3.84461
272.744	4.5621
274.544	4.51992
276.344	5.00612
278.144	6.06659
279.944	5.83979
281.743	4.87179
283.542	6.37964
285.34	7.19287
287.138	7.64603
288.936	8.95746
290.733	8.18398
292.53	8.38769
294.327	8.39852
296.123	8.97979
297.919	9.0723
299.715	7.80297
301.508	7.27462
303.303	7.45791
305.098	8.37327
306.892	8.31384
308.686	8.98807
310.479	9.2552
312.273	10.1063
314.065	11.7131
315.858	11.6138
317.648	12.139
319.44	12.3197
321.231	12.3197
323.022	11.9364
324.813	11.5417
326.604	11.5413
328.392	11.8383
330.181	12.0871
331.971	11.6211
333.76	11.3732
335.548	10.9991
337.335	10.3719
339.123	10.065
340.91	9.10668
342.698	8.36697
344.483	8.85919
346.269	8.31587
348.055	7.94884
349.841	7.07311
351.625	6.77207
353.41	6.14083
355.195	5.84156
356.977	5.16914
358.762	5.63581
360.545	4.75158
362.329	4.505
364.11	3.78857
365.893	3.43079
367.675	2.40537
369.455	1.80122
371.237	2.13388
373.017	3.47856
374.798	2.12051
376.578	0.924421
378.357	1.02243
380.137	-0.230002
381.917	0.744688
383.694	1.12772
385.473	1.37331
387.249	2.10675
389.028	2.55519
390.806	3.19263
392.581	3.82393
394.359	4.40239
396.134	2.85202
397.91	3.42526
399.684	4.28181
401.46	4.81664
403.234	5.50624
405.009	5.26382
406.784	6.05895
408.557	7.30141
410.331	7.05504
412.103	7.84846
413.876	8.69812
415.647	9.23609
417.42	9.94592
419.191	9.57812
420.961	9.83728
422.733	10.8766
424.502	10.5515
426.273	10.1791
428.042	9.80434
429.812	9.45771
431.58	8.42512
433.35	8.0163
435.118	7.89775
436.885	8.5927
438.653	7.54428
440.42	7.95379
442.188	7.37342
443.954	7.7039
445.719	8.5688
447.486	8.78808
449.251	8.24494
451.015	8.50639
452.781	9.23485
454.545	9.55009
456.308	9.4711
458.073	10.4041
459.836	11.1406
461.598	11.0039
463.362	11.4807
465.124	13.0073
466.885	14.2175
468.648	13.8212
470.408	14.6408
472.169	15.3983
473.929	15.6849
475.69	16.1796
477.45	16.411
479.208	16.5298
480.967	16.3299
482.727	16.9959
484.485	16.7538
486.243	18.6325
488	18.5616
489.759	19.6049
491.515	20.7534
493.272	21.7837
495.028	23.2974
496.783	23.5863
498.54	25.005
500.295	27.0211
502.05	27.6092
503.804	27.8138
505.558	28.9755
507.311	28.1046
509.064	29.1769
510.819	29.9177
512.572	29.4879
514.324	29.3623
516.076	29.3538
517.827	29.2486
519.578	30.2817
521.329	30.5108
523.08	31.3376
524.83	31.1003
526.58	30.0287
528.329	30.3703
530.08	28.406
531.829	27.791
533.578	27.2797
535.326	26.4076
537.074	25.2996
538.821	24.4916
540.568	24.0524
542.315	22.5479
544.062	21.8749
545.808	21.4637
547.554	20.1647
549.299	17.8551
551.044	16.9319
552.789	15.663
554.533	14.3348
556.278	13.4823
558.019	14.3757
559.763	13.2901
561.506	12.6231
563.249	11.7969
564.991	10.44
566.733	9.18405
568.475	8.74105
570.217	7.90845
571.958	6.50587
573.699	4.97363
575.439	5.02089
577.177	5.01405
578.917	5.002
580.656	4.97716
582.396	5.55618
584.134	6.26041
585.873	7.836
587.609	7.99387
589.347	7.41686
591.084	7.81711
592.822	7.73099
594.558	7.63882
596.295	8.76728
598.029	9.22398
599.765	10.3678
601.5	11.2753
603.235	11.4476
604.968	12.9353
606.703	13.533
608.437	12.8335
610.171	12.2027
611.902	11.9334
613.635	11.3617
615.368	11.0306
617.099	11.1263
618.831	12.3018
620.563	13.8856
622.294	13.9109
624.024	13.7401
625.755	13.6376
627.485	13.6993
629.213	13.1408
630.943	13.1547
632.673	12.8375
634.4	12.5962
636.129	12.3117
637.855	13.793
639.584	13.815
641.312	13.9487
643.037	14.174
644.764	14.191
646.491	13.4807
648.216	13.7585
649.942	13.8839
651.666	13.3677
653.392	12.7123
655.115	12.2888
656.84	11.0528
658.563	10.542
660.287	10.2689
662.011	12.5362
663.732	12.0507
665.456	12.3691
667.177	12.9813
668.899	13.9955
670.62	13.7182
672.342	13.989
674.061	14.9092
675.781	15.0921
677.502	16.7122
679.22	17.1029
680.941	19.185
682.659	20.9764
684.379	22.9084
686.096	24.641
687.815	24.7676
689.532	25.2991
691.248	26.9436
692.966	27.7334
694.682	28.7423
696.4	30.345
698.115	31.3655
699.829	32.816
701.546	34.9627
703.26	37.5593
704.974	39.3589
706.689	40.5163
708.402	41.0617
710.115	40.7346
711.83	41.7446
713.542	42.4984
715.254	43.3032
716.967	43.6075
718.679	44.3764
720.39	45.9161
722.102	45.9131
723.812	46.8134
725.522	46.1893
727.232	48.1731
728.943	49.3101
730.652	49.6941
732.361	50.6136
734.069	51.0653
735.779	50.7628
737.487	49.9282
739.194	49.9918
740.901	50.7339
742.608	51.3648
744.316	51.9963
746.022	51.9589
747.728	52.6228
749.433	52.1357
751.138	53.2026
752.843	54.1896
754.549	54.7931
756.254	55.412
757.957	56.8264
759.661	58.2586
761.364	59.1993
763.067	60.5449
764.769	61.2132
766.471	63.3552
768.175	65.2464
769.877	66.1067
771.578	66.0949
773.279	67.396
774.98	69.7013
776.68	71.0714
778.38	72.2402
780.079	73.0317
781.779	73.484
783.478	74.3328
785.176	76.9866
786.875	78.1342
788.573	79.9651
790.27	80.5565
791.968	81.3623
793.665	81.61
795.361	82.1526
797.058	83.6465
798.754	83.9532
800.45	84.3158
802.145	84.104
803.84	84.746
805.535	84.6413
807.23	83.8739
808.922	84.7867
810.616	84.693
812.309	85.3493
814.002	83.9907
815.695	83.8613
817.388	83.0362
819.08	81.9779
820.772	80.4048
822.464	79.2454
824.153	78.5882
825.844	77.4219
827.535	75.5813
829.225	73.128
830.915	71.1905
832.605	70.5941
834.292	68.6765
835.981	66.751
837.67	64.5336
839.359	63.4535
841.047	61.8035
842.732	60.425
844.42	59.7595
846.107	58.2318
847.794	56.7967
849.479	55.2756
851.165	53.8796
852.851	53.2947
854.534	51.4687
856.22	50.6644
857.905	51.3146
859.589	49.8859
861.272	48.8962
862.956	48.3907
864.639	48.4118
866.321	48.334
868.004	49.8021
869.687	50.6508
871.367	50.5691
873.049	51.7384
874.731	51.2136
876.41	52.0808
878.092	52.1664
879.771	52.3635
881.451	52.2977
883.131	52.328
884.809	52.0399
886.489	52.707
888.166	52.9835
889.845	52.023
891.522	52.8097
893.2	52.9905
894.878	52.5042
896.554	53.2192
898.231	53.1659
899.906	53.7036
901.583	52.5968
903.258	52.5784
904.934	52.491
906.608	52.4716
908.283	52.6076
909.956	52.2861
911.631	51.6075
913.304	51.5206
914.976	51.9708
916.65	52.0794
918.322	51.1481
919.995	51.4142
921.666	51.0075
923.339	51.0044
925.009	49.9209
926.679	50.1272
928.351	49.9528
930.021	49.5968
931.692	48.4649
933.361	47.9642
935.029	48.6869
936.699	48.439
938.367	47.3026
940.035	46.7527
941.704	46.6186
943.371	45.0806
945.038	45.6103
946.706	46.3988
948.372	46.3643
950.038	46.5445
951.705	46.4154
953.37	44.9836
955.035	44.2157
956.7	43.3936
958.366	41.5716
960.03	40.736
961.693	38.6035
963.357	36.5268
965.021	36.0957
966.684	35.0363
968.346	34.1022
970.008	33.8049
971.67	32.9414
973.334	31.9644
974.995	32.5359
976.655	32.2304
978.316	31.8564
979.976	30.6465
981.638	29.3129
983.297	28.0782
984.957	26.6666
986.616	25.6916
988.274	26.0229
989.932	24.3397
991.59	23.1942
993.248	21.1415
994.907	19.7859
996.565	17.5182
998.221	15.3417
999.878	13.0711
1001.53	9.26865
1003.19	8.19852
1004.85	7.03476
1006.5	8.78282
1008.16	12.5195
1009.81	18.6714
1011.46	26.0762
1013.12	35.1568
1014.77	44.5423
1016.43	56.3551
1018.08	68.5657
1019.73	80.7393
1021.38	92.9656
1023.04	104.278
1024.69	115.877
1026.34	127.123
1027.99	139.387
1029.64	148.713
1031.29	156.051
1032.94	163.768
1034.59	170.248
1036.24	176.832
1037.89	182.431
1039.54	185.959
1041.19	188.798
1042.84	191.131
1044.48	192.812
1046.13	194.402
1047.78	195.74
1049.42	194.095
1051.07	192.254
1052.72	189.527
1054.36	186.137
1056.01	180.377
1057.66	174.45
1059.3	166.95
1060.94	158.532
1062.59	149.728
1064.23	141.107
1065.88	131.306
1067.52	120.6
1069.16	109.9
1070.81	98.6074
1072.45	85.9912
1074.09	74.6813
1075.73	62.3638
1077.38	51.9505
1079.02	41.6627
1080.66	31.8819
1082.3	23.762
1083.94	16.8752
1085.58	13.3553
1087.22	11.4536
1088.86	11.5971
1090.5	11.8831
1092.13	13.7247
1093.77	15.6371
1095.41	17.338
1097.05	19.8798
1098.68	21.2706
1100.32	23.6009
1101.96	24.7689
1103.6	25.4103
1105.23	26.754
1106.87	28.1938
1108.5	28.9886
1110.14	29.3348
1111.77	28.4547
1113.41	27.9727
1115.04	28.8994
1116.67	28.0483
1118.31	27.0691
1119.94	26.0252
1121.58	25.3974
1123.21	24.4391
1124.84	24.1974
1126.47	23.4102
1128.1	22.3582
1129.73	21.5178
1131.37	19.7022
1133	19.8092
1134.63	19.5865
1136.26	19.3007
1137.89	17.6489
1139.52	17.4017
1141.14	16.8065
1142.77	15.4632
1144.4	15.2277
1146.03	14.6071
1147.66	14.6266
1149.29	14.7647
1150.91	14.3846
1152.54	13.223
1154.17	12.7776
1155.79	11.3844
1157.42	10.8779
1159.04	10.352
1160.67	9.07159
1162.3	7.10682
1163.92	6.90931
1165.55	5.52479
1167.17	4.88523
1168.79	5.17465
1170.42	4.35598
1172.04	3.88835
1173.66	4.67451
1175.28	3.93139
1176.91	4.00068
1178.53	4.4114
1180.15	4.1793
1181.77	5.76306
1183.39	6.1258
1185.01	6.29048
1186.63	5.43357
1188.25	5.36054
1189.87	5.13368
1191.49	4.84184
1193.11	4.75392
1194.73	4.76926
1196.35	5.12797
1197.97	4.32117
1199.59	5.28499
1201.2	5.89806
1202.82	5.68787
1204.44	5.43637
1206.05	6.62468
1207.67	7.56529
1209.29	9.60225
1210.9	10.1406
1212.52	12.208
1214.13	14.1005
1215.75	15.6489
1217.36	17.5147
1218.97	18.7071
1220.59	20.3552
1222.2	21.432
1223.82	22.1733
1225.43	25.2135
1227.04	27.3193
1228.65	29.1473
1230.26	30.429
1231.88	30.6024
1233.49	31.6053
1235.1	32.8606
1236.71	33.6814
1238.32	35.599
1239.93	35.8224
1241.54	35.9321
1243.15	36.5497
1244.76	38.0483
1246.37	38.4907
1247.97	39.093
1249.58	38.6403
1251.19	39.7363
1252.8	40.3227
1254.41	41.0798
1256.01	42.4086
1257.62	43.5636
1259.23	45.2425
1260.83	46.4169
1262.44	48.0579
1264.04	48.7493
1265.65	49.2432
1267.25	49.8276
1268.86	52.0304
1270.46	52.7462
1272.07	53.6216
1273.67	54.1472
1275.27	54.3252
1276.88	54.55
1278.48	54.8618
1280.08	55.7224
1281.68	56.8133
1283.28	57.5509
1284.89	59.6023
1286.49	60.5492
1288.09	61.0267
1289.69	61.6689
1291.29	61.5126
1292.89	63.3619
1294.49	63.1514
1296.09	64.179
1297.69	64.4512
1299.29	64.5257
1300.88	64.6081
1302.48	65.854
1304.08	66.5562
1305.68	68.5673
1307.27	69.0564
1308.87	68.4478
1310.47	68.5595
1312.06	67.3992
1313.66	67.1982
1315.25	67.4542
1316.85	66.4585
1318.44	66.5091
1320.04	65.4084
1321.63	65.1365
1323.23	65.4632
1324.82	65.5834
1326.41	63.5574
1328.01	62.3704
1329.6	61.5654
1331.19	61.1683
1332.78	60.0512
1334.38	60.4534
1335.97	59.9779
1337.56	58.5823
1339.15	58.591
1340.74	58.4972
1342.33	57.6757
1343.92	57.4441
1345.51	56.5359
1347.1	55.755
1348.69	55.3133
1350.28	54.2439
1351.87	52.6542
1353.46	51.4886
1355.04	51.3909
1356.63	50.7678
1358.22	49.7774
1359.81	49.1479
1361.39	48.4767
1362.98	47.0163
1364.57	46.3355
1366.15	45.0149
1367.74	44.1664
1369.32	43.0748
1370.91	42.2508
1372.49	42.5416
1374.07	41.544
1375.66	41.0211
1377.24	40.6327
1378.83	41.1803
1380.41	41.6056
1381.99	42.4524
1383.57	42.4404
1385.16	43.4393
1386.74	42.6082
1388.32	43.0519
1389.9	43.6388
1391.48	43.9141
1393.06	45.0949
1394.64	45.929
1396.22	45.7621
1397.8	47.0424
1399.38	47.1066
1400.96	47.9578
1402.54	49.3112
1404.12	49.6994
1405.7	49.9643
1407.28	51.9788
1408.85	52.8014
1410.43	54.4193
1412.01	57.2773
1413.58	60.2789
1415.16	61.7485
1416.74	64.4728
1418.31	67.4112
1419.89	69.7757
1421.46	71.785
1423.04	74.3713
1424.61	76.4203
1426.19	78.0708
1427.76	80.3596
1429.33	82.6833
1430.91	84.4512
1432.48	87.2949
1434.05	89.7398
1435.63	90.1667
1437.2	91.0063
1438.77	92.1038
1440.34	92.9674
1441.91	93.2404
1443.49	94.7383
1445.05	94.977
1446.63	93.9174
1448.2	94.1049
1449.77	93.6201
1451.34	93.4093
1452.91	92.2368
1454.47	91.4802
1456.04	90.5761
1457.61	88.8076
1459.18	86.7828
1460.75	84.7492
1462.31	82.6377
1463.88	80.7301
1465.45	78.1545
1467.01	77.2642
1468.58	74.9389
1470.15	72.8602
1471.71	70.1218
1473.28	67.4153
1474.84	64.2279
1476.41	61.4771
1477.97	59.5834
1479.54	57.6114
1481.1	55.4474
1482.66	52.4827
1484.23	50.1395
1485.79	48.528
1487.35	46.2994
1488.91	44.8742
1490.48	42.7957
1492.04	40.3749
1493.6	38.306
1495.16	37.6268
1496.72	36.0875
1498.28	34.1665
1499.84	32.6171
1501.4	30.5908
1502.96	28.6968
1504.52	27.7631
1506.08	27.7093
1507.64	27.2362
1509.2	26.2106
1510.76	25.4455
1512.31	24.2099
1513.87	21.9171
1515.43	21.639
1516.99	21.2905
1518.54	21.7778
1520.1	20.8807
1521.66	22.0531
1523.21	21.1134
1524.77	20.7777
1526.32	21.0131
1527.88	20.4231
1529.43	20.5432
1530.99	20.7316
1532.54	20.1223
1534.09	19.9366
1535.65	20.3789
1537.2	21.2808
1538.75	21.9201
1540.31	21.9691
1541.86	23.097
1543.41	24.3775
1544.96	25.0097
1546.51	24.1242
1548.06	24.8375
1549.62	25.3805
1551.17	25.9924
1552.72	26.516
1554.27	27.4757
1555.82	28.9686
1557.36	28.8818
1558.91	29.1317
1560.46	29.1528
1562.01	30.5535
1563.56	31.8801
1565.11	32.6995
1566.66	33.7404
1568.2	34.2187
1569.75	34.7648
1571.3	36.6378
1572.84	37.5005
1574.39	38.6523
1575.93	39.0169
1577.48	40.5498
1579.02	41.3339
1580.57	43.4062
1582.11	45.1129
1583.66	45.3115
1585.2	46.528
1586.75	46.8905
1588.29	47.7157
1589.83	48.6756
1591.38	48.9503
1592.92	49.9204
1594.46	50.4197
1596	51.7686
1597.54	51.1513
1599.09	52.4433
1600.63	52.1143
1602.17	52.6136
1603.71	52.4083
1605.25	52.0541
1606.79	52.2478
1608.33	51.8652
1609.87	51.2135
1611.41	51.5019
1612.95	51.4212
1614.48	50.051
1616.02	49.0306
1617.56	48.2096
1619.1	48.7546
1620.64	49.0281
1622.17	47.8189
1623.71	48.0788
1625.25	49.3181
1626.78	49.561
1628.32	49.1842
1629.86	49.7054
1631.39	50.1789
1632.92	50.3783
1634.46	50.5754
1635.99	51.2235
1637.53	52.0131
1639.06	53.592
1640.59	53.0192
1642.13	54.1274
1643.66	54.8074
1645.19	54.884
1646.73	56.2839
1648.26	58.4389
1649.79	59.5902
1651.32	60.2354
1652.85	60.4616
1654.38	61.6178
1655.92	61.7307
1657.45	61.9659
1658.98	60.7485
1660.51	60.74
1662.04	61.1833
1663.57	60.1681
1665.09	60.0327
1666.62	59.1476
1668.15	58.3699
1669.68	57.8341
1671.21	57.1438
1672.73	56.1138
1674.26	54.0193
1675.79	52.7926
1677.31	50.9969
1678.84	49.6253
1680.37	47.2784
1681.89	44.75
1683.42	43.4001
1684.94	41.395
1686.47	39.4586
1687.99	37.0886
1689.52	34.1986
1691.04	32.2283
1692.57	30.6026
1694.09	28.3564
1695.61	26.995
1697.14	25.4502
1698.66	23.6412
1700.18	22.4702
1701.7	21.0506
1703.22	18.8511
1704.75	16.6723
1706.27	15.0544
1707.79	13.1961
1709.31	11.1383
1710.83	10.0318
1712.35	8.7579
1713.87	7.65226
1715.39	6.7457
1716.91	5.65361
1718.43	6.50869
1719.95	5.67337
1721.46	4.96276
1722.98	4.97092
1724.5	4.77193
1726.02	4.5738
1727.53	4.57749
1729.05	5.23275
1730.57	5.32436
1732.08	4.82585
1733.6	5.00656
1735.12	4.78526
1736.63	5.30043
1738.15	5.47923
1739.66	5.27998
1741.18	5.43657
1742.69	5.11798
1744.21	5.88996
1745.72	5.96269
1747.23	5.82087
1748.74	5.94263
1750.26	5.80281
1751.77	5.99923
1753.28	6.04795
1754.8	6.19968
1756.31	5.70315
1757.82	5.08763
1759.33	5.77624
1760.84	5.15652
1762.35	4.31654
1763.86	3.91798
1765.37	3.55715
1766.88	3.24026
1768.39	2.20594
1769.9	1.7611
1771.41	2.33826
1772.92	1.78233
1774.43	1.09916
1775.93	0.584879
1777.44	0.652009
1778.95	0.0463105
1780.46	0.0903283
1781.96	0.161374
1783.47	0.395963
1784.98	0.28269
1786.48	0.493111
1787.99	0.807999
1789.49	1.01442
1791	1.00727
1792.5	1.26462
1794.01	1.33293
1795.51	1.49859
1797.02	1.8337
1798.52	2.36864
1800.03	2.86131
1801.53	3.14268
1803.03	3.4154
1804.53	3.49805
1806.04	3.91748
1807.54	3.8957
1809.04	4.18177
1810.54	3.95579
1812.04	4.14139
1813.54	4.06884
1815.05	4.30742
1816.55	5.10814
1818.05	5.36652
1819.55	6.03436
1821.05	5.72132
1822.55	5.84888
1824.05	5.65561
1825.54	5.25648
1827.04	5.24838
1828.54	5.07462
1830.04	5.03121
1831.54	4.76226
1833.03	4.30219
1834.53	4.4609
1836.03	4.02325
1837.52	3.69917
1839.02	3.52537
1840.52	3.43758
1842.01	3.6081
1843.51	2.98808
1845	2.47909
1846.5	2.19126
1847.99	1.64086
1849.49	1.70209
1850.98	1.51691
1852.47	1.79595
1853.97	1.61246
1855.46	1.65038
1856.95	1.35352
1858.45	1.5419
1859.94	1.284
1861.43	1.53562
1862.92	1.93762
1864.41	1.76521
1865.91	1.77922
1867.4	2.15474
1868.89	2.4255
1870.38	3.16066
1871.87	2.86544
1873.36	2.97905
1874.85	3.59482
1876.34	3.71841
1877.83	3.59903
1879.31	3.36053
1880.8	3.27862
1882.29	3.00976
1882.56	2.77447
1884.05	3.00467
1885.54	2.78903
1887.04	3.52175
1888.53	4.31338
1890.03	4.87975
1891.52	4.42922
1893.01	4.59563
1894.5	3.77394
1895.99	3.94687
1897.49	3.51604
1898.98	3.58
1900.47	3.74741
1901.96	3.94105
1903.45	4.28917
1904.94	3.96636
1906.43	3.96305
1907.92	4.04644
1909.41	3.54032
1910.9	3.49188
1912.39	3.17467
1913.88	2.76979
1915.37	1.9478
1916.86	0.710147
1918.35	0.714095
1919.84	0.86842
1921.32	1.33788
1922.81	1.6705
1924.3	2.18017
1925.78	2.16932
1927.27	1.6307
1928.76	1.73162
1930.24	1.67794
1931.73	2.47904
1933.21	2.59651
1934.7	2.90829
1936.18	2.95261
1937.67	3.30375
1939.15	3.63734
1940.64	3.95742
1942.12	4.23895
1943.6	3.56038
1945.09	3.41717
1946.57	3.05077
1948.05	2.67517
1949.54	1.66448
1951.02	1.08898
1952.5	1.39353
1953.98	1.49434
1955.46	1.75346
1956.94	2.58562
1958.42	3.13665
1959.91	3.54249
1961.39	4.14941
1962.87	4.1057
1964.34	4.1533
1965.82	3.85386
1967.3	3.88498
1968.78	4.06762
1970.26	4.44429
1971.74	4.22791
1973.22	4.91082
1974.7	5.33641
1976.17	5.17746
1977.65	4.66459
1979.13	4.24677
1980.6	5.22717
1982.08	4.97693
1983.56	5.31559
1985.03	5.3922
1986.51	5.02872
1987.98	5.22141
1989.46	5.00102
1990.93	5.38415
1992.41	5.74386
1993.88	5.65883
1995.36	5.91236
1996.83	5.93493
1998.3	5.96412
1999.78	5.28593
2001.25	6.27011
2002.72	6.9368
2004.2	6.94111
2005.67	6.42423
2007.14	5.84752
2008.61	5.23503
2010.08	4.88274
2011.55	5.2388
2013.02	5.44588
2014.49	4.7841
2015.97	4.01661
2017.43	3.75865
2018.9	3.86607
2020.37	3.60835
2021.84	4.07173
2023.31	4.02535
2024.78	4.28205
2026.25	5.14438
2027.72	4.98402
2029.19	5.02644
2030.65	5.80718
2032.12	5.59422
2033.59	5.41099
2035.05	5.50568
2036.52	5.94678
2037.98	6.56405
2039.45	6.45958
2040.92	7.28339
2042.38	7.99845
2043.85	7.41962
2045.31	7.7815
2046.78	8.55656
2048.24	9.14294
2049.71	8.8524
2051.17	9.8586
2052.63	11.2132
2054.1	12.5015
2055.56	12.0375
2057.02	12.7841
2058.48	13.0694
2059.95	13.6333
2061.41	14.3341
2062.87	14.2558
2064.33	14.6594
2065.79	14.5425
2067.25	15.2878
2068.71	15.9592
2070.17	16.5441
2071.63	16.7549
2073.09	17.3601
2074.55	18.5755
2076.01	18.9892
2077.47	19.4658
2078.93	18.73
2080.39	19.3905
2081.85	20.0324
2083.3	20.2626
2084.76	20.9033
2086.22	20.3413
2087.68	20.3354
2089.13	20.8732
2090.59	21.9624
2092.05	21.9709
2093.5	22.1237
2094.96	22.2498
2096.41	22.7809
2097.87	23.2079
2099.32	23.5115
2100.78	23.7426
2102.23	24.2353
2103.69	25.5406
2105.14	25.8109
2106.59	26.316
2108.05	27.197
2109.5	28.1621
2110.95	29.0318
2112.41	29.301
2113.86	30.0723
2115.31	30.6102
2116.76	31.4868
2118.21	33.1687
2119.67	34.6323
2121.12	36.0219
2122.57	37.6697
2124.02	39.7134
2125.47	40.6158
2126.92	41.9218
2128.37	42.5248
2129.82	44.6813
2131.27	46.5718
2132.71	48.0579
2134.16	50.186
2135.61	51.8313
