#Acq. time (s)=	45
#Accumulations=	2
#Range (cm-¹)=	200...3150
#Windows=	2
#Auto scanning=	Off
#Autofocus=	Off
#Macrospot=	Off
#AutoExposure=	Off
#Spike filter=	Multiple accum.
#Delay time (s)=	0
#Binning=	1
#Readout mode=	Signal
#DeNoise=	Off
#ICS correction=	On
#Dark correction=	Off
#Inst. Process=	Off
#Detector Gain=	Best Dynamic Range
#Detector ADC=	20 kHz       
#Detector temperature (°C)=	-70.08
#Instrument=	LabRAM HR Evol
#Detector=	Synapse
#Objective=	x100
#Grating=	600 gr/mm
#ND Filter=	100%
#Laser (nm)=	532 
#Hole=	100.021
#Range=	Auto
#Laser Pol.=	No
#Raman. Pol.=	No
#Laser Pol. (°)=	-0.0007625
#Raman Pol. (°)=	89.9995
#Collection=	Microscope
#StageXY=	Marzhauser
#StageZ=	Marzhauser
#X (µm)=	-2527.7
#Y (µm)=	-36.9
#Z (µm)=	-10.05
#Full time(mm:ss)=	3:18
#Project=	
#Sample=	
#Site=	
#Title=	Mb_40_24_05_2x_45s_532 nm_x100_100%_600 gr_mm
#Remark=	
#Date=	14.07.2022 11:04
#Acquired=	14.07.2022 11:04:46
#Base:Fit=	10.08.2022 10:47:00
#Base:Sub=	10.08.2022 10:47:12
#Filter:Polynom=	16.08.2022 10:11:48
#AxisType[0]=Intens
#AxisUnit[0]=Cnt
#AxisType[1]=Spectr
#AxisUnit[1]=1/cm
200.554	43.0434
202.369	40.7557
204.183	36.0829
205.999	32.5147
207.813	30.1622
209.626	27.8002
211.439	25.7739
213.253	24.6748
215.065	23.5123
216.877	21.4272
218.688	19.4864
220.5	19.0483
222.312	15.9985
224.123	16.882
225.933	14.6326
227.742	13.087
229.552	11.5305
231.361	11.1856
233.171	11.7482
234.98	11.2708
236.787	11.2286
238.595	11.7582
240.402	11.7588
242.209	12.4975
244.015	11.7606
245.822	11.6231
247.627	10.2283
249.435	10.3109
251.24	10.0101
253.045	11.0422
254.849	11.3238
256.653	11.6999
258.457	11.7044
260.26	12.8346
262.063	14.8251
263.866	14.6092
265.668	15.9142
267.47	15.988
269.271	16.4197
271.073	14.2802
272.873	13.2051
274.674	11.6811
276.474	10.7832
278.274	10.8277
280.073	10.2384
281.872	9.25702
283.671	9.82244
285.47	9.93305
287.268	9.25683
289.065	9.72629
290.863	10.2597
292.66	10.0263
294.456	11.0751
296.253	11.8691
298.049	11.1539
299.844	12.4656
301.637	13.0058
303.432	14.0247
305.227	12.9279
307.021	11.7868
308.815	12.0121
310.609	11.6196
312.402	10.7557
314.195	13.0214
315.987	11.6582
317.777	11.5504
319.569	11.9728
321.36	12.5225
323.151	11.7917
324.942	11.4702
326.733	12.4358
328.521	11.8041
330.31	11.329
332.1	10.5112
333.889	10.1375
335.677	10.155
337.464	8.34653
339.252	9.39716
341.039	7.57029
342.826	7.27628
344.611	6.47564
346.398	6.05146
348.184	6.27706
349.97	6.37238
351.754	5.07287
353.539	4.34647
355.324	4.35732
357.106	3.50214
358.89	2.35437
360.674	1.55795
362.455	2.03963
364.239	0.110547
366.021	-0.211128
367.804	0.124994
369.584	1.80149
371.366	3.40181
373.145	3.45681
374.926	4.284
376.707	5.75778
378.485	7.4612
380.265	8.09051
382.045	8.07159
383.822	8.75169
385.601	9.52886
387.378	9.1813
389.156	9.89881
390.934	9.52365
392.71	10.1633
394.487	10.1782
396.262	10.9948
398.038	11.0805
399.813	11.5899
401.588	12.0648
403.362	12.7034
405.137	11.0679
406.912	10.6612
408.685	9.84537
410.459	9.99668
412.23	9.93936
414.004	12.2478
415.775	12.3614
417.548	11.1588
419.318	10.2211
421.089	10.1992
422.86	10.3579
424.63	9.09639
426.401	8.6828
428.17	9.51195
429.94	7.70697
431.708	8.52736
433.478	8.11833
435.245	8.05813
437.012	6.85482
438.781	5.84485
440.547	4.78755
442.315	6.09931
444.081	6.53344
445.846	6.87857
447.613	6.64718
449.378	8.85753
451.142	9.61746
452.908	10.4066
454.672	12.254
456.435	12.836
458.2	13.5442
459.963	14.3314
461.725	15.7772
463.489	17.2029
465.251	18.4629
467.012	19.168
468.775	19.1236
470.536	18.6176
472.296	19.3696
474.056	19.6341
475.817	21.2931
477.576	22.4551
479.335	23.5238
481.094	25.3671
482.854	25.8466
484.612	24.7256
486.37	23.6877
488.127	24.1609
489.886	24.1051
491.642	24.407
493.398	24.283
495.154	25.198
496.91	25.0232
498.667	27.1922
500.422	27.5199
502.176	28.2216
503.93	26.7192
505.684	25.9021
507.438	24.4103
509.191	25.0998
510.946	24.5723
512.698	24.1733
514.45	23.9806
516.202	23.4722
517.954	22.49
519.705	23.2911
521.456	23.3406
523.206	23.9093
524.956	23.4819
526.706	25.7869
528.456	26.5533
530.207	27.7528
531.956	28.8285
533.704	30.1592
535.452	31.0003
537.2	31.2225
538.947	31.6269
540.694	32.2203
542.441	33.5055
544.188	33.7705
545.934	34.1995
547.68	35.4517
549.425	35.979
551.17	35.0216
552.915	34.3257
554.659	33.5429
556.403	32.5217
558.145	32.0304
559.889	31.3214
561.632	31.1284
563.375	31.565
565.117	28.9344
566.859	28.1802
568.601	26.8371
570.342	25.6315
572.083	23.7901
573.824	23.549
575.565	23.3819
577.303	22.7653
579.043	21.4767
580.782	19.8748
582.521	19.1348
584.26	17.058
585.998	15.7544
587.734	13.4863
589.472	12.1626
591.21	9.7548
592.947	7.44204
594.684	5.84837
596.418	6.45423
598.154	6.51069
599.89	6.82437
601.626	6.9461
603.361	6.7287
605.094	6.83974
606.828	7.82055
608.562	7.86128
610.296	8.5105
612.027	8.32393
613.761	9.39509
615.493	9.26862
617.224	9.23428
618.956	9.65632
620.688	9.69116
622.419	10.6995
624.149	11.6357
625.879	13.0919
627.61	12.3572
629.338	11.5489
631.068	11.7041
632.797	10.9562
634.525	10.8021
636.254	10.8542
637.98	10.2084
639.708	10.6831
641.436	9.9051
643.162	11.0818
644.889	9.84155
646.614	10.4418
648.34	9.86987
650.067	10.2132
651.791	9.14117
653.516	9.029
655.239	7.70072
656.964	8.03177
658.687	7.55019
660.411	6.88127
662.133	5.74157
663.857	4.32358
665.58	2.53276
667.301	1.23421
669.024	1.07627
670.744	-0.179269
672.464	-0.429045
674.186	-0.409096
675.905	-0.570086
677.626	-0.658567
679.345	0.368086
681.065	1.78014
682.783	3.34124
684.503	3.82774
686.22	4.68987
687.939	5.12162
689.656	6.45801
691.372	8.67423
693.09	10.5781
694.806	11.3935
696.523	13.4081
698.239	12.739
699.953	14.2229
701.67	15.8664
703.384	17.5411
705.098	18.1657
706.813	19.1173
708.526	20.393
710.239	21.0114
711.954	19.9896
713.666	20.1129
715.378	22.5781
717.091	24.5458
718.802	23.9624
720.513	24.7809
722.226	25.4481
723.936	26.1688
725.646	25.4588
727.355	24.351
729.067	25.3141
730.776	25.2052
732.484	26.9045
734.192	26.6732
735.902	27.7846
737.61	26.8979
739.317	27.2082
741.024	28.6785
742.731	29.8253
744.439	30.7923
746.145	32.6345
747.851	33.2823
749.556	33.9589
751.262	34.7654
752.966	35.8221
754.673	36.4005
756.377	38.3707
758.081	39.9279
759.784	41.873
761.487	43.5181
763.19	46.0847
764.892	47.2199
766.594	48.7212
768.296	50.8999
770	51.9815
771.701	54.5433
773.402	55.7408
775.102	57.0283
776.803	58.1553
778.503	59.1499
780.202	59.3416
781.901	59.8822
783.6	60.1392
785.299	63.0809
786.997	64.5071
788.695	64.1169
790.393	63.4323
792.09	64.9117
793.787	66.411
795.484	66.9512
797.18	66.3184
798.877	67.8024
800.572	67.662
802.268	66.0752
803.963	66.2165
805.658	66.4594
807.35	66.4146
809.044	68.1689
810.738	67.7305
812.432	68.3301
814.125	68.8372
815.818	68.3723
817.51	68.1023
819.202	67.4228
820.894	68.3279
822.584	69.644
824.275	70.8368
825.966	72.706
827.657	74.5719
829.347	76.7553
831.037	76.9246
832.725	76.2213
834.414	76.9987
836.103	77.5855
837.792	78.9398
839.481	79.1091
841.167	81.3216
842.854	81.3019
844.542	80.914
846.229	81.4432
847.914	80.959
849.6	80.291
851.287	80.179
852.973	80.8415
854.656	80.0417
856.341	80.0847
858.026	79.0846
859.711	78.8924
861.393	77.9488
863.077	77.6125
864.761	76.6355
866.442	76.3285
868.125	75.9814
869.808	76.143
871.489	74.4056
873.171	73.4975
874.85	73.2991
876.532	73.6182
878.213	72.6779
879.892	71.7949
881.572	70.2598
883.251	68.9829
884.931	67.0897
886.61	65.3571
888.287	64.8581
889.966	62.9078
891.643	59.9902
893.321	58.8802
894.997	55.8461
896.675	53.4254
898.352	51.566
900.028	51.2806
901.704	52.0678
903.379	53.8838
905.055	55.4351
906.729	55.1379
908.404	55.4699
910.077	56.325
911.75	56.4723
913.425	55.5516
915.097	56.0645
916.771	55.6087
918.443	55.3923
920.116	55.4694
921.787	55.6127
923.46	52.5885
925.13	53.3702
926.8	52.9395
928.472	53.2788
930.141	54.214
931.813	54.0769
933.481	53.9394
935.15	53.4802
936.82	53.7582
938.488	52.5612
940.156	51.9417
941.825	49.4483
943.492	47.487
945.158	45.0155
946.827	43.6941
948.493	42.6007
950.158	42.6452
951.824	41.4511
953.491	40.6878
955.156	39.6755
956.82	39.4757
958.486	39.1428
960.15	37.472
961.814	37.5136
963.477	37.3626
965.142	37.5223
966.804	37.2833
968.467	38.6706
970.129	39.7081
971.79	40.9741
973.454	41.2032
975.115	41.4917
976.776	43.6047
978.436	44.768
980.096	44.9542
981.756	45.4582
983.417	46.438
985.077	45.5972
986.736	45.6033
988.394	45.1215
990.052	43.926
991.71	44.7022
993.368	44.6313
995.025	44.4631
996.682	42.4095
998.341	42.2127
999.998	40.2316
1001.65	40.2323
1003.31	40.3767
1004.97	39.4261
1006.62	37.9642
1008.28	39.8854
1009.93	41.2146
1011.58	43.0544
1013.24	43.8435
1014.89	45.3038
1016.54	45.6727
1018.2	47.3012
1019.85	48.6413
1021.5	49.2647
1023.16	49.3539
1024.81	50.3589
1026.46	52.5738
1028.11	54.1138
1029.76	56.1975
1031.41	57.7843
1033.06	59.4687
1034.71	60.6522
1036.36	62.176
1038.01	66.0089
1039.66	68.1364
1041.31	71.5219
1042.95	72.5136
1044.6	74.6695
1046.25	73.9926
1047.9	74.9446
1049.54	75.4747
1051.19	76.5535
1052.84	76.5925
1054.48	77.391
1056.13	77.1286
1057.77	76.8336
1059.42	76.3848
1061.06	75.644
1062.71	74.1604
1064.35	72.4938
1066	70.2481
1067.64	68.2661
1069.28	67.9379
1070.93	65.2266
1072.57	62.9917
1074.21	61.9508
1075.85	58.7121
1077.49	54.4282
1079.13	50.2336
1080.78	49.2283
1082.42	47.2864
1084.06	45.1957
1085.7	45.1618
1087.34	43.8333
1088.97	44.3018
1090.61	45.692
1092.25	46.4643
1093.89	45.6831
1095.53	45.4915
1097.17	44.726
1098.8	43.5913
1100.44	43.0376
1102.08	41.6475
1103.71	40.5678
1105.35	40.6739
1106.99	41.4508
1108.62	39.8397
1110.26	38.2655
1111.89	36.7348
1113.52	34.6874
1115.16	33.9589
1116.79	33.0607
1118.43	31.9571
1120.06	31.7698
1121.69	29.7205
1123.32	27.4887
1124.96	24.5335
1126.59	23.3794
1128.22	23.3427
1129.85	24.2077
1131.48	24.1588
1133.11	24.0989
1134.75	23.143
1136.37	22.8838
1138	20.7384
1139.63	20.0614
1141.26	19.521
1142.89	18.682
1144.52	17.4955
1146.15	15.7016
1147.78	14.7598
1149.4	14.4268
1151.03	13.4095
1152.66	11.7812
1154.28	12.7053
1155.91	12.3134
1157.54	10.2654
1159.16	8.35176
1160.79	8.71425
1162.41	10.0948
1164.04	11.229
1165.66	9.90708
1167.29	11.0452
1168.91	11.0669
1170.53	11.7517
1172.16	11.8182
1173.78	11.2267
1175.4	11.1696
1177.02	12.096
1178.65	11.356
1180.27	12.3275
1181.89	13.951
1183.51	15.6525
1185.13	17.3901
1186.75	19.3318
1188.37	19.9253
1189.99	20.4396
1191.61	21.6237
1193.23	22.4933
1194.85	24.449
1196.47	25.9685
1198.08	27.1274
1199.7	28.5218
1201.32	29.548
1202.94	29.3626
1204.55	29.2804
1206.17	30.3391
1207.79	31.0993
1209.4	31.4142
1211.02	31.7458
1212.63	33.0487
1214.25	34.6214
1215.86	34.9973
1217.48	37.994
1219.09	39.428
1220.71	40.802
1222.32	41.9013
1223.93	44.2436
1225.54	46.8537
1227.16	48.559
1228.77	49.7802
1230.38	51.3782
1231.99	53.4559
1233.6	54.6503
1235.22	56.7418
1236.83	56.5609
1238.44	57.4075
1240.05	59.1347
1241.66	60.1556
1243.26	62.127
1244.87	63.1871
1246.48	63.7761
1248.09	65.5105
1249.7	67.1089
1251.31	68.1778
1252.92	68.8045
1254.52	69.7474
1256.13	71.3229
1257.74	72.6753
1259.34	74.2719
1260.95	75.9252
1262.55	78.5591
1264.16	78.9905
1265.76	79.9328
1267.37	80.5155
1268.97	82.2265
1270.58	84.2957
1272.18	85.2371
1273.78	86.9959
1275.39	88.9583
1276.99	89.3262
1278.59	90.8515
1280.2	91.8659
1281.8	92.7555
1283.4	95.1592
1285	97.4178
1286.6	100.453
1288.2	102.63
1289.8	105.317
1291.4	107.964
1293	111.147
1294.6	113.989
1296.2	116.843
1297.8	118.576
1299.4	120.075
1301	122.384
1302.6	123.329
1304.19	126.767
1305.79	127.318
1307.39	127.426
1308.99	127.326
1310.58	128.595
1312.18	128.78
1313.77	126.984
1315.37	126.965
1316.96	125.502
1318.56	126.305
1320.15	124.788
1321.75	123.107
1323.34	123.788
1324.94	122.898
1326.53	120.64
1328.12	117.906
1329.72	117.728
1331.31	116.898
1332.9	115.254
1334.49	114.136
1336.08	111.911
1337.67	110.182
1339.27	108.556
1340.86	107.063
1342.45	106.717
1344.04	105.105
1345.63	104.04
1347.22	102.636
1348.8	102.859
1350.39	102.147
1351.98	101.584
1353.57	102.639
1355.16	101.603
1356.75	102.089
1358.33	102.188
1359.92	102.923
1361.51	104.861
1363.09	106.178
1364.68	106.649
1366.27	107.782
1367.85	108.121
1369.44	108.865
1371.02	108.921
1372.61	110.2
1374.19	111.822
1375.77	113.27
1377.36	112.568
1378.94	114.823
1380.52	115.666
1382.11	117.23
1383.69	119.424
1385.27	119.686
1386.85	120.433
1388.43	120.813
1390.02	121.053
1391.6	121.88
1393.18	121.318
1394.76	122.622
1396.34	124.094
1397.92	125.057
1399.5	124.936
1401.08	126.511
1402.65	128.633
1404.23	130.387
1405.81	132.948
1407.39	136.827
1408.97	140.259
1410.54	142.855
1412.12	146.411
1413.7	150.926
1415.27	153.802
1416.85	157.599
1418.43	162.142
1420	167.424
1421.58	172.006
1423.15	176.93
1424.73	181.704
1426.3	188.484
1427.87	194.3
1429.45	200.403
1431.02	206.08
1432.6	212.256
1434.17	217.164
1435.74	222.075
1437.31	226.075
1438.89	230.24
1440.46	232.421
1442.03	233.742
1443.6	235.878
1445.17	236.145
1446.74	237.409
1448.31	236.277
1449.88	236.224
1451.45	236.539
1453.02	236.801
1454.59	234.466
1456.16	232.021
1457.72	230.922
1459.29	227.577
1460.86	224.102
1462.43	218.281
1463.99	212.507
1465.56	206.169
1467.13	199.541
1468.69	192.079
1470.26	186.58
1471.83	179.014
1473.39	171.865
1474.95	164.678
1476.52	157.157
1478.08	149.865
1479.65	144.187
1481.21	137.927
1482.78	131.264
1484.34	125.216
1485.9	119.24
1487.47	112.965
1489.03	108.471
1490.59	103.893
1492.15	99.3993
1493.71	93.2607
1495.27	89.9256
1496.84	88.2028
1498.39	85.6217
1499.96	83.1936
1501.52	79.6371
1503.07	77.4723
1504.64	76.5847
1506.19	73.7638
1507.75	72.7646
1509.31	71.142
1510.87	70.5287
1512.43	68.8297
1513.98	66.2182
1515.54	65.7204
1517.1	63.6667
1518.65	61.8752
1520.21	60.9766
1521.77	60.1226
1523.32	59.6554
1524.88	59.9053
1526.44	59.7076
1527.99	59.6683
1529.54	60.062
1531.1	60.396
1532.65	59.4742
1534.21	60.5509
1535.76	60.4136
1537.31	59.8782
1538.87	59.379
1540.42	58.6079
1541.97	59.5954
1543.52	59.6687
1545.07	59.8035
1546.63	59.7437
1548.18	61.2214
1549.73	61.5801
1551.28	62.4428
1552.83	62.9647
1554.38	64.253
1555.93	65.5965
1557.48	67.7276
1559.03	69.3755
1560.57	70.4831
1562.12	73.4535
1563.67	75.328
1565.22	77.4006
1566.77	79.9363
1568.31	82.6555
1569.86	86.2366
1571.41	88.8558
1572.95	93.0505
1574.5	97.4333
1576.05	100.648
1577.59	105.096
1579.14	107.52
1580.68	113.119
1582.23	117.914
1583.77	120.58
1585.31	123.862
1586.86	127.346
1588.4	132.003
1589.95	135.033
1591.49	138.481
1593.03	141.671
1594.57	143.67
1596.11	146.54
1597.66	147.641
1599.2	149.919
1600.74	152.907
1602.28	154.259
1603.82	156.093
1605.36	156.451
1606.9	159.205
1608.44	159.952
1609.98	160.762
1611.52	162.62
1613.06	162.954
1614.6	163.141
1616.13	162.626
1617.67	162.472
1619.21	163.104
1620.75	162.103
1622.28	162.304
1623.82	162.615
1625.36	163.536
1626.89	163.204
1628.43	162.864
1629.96	162.167
1631.5	161.953
1633.04	161.399
1634.57	159.674
1636.11	158.719
1637.64	157.6
1639.17	157.819
1640.71	155.916
1642.24	155.067
1643.77	154.212
1645.31	153.224
1646.84	152.663
1648.37	150.9
1649.9	149.59
1651.43	148.278
1652.96	145.716
1654.5	143.41
1656.03	140.847
1657.56	139.046
1659.09	136.198
1660.62	131.916
1662.15	128.662
1663.67	126.469
1665.2	124.16
1666.73	119.586
1668.26	115.524
1669.79	111.257
1671.32	107.833
1672.84	105.164
1674.37	101.845
1675.9	99.9398
1677.43	96.9649
1678.95	92.6088
1680.48	89.76
1682	85.6288
1683.53	83.1039
1685.05	79.4239
1686.58	76.9685
1688.1	74.5774
1689.63	71.4682
1691.15	67.981
1692.68	65.6136
1694.2	63.7835
1695.72	62.533
1697.25	61.3754
1698.77	59.5305
1700.29	58.1962
1701.81	56.817
1703.33	55.2668
1704.86	54.2638
1706.38	52.7173
1707.9	50.001
1709.42	48.9766
1710.94	47.6126
1712.46	46.7236
1713.98	45.1979
1715.5	43.5449
1717.02	41.2261
1718.54	39.8706
1720.06	38.7573
1721.57	36.9679
1723.09	36.2665
1724.61	34.7347
1726.13	33.8347
1727.64	33.0219
1729.16	31.8398
1730.68	31.4413
1732.19	30.3136
1733.71	28.3962
1735.23	26.7099
1736.74	25.6979
1738.26	25.1224
1739.77	25.5052
1741.29	25.1541
1742.8	24.0476
1744.31	23.5477
1745.83	23.376
1747.34	22.609
1748.85	22.8197
1750.37	21.7923
1751.88	20.8151
1753.39	19.9283
1754.91	18.844
1756.42	18.7244
1757.93	17.8886
1759.44	18.1781
1760.95	17.7725
1762.46	17.9887
1763.97	17.2637
1765.48	16.5556
1766.99	15.7391
1768.5	15.6349
1770.01	14.6019
1771.52	14.3241
1773.03	13.8784
1774.54	12.5942
1776.04	13.0164
1777.55	12.9127
1779.06	12.285
1780.57	11.2784
1782.07	10.7029
1783.58	9.99357
1785.09	10.0547
1786.59	8.49739
1788.1	7.75293
1789.6	6.78268
1791.11	6.08571
1792.61	5.51484
1794.12	5.30757
1795.62	5.16066
1797.13	4.63901
1798.63	5.08801
1800.13	5.12916
1801.64	4.04005
1803.14	4.32726
1804.64	4.35784
1806.15	3.6836
1807.65	2.88849
1809.15	2.24929
1810.65	1.88975
1812.15	2.28618
1813.65	1.9193
1815.16	2.06182
1816.66	0.949863
1818.15	0.501293
1819.66	-0.0673117
1821.16	0.410442
1822.65	1.45254
1824.15	1.71322
1825.65	1.064
1827.15	0.0711047
1828.65	-0.0127173
1830.15	-0.157315
1831.64	-0.368668
1833.14	0.691056
1834.64	1.35768
1836.14	1.8712
1837.63	1.99182
1839.13	2.15793
1840.62	2.07226
1842.12	2.58004
1843.62	2.70812
1845.11	3.33714
1846.61	4.22025
1848.1	4.72776
1849.6	4.8985
1851.09	5.56432
1852.58	5.73435
1854.08	5.28496
1855.57	5.49057
1857.06	5.17347
1858.55	4.9773
1860.05	3.98817
1861.54	3.70135
1863.03	4.33911
1864.52	4.44505
1866.01	5.17372
1867.5	5.84035
1869	6.29873
1870.49	6.11927
1871.98	5.80931
1873.47	6.87954
1874.96	7.28024
1876.44	7.72672
1877.93	7.9944
1879.42	7.36769
1880.91	6.59841
1882.4	6.18234
1882.47	6.14313
1883.96	6.22457
1885.46	5.91615
1886.95	5.96218
1888.44	5.82254
1889.94	6.21299
1891.43	7.17688
1892.93	7.48672
1894.42	7.44492
1895.91	6.48502
1897.4	5.91568
1898.89	5.39102
1900.39	5.01479
1901.88	5.66303
1903.37	5.56763
1904.86	6.20628
1906.35	6.48091
1907.84	5.43513
1909.33	5.00097
1910.82	5.06667
1912.31	5.55962
1913.8	5.57827
1915.29	5.64471
1916.77	5.06902
1918.26	5.49432
1919.75	5.58096
1921.24	5.57065
1922.73	4.82595
1924.21	4.30429
1925.7	4.55135
1927.19	4.18058
1928.67	3.80687
1930.16	3.195
1931.64	3.47101
1933.13	3.66792
1934.61	4.3945
1936.1	4.50094
1937.58	4.98535
1939.07	5.10307
1940.55	5.12052
1942.04	5.29699
1943.52	5.25109
1945	5.66817
1946.49	7.5833
1947.97	7.47617
1949.45	7.29771
1950.93	6.00512
1952.42	6.73516
1953.9	6.7171
1955.38	7.0406
1956.86	6.56885
1958.34	6.91248
1959.82	7.53549
1961.3	7.70945
1962.78	7.95117
1964.26	7.99363
1965.74	7.5258
1967.22	7.34947
1968.7	6.89086
1970.18	7.09562
1971.65	7.19843
1973.13	6.04543
1974.61	5.80582
1976.09	5.52012
1977.57	4.85226
1979.04	4.72416
1980.52	3.43183
1982	3.27103
1983.47	4.12682
1984.95	3.31848
1986.42	3.47461
1987.9	2.90222
1989.37	2.09952
1990.85	2.3437
1992.32	3.26904
1993.8	3.43173
1995.27	2.92832
1996.75	3.06997
1998.22	4.0927
1999.69	5.23723
2001.17	5.77872
2002.64	5.9922
2004.11	6.9396
2005.58	7.72756
2007.05	8.42145
2008.53	8.22188
2010	7.61989
2011.47	8.34746
2012.94	7.65226
2014.41	8.74993
2015.88	9.6293
2017.35	10.1635
2018.82	10.5632
2020.29	11.2894
2021.76	11.1981
2023.23	10.6184
2024.7	10.5191
2026.16	11.5315
2027.63	11.0541
2029.1	11.2496
2030.57	11.2981
2032.03	12.195
2033.5	12.27
2034.97	12.323
2036.44	13.411
2037.9	13.4043
2039.37	14.3755
2040.83	15.2737
2042.3	16.3076
2043.76	16.6708
2045.23	16.0236
2046.69	15.7859
2048.16	15.3218
2049.62	16.1984
2051.08	16.1645
2052.55	16.392
2054.01	16.0753
2055.47	17.0051
2056.94	17.6271
2058.4	17.0148
2059.86	18.0182
2061.32	18.0778
2062.79	18.3614
2064.25	19.6122
2065.71	19.7214
2067.17	20.411
2068.63	21.8429
2070.09	22.8913
2071.55	23.4785
2073.01	23.2344
2074.47	22.5473
2075.93	21.95
2077.39	22.0498
2078.85	22.4112
2080.31	22.2027
2081.76	22.2792
2083.22	22.7167
2084.68	23.5644
2086.13	23.5318
2087.59	23.417
2089.05	23.3416
2090.51	23.1177
2091.96	22.4876
2093.42	21.5776
2094.87	21.7487
2096.33	21.8517
2097.78	22.8103
2099.24	22.927
2100.69	23.5025
2102.15	24.0785
2103.6	24.7712
2105.06	25.3437
2106.51	25.7659
2107.96	26.6237
2109.42	28.3042
2110.87	29.8488
2112.32	31.2914
2113.77	31.5691
2115.23	31.8071
2116.68	31.3781
2118.13	32.3962
2119.58	33.946
2121.03	35.8887
2122.48	37.1297
2123.93	37.2738
2125.38	37.5963
2126.83	39.5059
2128.28	40.4834
2129.73	41.7972
2131.18	42.1301
2132.63	43.0475
2134.08	44.5029
2135.53	45.4467
2136.97	46.972
2138.42	48.3605
