#Acq. time (s)=	45
#Accumulations=	2
#Range (cm-¹)=	200...3150
#Windows=	2
#Auto scanning=	Off
#Autofocus=	Off
#Macrospot=	Off
#AutoExposure=	Off
#Spike filter=	Multiple accum.
#Delay time (s)=	0
#Binning=	1
#Readout mode=	Signal
#DeNoise=	Off
#ICS correction=	On
#Dark correction=	Off
#Inst. Process=	Off
#Detector Gain=	Best Dynamic Range
#Detector ADC=	20 kHz       
#Detector temperature (°C)=	-69.85
#Instrument=	LabRAM HR Evol
#Detector=	Synapse
#Objective=	x100
#Grating=	600 gr/mm
#ND Filter=	100%
#Laser (nm)=	532 
#Hole=	100.021
#Range=	Auto
#Laser Pol.=	No
#Raman. Pol.=	No
#Laser Pol. (°)=	-0.0007625
#Raman Pol. (°)=	89.9995
#Collection=	Microscope
#StageXY=	Marzhauser
#StageZ=	Marzhauser
#X (µm)=	-2543.3
#Y (µm)=	-80.7
#Z (µm)=	-10.7
#Full time(mm:ss)=	3:19
#Project=	
#Sample=	
#Site=	
#Title=	Mb_40_24_12_2x_45s_532 nm_x100_100%_600 gr_mm
#Remark=	
#Date=	14.07.2022 11:34
#Acquired=	14.07.2022 11:34:34
#Base:Fit=	10.08.2022 10:47:00
#Base:Sub=	10.08.2022 10:47:12
#Filter:Polynom=	16.08.2022 10:11:48
#AxisType[0]=Intens
#AxisUnit[0]=Cnt
#AxisType[1]=Spectr
#AxisUnit[1]=1/cm
200.554	19.0427
202.369	16.9868
204.183	15.4468
205.999	13.9939
207.813	12.7482
209.626	12.1087
211.439	11.413
213.253	9.94585
215.065	9.41934
216.877	8.72211
218.688	9.50936
220.5	8.06813
222.312	7.47856
224.123	8.07045
225.933	8.03026
227.742	7.80569
229.552	8.62504
231.361	7.79224
233.171	6.80677
234.98	7.92456
236.787	7.74022
238.595	6.96763
240.402	6.08943
242.209	6.54881
244.015	7.36964
245.822	7.72163
247.627	7.51958
249.435	8.6124
251.24	9.66227
253.045	9.1901
254.849	10.028
256.653	10.004
258.457	9.91166
260.26	11.0761
262.063	11.4957
263.866	11.6937
265.668	12.0113
267.47	12.3868
269.271	12.5838
271.073	11.567
272.873	12.0219
274.674	11.0535
276.474	10.3803
278.274	10.23
280.073	11.2501
281.872	12.0812
283.671	13.019
285.47	12.6509
287.268	13.2692
289.065	14.678
290.863	15.3127
292.66	16.9634
294.456	17.4131
296.253	17.7957
298.049	18.1839
299.844	18.1046
301.637	18.8364
303.432	19.3657
305.227	19.9458
307.021	20.3319
308.815	20.6867
310.609	19.4028
312.402	20.6467
314.195	20.4256
315.987	20.5221
317.777	19.9949
319.569	20.0417
321.36	19.2798
323.151	20.5395
324.942	21.6788
326.733	20.1085
328.521	20.0592
330.31	20.2316
332.1	21.6922
333.889	21.8513
335.677	21.1735
337.464	20.9013
339.252	21.8468
341.039	21.7101
342.826	21.0421
344.611	20.7216
346.398	20.1774
348.184	18.4377
349.97	16.683
351.754	15.565
353.539	14.8701
355.324	14.4537
357.106	14.1333
358.89	13.4321
360.674	12.1968
362.455	10.4651
364.239	10.2444
366.021	9.96614
367.804	9.65285
369.584	9.90697
371.366	9.2864
373.145	8.78512
374.926	9.15937
376.707	10.1642
378.485	10.1602
380.265	8.69067
382.045	8.17113
383.822	7.47457
385.601	7.08601
387.378	7.10122
389.156	6.81104
390.934	6.17424
392.71	5.47088
394.487	4.47253
396.262	5.03538
398.038	4.35381
399.813	4.24224
401.588	4.53675
403.362	4.27001
405.137	5.14344
406.912	5.1676
408.685	5.96971
410.459	6.96531
412.23	7.51811
414.004	7.11489
415.775	7.56175
417.548	9.75811
419.318	10.6276
421.089	11.3988
422.86	11.6795
424.63	12.1144
426.401	13.6962
428.17	14.5033
429.94	14.668
431.708	14.3906
433.478	15.0656
435.245	14.5973
437.012	13.8127
438.781	15.9333
440.547	17.0331
442.315	18.1918
444.081	18.4197
445.846	18.14
447.613	17.4656
449.378	17.7907
451.142	18.2753
452.908	19.6124
454.672	19.7452
456.435	20.0922
458.2	20.9381
459.963	20.777
461.725	21.1753
463.489	21.1715
465.251	21.0559
467.012	20.4704
468.775	20.3297
470.536	20.7559
472.296	21.3692
474.056	20.3095
475.817	20.6452
477.576	20.4374
479.335	20.961
481.094	21.0284
482.854	21.2398
484.612	21.6435
486.37	21.1598
488.127	22.2663
489.886	22.0555
491.642	22.0715
493.398	22.6267
495.154	23.1904
496.91	23.8806
498.667	23.5864
500.422	23.4167
502.176	25.1731
503.93	26.7206
505.684	27.1587
507.438	26.7143
509.191	26.5555
510.946	26.7028
512.698	26.8721
514.45	26.2913
516.202	25.255
517.954	24.9525
519.705	24.5734
521.456	24.212
523.206	23.591
524.956	24.3341
526.706	25.9179
528.456	25.4562
530.207	24.6496
531.956	23.6381
533.704	23.0106
535.452	22.7583
537.2	22.0308
538.947	21.7603
540.694	21.1765
542.441	20.6646
544.188	20.4229
545.934	21.0786
547.68	20.9896
549.425	20.8336
551.17	20.5063
552.915	19.6097
554.659	19.546
556.403	19.4122
558.145	19.2114
559.889	18.8288
561.632	17.2445
563.375	17.5784
565.117	16.5815
566.859	15.9852
568.601	15.0057
570.342	14.9438
572.083	13.9825
573.824	13.7621
575.565	14.8699
577.303	13.4778
579.043	13.0666
580.782	13.0623
582.521	12.9567
584.26	12.6214
585.998	11.5586
587.734	11.5877
589.472	12.1924
591.21	10.1387
592.947	8.79909
594.684	7.72027
596.418	7.2184
598.154	7.54653
599.89	7.04227
601.626	6.19683
603.361	5.93363
605.094	6.00314
606.828	6.16537
608.562	7.12104
610.296	7.67382
612.027	7.92437
613.761	8.28083
615.493	7.36019
617.224	6.75044
618.956	7.20118
620.688	6.50609
622.419	7.17415
624.149	8.228
625.879	9.58264
627.61	10.8351
629.338	11.1709
631.068	11.7836
632.797	12.8844
634.525	12.6761
636.254	11.7013
637.98	11.5679
639.708	12.5921
641.436	13.0465
643.162	12.7688
644.889	13.5793
646.614	13.6569
648.34	14.2799
650.067	15.2136
651.791	14.7121
653.516	15.6752
655.239	16.6602
656.964	18.2411
658.687	18.4319
660.411	19.4793
662.133	20.3004
663.857	19.3456
665.58	20.6805
667.301	20.7391
669.024	21.129
670.744	20.9207
672.464	20.1351
674.186	20.7928
675.905	21.573
677.626	22.2075
679.345	23.7021
681.065	24.8584
682.783	25.5805
684.503	25.6974
686.22	25.0568
687.939	25.8613
689.656	26.2311
691.372	27.5015
693.09	28.3687
694.806	29.5442
696.523	29.6068
698.239	29.5783
699.953	30.0844
701.67	30.5383
703.384	30.7953
705.098	30.7746
706.813	31.2706
708.526	32.2722
710.239	32.9748
711.954	32.8357
713.666	33.0557
715.378	32.2666
717.091	31.7235
718.802	31.2163
720.513	30.8334
722.226	31.4601
723.936	32.5177
725.646	32.4171
727.355	31.1412
729.067	30.878
730.776	31.5635
732.484	30.412
734.192	31.5032
735.902	31.6226
737.61	31.8761
739.317	32.5131
741.024	32.2695
742.731	33.4519
744.439	33.211
746.145	32.9817
747.851	34.007
749.556	34.3998
751.262	34.9326
752.966	34.9254
754.673	36.4212
756.377	36.8061
758.081	37.8126
759.784	40.305
761.487	41.2544
763.19	43.0201
764.892	44.1267
766.594	45.6849
768.296	46.7089
770	49.4214
771.701	51.8727
773.402	53.7232
775.102	55.395
776.803	57.3692
778.503	58.1848
780.202	59.9223
781.901	60.7211
783.6	62.2164
785.299	64.19
786.997	65.6679
788.695	66.6537
790.393	67.5295
792.09	69.0027
793.787	70.575
795.484	71.2344
797.18	71.194
798.877	70.68
800.572	72.1359
802.268	71.415
803.963	72.2044
805.658	73.3751
807.35	72.8233
809.044	71.6663
810.738	70.6518
812.432	70.5242
814.125	69.8632
815.818	71.3261
817.51	71.0484
819.202	71.2039
820.894	70.9853
822.584	69.2409
824.275	66.8934
825.966	66.7198
827.657	66.3421
829.347	64.6225
831.037	64.1715
832.725	64.4112
834.414	62.9445
836.103	61.8681
837.792	61.2333
839.481	60.2782
841.167	58.1455
842.854	57.9601
844.542	57.7166
846.229	56.8951
847.914	56.8593
849.6	56.5688
851.287	55.734
852.973	55.1196
854.656	54.8278
856.341	53.1914
858.026	52.1413
859.711	50.6908
861.393	49.3568
863.077	48.5402
864.761	48.1617
866.442	47.4384
868.125	46.5679
869.808	46.1906
871.489	46.1429
873.171	45.9246
874.85	45.3231
876.532	45.6298
878.213	45.3692
879.892	44.4694
881.572	44.6842
883.251	44.4601
884.931	45.3093
886.61	44.242
888.287	44.0766
889.966	44.1167
891.643	43.9104
893.321	44.2071
894.997	44.9083
896.675	46.0272
898.352	46.6808
900.028	47.2134
901.704	46.2955
903.379	45.8664
905.055	45.9738
906.729	44.5053
908.404	45.264
910.077	46.8928
911.75	46.6402
913.425	47.2042
915.097	47.361
916.771	47.5818
918.443	47.4478
920.116	47.6039
921.787	47.2431
923.46	47.5657
925.13	47.4502
926.8	48.1257
928.472	48.8848
930.141	48.2275
931.813	47.6524
933.481	46.334
935.15	45.6093
936.82	45.003
938.488	43.7445
940.156	42.1457
941.825	41.1173
943.492	38.7283
945.158	37.7525
946.827	37.3736
948.493	36.605
950.158	37.0253
951.824	36.5348
953.491	36.3271
955.156	36.17
956.82	34.9926
958.486	33.6309
960.15	33.0028
961.814	32.4069
963.477	31.9085
965.142	31.1724
966.804	30.6285
968.467	30.1191
970.129	30.7825
971.79	30.2529
973.454	30.4265
975.115	30.1924
976.776	29.7057
978.436	29.6719
980.096	29.6878
981.756	28.4301
983.417	26.939
985.077	26.9556
986.736	27.4683
988.394	26.7843
990.052	26.9659
991.71	27.0253
993.368	27.5717
995.025	26.3365
996.682	25.7517
998.341	25.6997
999.998	26.0148
1001.65	25.3827
1003.31	24.8669
1004.97	24.4998
1006.62	24.9078
1008.28	24.1344
1009.93	24.2661
1011.58	24.6196
1013.24	23.2446
1014.89	24.1344
1016.54	24.1787
1018.2	25.8864
1019.85	26.1684
1021.5	25.3909
1023.16	25.1485
1024.81	26.5036
1026.46	27.5175
1028.11	29.4435
1029.76	30.9442
1031.41	31.9112
1033.06	32.9044
1034.71	33.1996
1036.36	33.7742
1038.01	33.5178
1039.66	33.1007
1041.31	33.8651
1042.95	34.2424
1044.6	33.5508
1046.25	33.6402
1047.9	33.8193
1049.54	33.9666
1051.19	34.5599
1052.84	35.1483
1054.48	34.4785
1056.13	34.3906
1057.77	33.3302
1059.42	32.9978
1061.06	33.1564
1062.71	31.0775
1064.35	29.4289
1066	28.8996
1067.64	28.7272
1069.28	28.0914
1070.93	26.2346
1072.57	25.6201
1074.21	24.0952
1075.85	23.6453
1077.49	22.1907
1079.13	21.2822
1080.78	21.6451
1082.42	20.8284
1084.06	19.2764
1085.7	19.1542
1087.34	19.0789
1088.97	19.1335
1090.61	17.7507
1092.25	17.8226
1093.89	18.0119
1095.53	18.6209
1097.17	19.0107
1098.8	18.4887
1100.44	19.3386
1102.08	17.8355
1103.71	16.6516
1105.35	17.213
1106.99	17.6244
1108.62	17.4314
1110.26	16.2396
1111.89	16.1986
1113.52	15.2179
1115.16	14.1046
1116.79	13.7571
1118.43	12.6305
1120.06	11.3385
1121.69	10.9532
1123.32	11.1177
1124.96	9.9687
1126.59	9.17945
1128.22	10.1028
1129.85	10.2249
1131.48	9.04959
1133.11	8.68135
1134.75	7.54362
1136.37	7.16048
1138	6.32127
1139.63	5.69843
1141.26	6.49114
1142.89	5.5751
1144.52	4.00491
1146.15	4.18627
1147.78	4.15711
1149.4	4.03829
1151.03	3.55935
1152.66	3.02466
1154.28	3.08996
1155.91	2.37169
1157.54	2.67071
1159.16	2.23729
1160.79	2.01661
1162.41	1.81878
1164.04	0.866751
1165.66	1.20069
1167.29	0.829926
1168.91	0.338806
1170.53	0.178272
1172.16	0.344579
1173.78	1.50843
1175.4	2.96151
1177.02	3.78114
1178.65	4.28193
1180.27	4.7825
1181.89	6.33475
1183.51	5.12367
1185.13	5.753
1186.75	6.81012
1188.37	6.54922
1189.99	6.53375
1191.61	6.82326
1193.23	7.25037
1194.85	6.1969
1196.47	6.76375
1198.08	7.53546
1199.7	7.20557
1201.32	7.7221
1202.94	7.94365
1204.55	9.72328
1206.17	9.37323
1207.79	9.74287
1209.4	11.0934
1211.02	10.8281
1212.63	9.99859
1214.25	11.2684
1215.86	11.6234
1217.48	12.3156
1219.09	12.5996
1220.71	14.1516
1222.32	14.7283
1223.93	14.3984
1225.54	15.3777
1227.16	16.3428
1228.77	17.742
1230.38	17.6533
1231.99	18.0136
1233.6	18.7169
1235.22	19.5889
1236.83	20.144
1238.44	21.5347
1240.05	22.6747
1241.66	23.1421
1243.26	23.9269
1244.87	25.7658
1246.48	27.2126
1248.09	27.1204
1249.7	29.5898
1251.31	31.0968
1252.92	33.102
1254.52	34.472
1256.13	36.4133
1257.74	37.2115
1259.34	37.3521
1260.95	37.2145
1262.55	38.7799
1264.16	38.7289
1265.76	39.2886
1267.37	39.7775
1268.97	40.1106
1270.58	41.0652
1272.18	41.9254
1273.78	42.1284
1275.39	42.4975
1276.99	43.1701
1278.59	44.6796
1280.2	46.6363
1281.8	47.5633
1283.4	48.6881
1285	49.096
1286.6	49.0499
1288.2	49.6093
1289.8	49.7795
1291.4	49.2932
1293	50.0843
1294.6	51.0114
1296.2	52.036
1297.8	53.0765
1299.4	53.2618
1301	54.6566
1302.6	54.524
1304.19	54.7643
1305.79	55.258
1307.39	55.5574
1308.99	55.5489
1310.58	54.5339
1312.18	55.5821
1313.77	56.7889
1315.37	56.3442
1316.96	56.2086
1318.56	56.817
1320.15	55.8625
1321.75	55.6353
1323.34	56.2618
1324.94	55.3305
1326.53	54.5577
1328.12	54.2366
1329.72	54.1009
1331.31	53.2108
1332.9	53.3972
1334.49	52.7487
1336.08	52.04
1337.67	50.891
1339.27	50.7178
1340.86	50.3052
1342.45	50.1722
1344.04	49.129
1345.63	48.1128
1347.22	48.6039
1348.8	48.3169
1350.39	47.4138
1351.98	46.562
1353.57	46.2378
1355.16	45.7533
1356.75	45.4135
1358.33	45.6976
1359.92	44.8074
1361.51	43.4869
1363.09	42.6164
1364.68	40.7869
1366.27	40.938
1367.85	40.1832
1369.44	39.5526
1371.02	40.0654
1372.61	40.6603
1374.19	40.5463
1375.77	41.3701
1377.36	40.4187
1378.94	40.9642
1380.52	41.7669
1382.11	41.7984
1383.69	41.7125
1385.27	41.6178
1386.85	41.5579
1388.43	41.1866
1390.02	41.6511
1391.6	42.4492
1393.18	43.0727
1394.76	41.6744
1396.34	41.6594
1397.92	41.8576
1399.5	41.6438
1401.08	43.289
1402.65	43.799
1404.23	44.3633
1405.81	45.4963
1407.39	45.9318
1408.97	47.195
1410.54	48.7766
1412.12	50.7584
1413.7	52.0417
1415.27	52.9863
1416.85	53.3756
1418.43	55.4629
1420	57.0893
1421.58	59.8703
1423.15	61.7108
1424.73	64.4139
1426.3	66.3698
1427.87	68.0376
1429.45	70.1676
1431.02	72.0409
1432.6	74.2155
1434.17	75.3169
1435.74	76.9773
1437.31	78.2854
1438.89	78.9737
1440.46	79.7392
1442.03	79.8534
1443.6	80.0118
1445.17	80.4464
1446.74	81.3796
1448.31	81.9556
1449.88	82.9086
1451.45	82.9254
1453.02	82.0592
1454.59	82.4664
1456.16	80.6242
1457.72	79.8796
1459.29	78.4098
1460.86	77.52
1462.43	75.4416
1463.99	73.2372
1465.56	71.3032
1467.13	69.5092
1468.69	67.5396
1470.26	65.0331
1471.83	62.2218
1473.39	59.104
1474.95	57.4976
1476.52	56.2465
1478.08	54.1714
1479.65	51.6072
1481.21	49.1983
1482.78	46.944
1484.34	44.4617
1485.9	42.4745
1487.47	40.5893
1489.03	38.9479
1490.59	37.549
1492.15	35.275
1493.71	33.6362
1495.27	32.8381
1496.84	32.7313
1498.39	32.2538
1499.96	30.5345
1501.52	28.7053
1503.07	28.6685
1504.64	27.0289
1506.19	26.4491
1507.75	25.0263
1509.31	24.0232
1510.87	22.8756
1512.43	21.1695
1513.98	20.1345
1515.54	18.1647
1517.1	17.1227
1518.65	16.7925
1520.21	16.2558
1521.77	15.8756
1523.32	16.334
1524.88	17.0642
1526.44	16.4823
1527.99	16.3238
1529.54	16.7242
1531.1	17.0373
1532.65	17.9451
1534.21	17.8417
1535.76	18.6458
1537.31	19.2218
1538.87	20.0463
1540.42	20.4595
1541.97	21.9026
1543.52	22.6762
1545.07	23.1855
1546.63	24.3355
1548.18	24.335
1549.73	25.1721
1551.28	26.5409
1552.83	27.8944
1554.38	28.2045
1555.93	28.3922
1557.48	28.4708
1559.03	29.4966
1560.57	28.9299
1562.12	29.428
1563.67	29.4057
1565.22	29.8896
1566.77	30.682
1568.31	30.735
1569.86	31.6195
1571.41	32.1335
1572.95	32.7794
1574.5	32.2224
1576.05	32.908
1577.59	32.6777
1579.14	33.7627
1580.68	34.1631
1582.23	33.3595
1583.77	33.7259
1585.31	33.6282
1586.86	34.566
1588.4	34.5043
1589.95	34.5229
1591.49	35.226
1593.03	36.0933
1594.57	36.9878
1596.11	37.6916
1597.66	37.658
1599.2	38.0443
1600.74	38.4553
1602.28	38.6551
1603.82	39.0232
1605.36	40.157
1606.9	40.7923
1608.44	41.3205
1609.98	41.6761
1611.52	42.0363
1613.06	41.9557
1614.6	42.6409
1616.13	44.0371
1617.67	44.4199
1619.21	45.4041
1620.75	45.1318
1622.28	45.414
1623.82	46.214
1625.36	46.3546
1626.89	47.9583
1628.43	49.3571
1629.96	49.7071
1631.5	49.7628
1633.04	50.7479
1634.57	51.1815
1636.11	52.1034
1637.64	51.9452
1639.17	53.3217
1640.71	53.6199
1642.24	54.6348
1643.77	55.6119
1645.31	57.1142
1646.84	58.0587
1648.37	58.3294
1649.9	58.5339
1651.43	58.577
1652.96	58.6425
1654.5	58.3494
1656.03	57.9838
1657.56	57.7323
1659.09	57.7101
1660.62	57.8108
1662.15	57.6767
1663.67	57.4579
1665.2	56.0435
1666.73	54.1174
1668.26	52.4595
1669.79	50.6959
1671.32	48.9876
1672.84	47.2417
1674.37	44.5948
1675.9	43.1778
1677.43	41.4059
1678.95	39.2654
1680.48	37.1566
1682	34.9758
1683.53	32.3812
1685.05	30.7814
1686.58	28.5585
1688.1	26.2212
1689.63	24.7957
1691.15	23.8779
1692.68	22.6365
1694.2	20.8934
1695.72	20.0993
1697.25	17.7939
1698.77	17.0219
1700.29	15.9934
1701.81	15.4385
1703.33	14.872
1704.86	14.133
1706.38	13.129
1707.9	12.2696
1709.42	12.3188
1710.94	11.6164
1712.46	11.8461
1713.98	11.1572
1715.5	11.6326
1717.02	11.4744
1718.54	11.4254
1720.06	11.9089
1721.57	12.6364
1723.09	12.683
1724.61	12.5821
1726.13	11.8782
1727.64	12.3032
1729.16	12.1307
1730.68	12.151
1732.19	12.3608
1733.71	12.7596
1735.23	12.4201
1736.74	11.8791
1738.26	11.2805
1739.77	10.5309
1741.29	9.67914
1742.8	9.10785
1744.31	9.18169
1745.83	8.84322
1747.34	8.33098
1748.85	8.09651
1750.37	7.25682
1751.88	7.45735
1753.39	7.05588
1754.91	6.60687
1756.42	6.34721
1757.93	6.13529
1759.44	5.77534
1760.95	5.29583
1762.46	4.58273
1763.97	4.15261
1765.48	4.07835
1766.99	3.55306
1768.5	2.76824
1770.01	2.08325
1771.52	1.87737
1773.03	0.848205
1774.54	0.804962
1776.04	0.291419
1777.55	0.0636924
1779.06	-0.677926
1780.57	-0.775872
1782.07	-0.755272
1783.58	-1.09005
1785.09	-0.548053
1786.59	-0.320891
1788.1	0.122734
1789.6	-0.0495547
1791.11	0.317922
1792.61	0.614524
1794.12	0.881857
1795.62	1.77376
1797.13	2.32162
1798.63	2.04914
1800.13	1.93617
1801.64	2.31949
1803.14	2.37282
1804.64	2.56917
1806.15	2.84785
1807.65	3.78944
1809.15	4.07269
1810.65	4.23554
1812.15	4.31075
1813.65	4.36351
1815.16	4.72874
1816.66	5.08781
1818.15	4.76361
1819.66	4.60221
1821.16	4.60186
1822.65	5.07596
1824.15	5.10499
1825.65	5.20987
1827.15	5.44266
1828.65	5.66995
1830.15	5.61577
1831.64	5.97126
1833.14	6.17585
1834.64	5.74331
1836.14	5.81554
1837.63	5.4085
1839.13	5.06591
1840.62	4.77308
1842.12	4.68263
1843.62	4.00678
1845.11	4.32929
1846.61	4.6588
1848.1	3.95117
1849.6	3.8369
1851.09	4.14667
1852.58	3.86437
1854.08	3.3292
1855.57	3.69402
1857.06	4.01855
1858.55	3.70005
1860.05	3.77689
1861.54	3.36594
1863.03	3.34735
1864.52	3.87153
1866.01	3.89612
1867.5	4.30121
1869	4.17183
1870.49	3.64217
1871.98	3.57673
1873.47	3.31339
1874.96	2.81657
1876.44	2.43789
1877.93	2.38773
1879.42	2.67608
1880.91	2.88293
1882.4	2.91933
1882.47	2.75685
1883.96	2.77681
1885.46	1.94007
1886.95	1.987
1888.44	2.19962
1889.94	2.00362
1891.43	1.83378
1892.93	2.11026
1894.42	2.5941
1895.91	3.16657
1897.4	3.78071
1898.89	4.71939
1900.39	4.28696
1901.88	4.56457
1903.37	4.74446
1904.86	5.14631
1906.35	5.01777
1907.84	4.52422
1909.33	4.53939
1910.82	4.09708
1912.31	3.91191
1913.8	4.32169
1915.29	3.87407
1916.77	3.80893
1918.26	4.64656
1919.75	4.2862
1921.24	3.54964
1922.73	4.02557
1924.21	3.69321
1925.7	3.17003
1927.19	2.87937
1928.67	3.242
1930.16	3.04421
1931.64	2.97069
1933.13	2.96691
1934.61	3.51807
1936.1	4.52116
1937.58	5.07778
1939.07	4.83089
1940.55	5.27126
1942.04	5.0652
1943.52	4.76992
1945	5.00394
1946.49	5.03462
1947.97	4.9275
1949.45	5.00127
1950.93	5.51989
1952.42	5.87935
1953.9	6.1451
1955.38	5.93872
1956.86	5.52278
1958.34	5.42262
1959.82	5.26638
1961.3	6.19786
1962.78	6.33361
1964.26	6.78176
1965.74	7.39752
1967.22	8.0367
1968.7	8.74463
1970.18	9.09212
1971.65	8.61752
1973.13	8.54454
1974.61	7.85121
1976.09	7.85719
1977.57	8.06122
1979.04	7.9589
1980.52	7.91992
1982	7.75724
1983.47	7.96548
1984.95	7.37597
1986.42	7.32815
1987.9	7.33258
1989.37	6.74156
1990.85	6.73263
1992.32	6.99921
1993.8	6.26633
1995.27	5.86481
1996.75	6.05175
1998.22	5.63024
1999.69	5.8499
2001.17	5.68447
2002.64	6.06228
2004.11	5.91713
2005.58	6.23853
2007.05	6.10501
2008.53	6.91066
2010	6.64799
2011.47	6.854
2012.94	6.69987
2014.41	7.00777
2015.88	6.3148
2017.35	6.14572
2018.82	5.79193
2020.29	5.60546
2021.76	5.59337
2023.23	5.31994
2024.7	5.60041
2026.16	5.29555
2027.63	5.58549
2029.1	6.08997
2030.57	6.34758
2032.03	6.50118
2033.5	6.65608
2034.97	6.56696
2036.44	7.00921
2037.9	7.57494
2039.37	8.16627
2040.83	8.49458
2042.3	8.88863
2043.76	8.86548
2045.23	8.39879
2046.69	8.52256
2048.16	8.18386
2049.62	8.49411
2051.08	9.46033
2052.55	9.8839
2054.01	10.2078
2055.47	10.4024
2056.94	10.5076
2058.4	10.6633
2059.86	10.9904
2061.32	10.5365
2062.79	9.78436
2064.25	9.81991
2065.71	9.81669
2067.17	10.256
2068.63	11.1635
2070.09	12.0533
2071.55	12.1554
2073.01	12.6817
2074.47	13.2159
2075.93	13.3932
2077.39	13.5712
2078.85	14.0008
2080.31	14.0468
2081.76	14.7413
2083.22	16.0069
2084.68	16.5442
2086.13	16.1901
2087.59	16.3509
2089.05	16.4851
2090.51	16.8178
2091.96	17.447
2093.42	18.2795
2094.87	19.572
2096.33	20.1174
2097.78	21.3372
2099.24	21.8651
2100.69	22.7754
2102.15	23.336
2103.6	23.8906
2105.06	25.2011
2106.51	25.8014
2107.96	26.7619
2109.42	28.0788
2110.87	29.3692
2112.32	30.088
2113.77	30.5348
2115.23	30.9385
2116.68	31.46
2118.13	31.9047
2119.58	33.2535
2121.03	34.7253
2122.48	36.5413
2123.93	38.1013
2125.38	38.6727
2126.83	39.8766
2128.28	40.9017
2129.73	41.6458
2131.18	42.4926
2132.63	43.731
2134.08	44.7363
2135.53	45.8829
2136.97	48.03
