#Acq. time (s)=	45
#Accumulations=	2
#Range (cm-¹)=	200...3150
#Windows=	2
#Auto scanning=	Off
#Autofocus=	Off
#Macrospot=	Off
#AutoExposure=	Off
#Spike filter=	Multiple accum.
#Delay time (s)=	0
#Binning=	1
#Readout mode=	Signal
#DeNoise=	Off
#ICS correction=	On
#Dark correction=	Off
#Inst. Process=	Off
#Detector Gain=	Best Dynamic Range
#Detector ADC=	20 kHz       
#Detector temperature (°C)=	-70.08
#Instrument=	LabRAM HR Evol
#Detector=	Synapse
#Objective=	x100
#Grating=	600 gr/mm
#ND Filter=	100%
#Laser (nm)=	532 
#Hole=	100.021
#Range=	Auto
#Laser Pol.=	No
#Raman. Pol.=	No
#Laser Pol. (°)=	-0.0007625
#Raman Pol. (°)=	89.9995
#Collection=	Microscope
#StageXY=	Marzhauser
#StageZ=	Marzhauser
#X (µm)=	-2527.8
#Y (µm)=	-15.3
#Z (µm)=	-10
#Full time(mm:ss)=	3:19
#Project=	
#Sample=	
#Site=	
#Title=	Mb_40_24_06_2x_45s_532 nm_x100_100%_600 gr_mm
#Remark=	
#Date=	14.07.2022 11:08
#Acquired=	14.07.2022 11:08:31
#Base:Fit=	10.08.2022 10:47:00
#Base:Sub=	10.08.2022 10:47:12
#Filter:Polynom=	16.08.2022 10:11:48
#AxisType[0]=Intens
#AxisUnit[0]=Cnt
#AxisType[1]=Spectr
#AxisUnit[1]=1/cm
200.554	39.3523
202.369	35.341
204.183	30.1284
205.999	26.1072
207.813	21.9881
209.626	19.0782
211.439	17.0634
213.253	14.5019
215.065	13.3804
216.877	11.8025
218.688	11.7142
220.5	11.3955
222.312	9.10651
224.123	6.4304
225.933	6.18075
227.742	5.57223
229.552	5.53582
231.361	3.30591
233.171	3.09773
234.98	3.3649
236.787	3.80363
238.595	3.75939
240.402	4.90714
242.209	4.48469
244.015	4.62931
245.822	5.00793
247.627	6.15163
249.435	7.38822
251.24	8.86004
253.045	10.3745
254.849	11.5405
256.653	11.2201
258.457	11.1315
260.26	10.0489
262.063	10.8834
263.866	10.7365
265.668	13.3216
267.47	13.9526
269.271	13.9338
271.073	12.5526
272.873	13.0692
274.674	13.03
276.474	11.9884
278.274	13.625
280.073	13.1403
281.872	12.5146
283.671	12.8639
285.47	13.7367
287.268	14.4801
289.065	14.4544
290.863	15.9268
292.66	14.5899
294.456	15.1904
296.253	15.0803
298.049	16.3067
299.844	16.96
301.637	17.682
303.432	17.8796
305.227	19.449
307.021	18.8885
308.815	18.973
310.609	18.2537
312.402	17.816
314.195	19.2271
315.987	20.9793
317.777	21.2159
319.569	21.8657
321.36	21.2235
323.151	23.4142
324.942	24.4708
326.733	25.6929
328.521	25.9895
330.31	26.7916
332.1	25.2942
333.889	25.4508
335.677	25.2646
337.464	25.3924
339.252	25.3984
341.039	25.8751
342.826	26.0791
344.611	25.0489
346.398	25.5636
348.184	25.644
349.97	25.6111
351.754	26.7514
353.539	27.1211
355.324	27.0444
357.106	24.5011
358.89	23.4666
360.674	21.719
362.455	22.6033
364.239	22.0565
366.021	20.2895
367.804	20.0811
369.584	19.2024
371.366	18.3439
373.145	18.6941
374.926	18.7802
376.707	18.3394
378.485	18.402
380.265	18.2723
382.045	17.3076
383.822	17.124
385.601	15.8198
387.378	16.7289
389.156	17.2237
390.934	15.6735
392.71	15.1142
394.487	14.1625
396.262	12.8837
398.038	12.6343
399.813	12.7307
401.588	12.3964
403.362	11.7083
405.137	11.7395
406.912	11.9146
408.685	12.5605
410.459	12.7113
412.23	14.3177
414.004	13.9162
415.775	13.1422
417.548	12.1617
419.318	12.4552
421.089	11.902
422.86	11.4616
424.63	12.3817
426.401	12.9387
428.17	13.3888
429.94	14.6983
431.708	14.5494
433.478	14.7587
435.245	15.2653
437.012	14.1929
438.781	14.4838
440.547	13.5681
442.315	13.8252
444.081	13.8638
445.846	13.7029
447.613	14.882
449.378	15.5721
451.142	17.1482
452.908	16.3036
454.672	15.0283
456.435	16.5652
458.2	17.5292
459.963	17.494
461.725	19.6468
463.489	19.8745
465.251	21.3859
467.012	21.9424
468.775	21.9263
470.536	21.3756
472.296	20.2838
474.056	20.0673
475.817	20.674
477.576	18.8382
479.335	17.508
481.094	18.0504
482.854	16.7627
484.612	16.3355
486.37	16.2397
488.127	15.1708
489.886	15.3315
491.642	16.374
493.398	16.9928
495.154	16.7434
496.91	15.3186
498.667	15.1653
500.422	14.8111
502.176	14.8874
503.93	14.5643
505.684	15.1498
507.438	16.4431
509.191	15.7401
510.946	15.0435
512.698	16.2775
514.45	15.0219
516.202	15.1996
517.954	16.5301
519.705	15.3541
521.456	14.3772
523.206	14.9397
524.956	15.7448
526.706	16.485
528.456	16.6641
530.207	17.9561
531.956	16.6347
533.704	15.5496
535.452	16.1647
537.2	16.9102
538.947	18.235
540.694	16.7537
542.441	17.0355
544.188	19.1266
545.934	20.6389
547.68	21.1358
549.425	22.3402
551.17	22.6505
552.915	23.6624
554.659	22.3182
556.403	21.8502
558.145	20.6733
559.889	20.0469
561.632	20.0946
563.375	19.2376
565.117	18.9654
566.859	19.3692
568.601	19.6094
570.342	19.1104
572.083	18.7103
573.824	17.7442
575.565	17.1385
577.303	17.0168
579.043	16.0381
580.782	14.8898
582.521	15.2972
584.26	15.9204
585.998	15.9024
587.734	15.4053
589.472	15.7617
591.21	13.3396
592.947	13.5657
594.684	13.4789
596.418	10.9606
598.154	10.1193
599.89	11.2157
601.626	9.1129
603.361	9.15627
605.094	8.71102
606.828	7.88004
608.562	8.64041
610.296	9.64145
612.027	8.61694
613.761	7.44425
615.493	6.58953
617.224	7.91439
618.956	7.33199
620.688	8.54723
622.419	9.04847
624.149	9.41096
625.879	8.80982
627.61	8.12749
629.338	9.44988
631.068	10.0044
632.797	11.1214
634.525	10.7495
636.254	10.564
637.98	11.4189
639.708	11.1751
641.436	11.6299
643.162	11.7927
644.889	12.8862
646.614	14.2374
648.34	15.0203
650.067	14.104
651.791	14.2445
653.516	13.7918
655.239	14.1932
656.964	14.1992
658.687	11.9657
660.411	11.9582
662.133	11.2225
663.857	9.67402
665.58	9.70196
667.301	10.2456
669.024	10.6136
670.744	11.1983
672.464	9.82944
674.186	10.2394
675.905	10.5808
677.626	10.4078
679.345	10.7553
681.065	11.4078
682.783	11.1105
684.503	11.7952
686.22	11.5922
687.939	9.58838
689.656	10.8068
691.372	12.0051
693.09	13.0937
694.806	13.8578
696.523	13.2202
698.239	13.6344
699.953	14.5399
701.67	14.9252
703.384	15.5065
705.098	14.3431
706.813	15.7604
708.526	17.1358
710.239	17.9287
711.954	17.7169
713.666	18.5401
715.378	18.6791
717.091	19.5937
718.802	20.1094
720.513	19.8838
722.226	19.8976
723.936	19.2456
725.646	18.4594
727.355	19.4035
729.067	19.0888
730.776	19.3931
732.484	19.7406
734.192	19.4171
735.902	18.8522
737.61	20.3694
739.317	21.8261
741.024	22.9108
742.731	22.8512
744.439	21.4148
746.145	24.332
747.851	24.5658
749.556	25.8676
751.262	28.1699
752.966	29.0355
754.673	29.9305
756.377	29.7481
758.081	29.6545
759.784	29.9767
761.487	31.5933
763.19	31.7298
764.892	30.8882
766.594	31.7804
768.296	31.1405
770	31.6051
771.701	31.647
773.402	32.2751
775.102	34.012
776.803	36.0803
778.503	37.1782
780.202	39.1118
781.901	39.3261
783.6	40.3283
785.299	41.797
786.997	43.759
788.695	45.8015
790.393	47.2209
792.09	48.7473
793.787	49.4973
795.484	50.001
797.18	50.282
798.877	51.1514
800.572	51.4745
802.268	53.2929
803.963	52.765
805.658	52.5951
807.35	52.4505
809.044	52.1222
810.738	52.9249
812.432	54.0805
814.125	53.8039
815.818	55.7277
817.51	55.6321
819.202	55.5297
820.894	57.0869
822.584	57.8263
824.275	58.4063
825.966	57.6775
827.657	56.7424
829.347	57.4575
831.037	59.5948
832.725	58.3752
834.414	58.3122
836.103	57.4736
837.792	56.657
839.481	56.0226
841.167	56.0567
842.854	56.4916
844.542	56.1842
846.229	56.3802
847.914	54.4974
849.6	53.4969
851.287	53.774
852.973	53.315
854.656	54.7898
856.341	55.1136
858.026	56.225
859.711	56.8137
861.393	56.582
863.077	56.9749
864.761	57.2928
866.442	56.4228
868.125	56.2899
869.808	57.2783
871.489	57.9609
873.171	56.9698
874.85	55.5724
876.532	54.8592
878.213	53.3084
879.892	52.0843
881.572	50.41
883.251	49.411
884.931	47.949
886.61	47.0921
888.287	44.0253
889.966	42.1115
891.643	40.8125
893.321	39.4873
894.997	38.8507
896.675	38.5609
898.352	36.7783
900.028	36.1909
901.704	34.1085
903.379	33.5721
905.055	33.3611
906.729	32.5113
908.404	31.7702
910.077	30.6287
911.75	30.5753
913.425	30.9312
915.097	30.1913
916.771	28.7445
918.443	28.4137
920.116	27.7628
921.787	28.0843
923.46	27.8394
925.13	28.5757
926.8	27.8307
928.472	28.4312
930.141	28.6715
931.813	28.5145
933.481	29.6717
935.15	30.4434
936.82	31.8673
938.488	33.4462
940.156	32.689
941.825	32.5939
943.492	31.4117
945.158	31.3685
946.827	32.1706
948.493	30.9257
950.158	31.0206
951.824	30.2781
953.491	30.2749
955.156	29.5553
956.82	26.1082
958.486	25.1733
960.15	24.7685
961.814	24.6647
963.477	24.7527
965.142	25.3551
966.804	25.0874
968.467	24.7429
970.129	25.466
971.79	25.349
973.454	25.4508
975.115	25.4461
976.776	26.3151
978.436	25.2553
980.096	24.6182
981.756	23.715
983.417	22.9337
985.077	21.3421
986.736	20.5852
988.394	20.5862
990.052	20.0995
991.71	18.7092
993.368	18.5111
995.025	18.3586
996.682	17.5777
998.341	15.9709
999.998	14.7985
1001.65	14.7171
1003.31	14.9715
1004.97	14.664
1006.62	14.2127
1008.28	14.0042
1009.93	14.0362
1011.58	14.8891
1013.24	16.3435
1014.89	16.2175
1016.54	17.4691
1018.2	17.6971
1019.85	19.6298
1021.5	20.5436
1023.16	21.4769
1024.81	21.9895
1026.46	22.7952
1028.11	24.586
1029.76	26.2321
1031.41	26.1719
1033.06	27.6292
1034.71	27.1327
1036.36	27.891
1038.01	28.2977
1039.66	29.2013
1041.31	31.5826
1042.95	32.3069
1044.6	33.6304
1046.25	34.1371
1047.9	34.6751
1049.54	34.6785
1051.19	35.2228
1052.84	34.5698
1054.48	33.5091
1056.13	31.8764
1057.77	31.4792
1059.42	30.6639
1061.06	28.2778
1062.71	26.3438
1064.35	24.9162
1066	23.8303
1067.64	22.8685
1069.28	21.9277
1070.93	20.9224
1072.57	19.3091
1074.21	17.3517
1075.85	16.229
1077.49	14.3916
1079.13	12.3724
1080.78	10.6591
1082.42	10.7929
1084.06	9.21132
1085.7	8.00617
1087.34	6.3978
1088.97	5.66662
1090.61	5.33584
1092.25	5.01552
1093.89	5.68972
1095.53	5.79346
1097.17	4.67551
1098.8	5.5483
1100.44	5.77847
1102.08	6.62064
1103.71	6.05782
1105.35	5.41521
1106.99	4.99776
1108.62	5.46787
1110.26	5.08814
1111.89	4.015
1113.52	3.6154
1115.16	3.86243
1116.79	3.00285
1118.43	3.14722
1120.06	3.22124
1121.69	3.27381
1123.32	1.82644
1124.96	2.21205
1126.59	2.11344
1128.22	2.48918
1129.85	2.17402
1131.48	1.79053
1133.11	1.29988
1134.75	0.0916176
1136.37	-0.367427
1138	-0.0186994
1139.63	0.147623
1141.26	-0.406727
1142.89	-0.188162
1144.52	0.304619
1146.15	2.4733
1147.78	3.60431
1149.4	1.98146
1151.03	2.78825
1152.66	3.61254
1154.28	3.80086
1155.91	3.61563
1157.54	3.71456
1159.16	3.27536
1160.79	3.72198
1162.41	4.3624
1164.04	3.65856
1165.66	2.60317
1167.29	3.34375
1168.91	3.32311
1170.53	3.7557
1172.16	3.55144
1173.78	3.02491
1175.4	3.70172
1177.02	3.2051
1178.65	4.06714
1180.27	3.96819
1181.89	3.87248
1183.51	3.29687
1185.13	3.36941
1186.75	3.57363
1188.37	3.08295
1189.99	3.0079
1191.61	3.29945
1193.23	2.79036
1194.85	2.18726
1196.47	1.26638
1198.08	1.18017
1199.7	0.432186
1201.32	0.973296
1202.94	2.14926
1204.55	3.74103
1206.17	5.35733
1207.79	5.27654
1209.4	6.28366
1211.02	5.65211
1212.63	5.32193
1214.25	5.8874
1215.86	5.88869
1217.48	7.0934
1219.09	8.84668
1220.71	9.17969
1222.32	9.99551
1223.93	10.2851
1225.54	11.892
1227.16	13.031
1228.77	13.5664
1230.38	13.649
1231.99	15.6232
1233.6	16.2446
1235.22	16.4067
1236.83	17.2283
1238.44	19.1602
1240.05	20.9142
1241.66	22.9652
1243.26	24.6698
1244.87	26.0666
1246.48	27.7264
1248.09	29.0065
1249.7	30.5131
1251.31	31.9793
1252.92	32.0993
1254.52	32.8917
1256.13	33.9303
1257.74	34.0827
1259.34	35.6604
1260.95	35.7372
1262.55	38.2755
1264.16	39.2203
1265.76	40.3849
1267.37	41.4531
1268.97	42
1270.58	44.3202
1272.18	45.2916
1273.78	45.3115
1275.39	45.9775
1276.99	47.7255
1278.59	49.1654
1280.2	51.0108
1281.8	53.0693
1283.4	54.7885
1285	56.672
1286.6	56.5738
1288.2	57.2701
1289.8	57.1706
1291.4	57.5495
1293	59.0653
1294.6	59.7975
1296.2	60.2466
1297.8	60.7717
1299.4	60.7263
1301	61.1763
1302.6	61.2789
1304.19	61.8302
1305.79	62.1572
1307.39	61.8002
1308.99	61.6628
1310.58	61.0928
1312.18	60.8064
1313.77	61.4352
1315.37	61.6041
1316.96	62.4231
1318.56	62.6255
1320.15	61.6072
1321.75	61.0934
1323.34	60.0434
1324.94	60.6986
1326.53	59.5938
1328.12	58.2209
1329.72	56.6269
1331.31	55.3508
1332.9	53.9351
1334.49	53.0773
1336.08	53.0028
1337.67	52.6476
1339.27	52.6881
1340.86	51.8189
1342.45	51.4842
1344.04	50.2794
1345.63	49.6953
1347.22	49.3684
1348.8	48.5143
1350.39	48.2021
1351.98	46.0828
1353.57	45.2945
1355.16	44.1756
1356.75	45.0197
1358.33	44.9228
1359.92	45.8019
1361.51	45.9473
1363.09	46.0409
1364.68	45.6876
1366.27	45.34
1367.85	46.124
1369.44	46.5741
1371.02	48.7347
1372.61	49.2671
1374.19	49.5019
1375.77	48.8697
1377.36	49.5663
1378.94	50.1993
1380.52	51.214
1382.11	51.6445
1383.69	52.5852
1385.27	52.0759
1386.85	53.3992
1388.43	54.5807
1390.02	55.6308
1391.6	57.0742
1393.18	58.0252
1394.76	59.4076
1396.34	59.9223
1397.92	60.6559
1399.5	61.5073
1401.08	63.8454
1402.65	64.2282
1404.23	66.9103
1405.81	66.0041
1407.39	67.1458
1408.97	67.9875
1410.54	70.1729
1412.12	71.1657
1413.7	72.8643
1415.27	74.8647
1416.85	75.5476
1418.43	77.7225
1420	80.1525
1421.58	82.7031
1423.15	84.3312
1424.73	85.6061
1426.3	87.3525
1427.87	87.5127
1429.45	88.7658
1431.02	90.2872
1432.6	92.8665
1434.17	93.7126
1435.74	95.9327
1437.31	96.6916
1438.89	98.4151
1440.46	100.135
1442.03	100.824
1443.6	102.327
1445.17	102.933
1446.74	102.719
1448.31	101.293
1449.88	100.642
1451.45	100.296
1453.02	99.9092
1454.59	98.0844
1456.16	98.3102
1457.72	96.9805
1459.29	96.5656
1460.86	94.6068
1462.43	93.7692
1463.99	92.0682
1465.56	91.1158
1467.13	88.3306
1468.69	85.4529
1470.26	82.2276
1471.83	79.6984
1473.39	77.0099
1474.95	73.5579
1476.52	70.4891
1478.08	66.9406
1479.65	62.7375
1481.21	58.0083
1482.78	55.1624
1484.34	51.7243
1485.9	50.0146
1487.47	46.4259
1489.03	44.6285
1490.59	40.739
1492.15	39.632
1493.71	37.1455
1495.27	34.3983
1496.84	33.2221
1498.39	30.9437
1499.96	29.0954
1501.52	26.5213
1503.07	25.0959
1504.64	22.9705
1506.19	21.1399
1507.75	20.9961
1509.31	20.8989
1510.87	19.9801
1512.43	18.2011
1513.98	18.0514
1515.54	18.6988
1517.1	18.7307
1518.65	20.0127
1520.21	19.7294
1521.77	19.2337
1523.32	19.2969
1524.88	20.1409
1526.44	21.8703
1527.99	23.7979
1529.54	25.8402
1531.1	26.4563
1532.65	28.1944
1534.21	30.578
1535.76	32.0687
1537.31	33.1295
1538.87	34.6461
1540.42	37.3276
1541.97	37.7737
1543.52	37.2783
1545.07	37.0939
1546.63	38.6547
1548.18	40.1783
1549.73	41.0055
1551.28	40.8267
1552.83	41.5421
1554.38	41.7511
1555.93	41.6378
1557.48	42.468
1559.03	43.6174
1560.57	44.2467
1562.12	46.5537
1563.67	46.8735
1565.22	47.9201
1566.77	49.2962
1568.31	49.5074
1569.86	50.7875
1571.41	51.1473
1572.95	51.619
1574.5	53.7515
1576.05	54.172
1577.59	56.0011
1579.14	56.6136
1580.68	57.827
1582.23	58.7481
1583.77	60.1242
1585.31	62.0483
1586.86	63.2125
1588.4	64.0226
1589.95	65.1518
1591.49	66.6651
1593.03	68.4799
1594.57	69.6213
1596.11	71.1958
1597.66	71.196
1599.2	70.5231
1600.74	71.2483
1602.28	71.4271
1603.82	71.8362
1605.36	71.5676
1606.9	72.4872
1608.44	72.7082
1609.98	72.0489
1611.52	71.6991
1613.06	71.9224
1614.6	73.0838
1616.13	74.4879
1617.67	74.5505
1619.21	72.4022
1620.75	72.8085
1622.28	72.5335
1623.82	72.4925
1625.36	72.0187
1626.89	70.4173
1628.43	70.3315
1629.96	70.5572
1631.5	70.1985
1633.04	70.3416
1634.57	69.9049
1636.11	69.7744
1637.64	69.9189
1639.17	71.1068
1640.71	69.9647
1642.24	70.118
1643.77	68.9251
1645.31	67.8351
1646.84	66.8468
1648.37	67.4193
1649.9	67.4547
1651.43	67.6416
1652.96	67.0871
1654.5	67.0312
1656.03	65.8099
1657.56	64.5957
1659.09	63.545
1660.62	62.8817
1662.15	63.1591
1663.67	62.6103
1665.2	61.8844
1666.73	60.0924
1668.26	58.7106
1669.79	57.9072
1671.32	57.1504
1672.84	55.1752
1674.37	53.4515
1675.9	51.9927
1677.43	50.9364
1678.95	50.1315
1680.48	49.5362
1682	48.736
1683.53	48.2889
1685.05	46.9723
1686.58	45.0832
1688.1	44.5222
1689.63	43.9532
1691.15	42.3148
1692.68	41.157
1694.2	39.947
1695.72	38.069
1697.25	37.2177
1698.77	34.8754
1700.29	34.612
1701.81	33.8365
1703.33	32.1304
1704.86	30.4723
1706.38	29.787
1707.9	28.8421
1709.42	26.9728
1710.94	24.6096
1712.46	24.2908
1713.98	23.1799
1715.5	21.3608
1717.02	20.1874
1718.54	18.6347
1720.06	17.4544
1721.57	17.2168
1723.09	16.3269
1724.61	15.7161
1726.13	14.7655
1727.64	13.7322
1729.16	12.2581
1730.68	11.2906
1732.19	10.0743
1733.71	9.5274
1735.23	10.1411
1736.74	9.57722
1738.26	9.38039
1739.77	8.94105
1741.29	7.7017
1742.8	7.11381
1744.31	6.96732
1745.83	6.62349
1747.34	6.31014
1748.85	5.81958
1750.37	5.55788
1751.88	4.95101
1753.39	4.5186
1754.91	4.89091
1756.42	4.93489
1757.93	4.93218
1759.44	4.44219
1760.95	3.46317
1762.46	2.54413
1763.97	3.12525
1765.48	3.54548
1766.99	3.52205
1768.5	4.20326
1770.01	3.40273
1771.52	3.12375
1773.03	2.34896
1774.54	2.73531
1776.04	2.9274
1777.55	1.85537
1779.06	1.06884
1780.57	0.687605
1782.07	1.4445
1783.58	0.804762
1785.09	0.335851
1786.59	0.540141
1788.1	1.63124
1789.6	1.71358
1791.11	1.33656
1792.61	1.83885
1794.12	1.50448
1795.62	2.15201
1797.13	2.64496
1798.63	2.28342
1800.13	2.32559
1801.64	2.34171
1803.14	2.69391
1804.64	2.61733
1806.15	3.47613
1807.65	3.55208
1809.15	3.85834
1810.65	3.62144
1812.15	2.65709
1813.65	3.13934
1815.16	3.26566
1816.66	3.51671
1818.15	3.85104
1819.66	3.57812
1821.16	3.42363
1822.65	3.9473
1824.15	4.02899
1825.65	4.04818
1827.15	4.27762
1828.65	5.31192
1830.15	5.82764
1831.64	6.10791
1833.14	5.72081
1834.64	5.13557
1836.14	4.06761
1837.63	3.98768
1839.13	4.75687
1840.62	4.68992
1842.12	4.61452
1843.62	4.19231
1845.11	4.11914
1846.61	4.42598
1848.1	3.89609
1849.6	4.78552
1851.09	4.39261
1852.58	3.36484
1854.08	3.27101
1855.57	3.63805
1857.06	3.9552
1858.55	3.71724
1860.05	3.44525
1861.54	3.49433
1863.03	3.70702
1864.52	3.44281
1866.01	3.12859
1867.5	3.234
1869	3.35963
1870.49	3.36858
1871.98	3.53088
1873.47	4.33435
1874.96	4.86501
1876.44	4.71589
1877.93	4.35524
1879.42	4.09654
1880.91	3.96124
1882.4	3.91923
1882.47	3.78204
1883.96	3.39539
1885.46	4.07752
1886.95	5.12013
1888.44	6.03041
1889.94	5.93733
1891.43	5.61498
1892.93	5.52014
1894.42	6.25268
1895.91	6.71235
1897.4	7.06734
1898.89	7.06676
1900.39	7.20955
1901.88	7.26165
1903.37	6.10788
1904.86	5.29813
1906.35	4.48265
1907.84	4.00227
1909.33	3.76868
1910.82	5.22604
1912.31	5.03244
1913.8	5.42154
1915.29	5.23276
1916.77	5.33121
1918.26	5.90833
1919.75	6.14331
1921.24	5.94097
1922.73	5.72497
1924.21	5.86221
1925.7	5.90384
1927.19	6.19302
1928.67	6.40506
1930.16	5.19974
1931.64	4.19967
1933.13	3.60149
1934.61	3.45751
1936.1	3.34117
1937.58	3.08093
1939.07	2.75125
1940.55	3.24978
1942.04	3.81481
1943.52	4.52221
1945	5.52481
1946.49	5.51534
1947.97	4.08431
1949.45	3.5457
1950.93	4.59195
1952.42	5.38602
1953.9	5.48027
1955.38	5.43464
1956.86	5.48268
1958.34	5.2274
1959.82	5.29094
1961.3	5.30024
1962.78	4.70781
1964.26	3.57111
1965.74	2.82522
1967.22	1.98655
1968.7	2.0126
1970.18	1.46014
1971.65	1.61667
1973.13	1.17783
1974.61	1.18677
1976.09	-0.0410636
1977.57	-0.341772
1979.04	0.203867
1980.52	0.397854
1982	0.689973
1983.47	1.36737
1984.95	1.97578
1986.42	1.85099
1987.9	2.47396
1989.37	3.13964
1990.85	2.7914
1992.32	3.32478
1993.8	3.51246
1995.27	3.93579
1996.75	4.23757
1998.22	4.24893
1999.69	3.6533
2001.17	2.30122
2002.64	2.79833
2004.11	2.67414
2005.58	3.37953
2007.05	3.78232
2008.53	4.36321
2010	4.44012
2011.47	3.82983
2012.94	3.82901
2014.41	5.11327
2015.88	5.14985
2017.35	4.87115
2018.82	4.84928
2020.29	3.8163
2021.76	3.25491
2023.23	4.18842
2024.7	4.31756
2026.16	3.17809
2027.63	3.87083
2029.1	3.97167
2030.57	4.98659
2032.03	5.28917
2033.5	5.62125
2034.97	6.15641
2036.44	6.1354
2037.9	6.24903
2039.37	6.16086
2040.83	7.58143
2042.3	8.80037
2043.76	9.65651
2045.23	10.9993
2046.69	11.088
2048.16	11.8532
2049.62	12.3928
2051.08	13.8446
2052.55	14.4067
2054.01	14.535
2055.47	15.3097
2056.94	17.1481
2058.4	17.8097
2059.86	17.5888
2061.32	17.4018
2062.79	18.0841
2064.25	17.9073
2065.71	18.9109
2067.17	18.8509
2068.63	19.3819
2070.09	19.6438
2071.55	19.2196
2073.01	19.4571
2074.47	19.3585
2075.93	20.159
2077.39	20.6684
2078.85	20.4334
2080.31	20.4841
2081.76	20.7747
2083.22	20.9194
2084.68	20.3227
2086.13	20.8541
2087.59	20.8176
2089.05	20.9786
2090.51	20.2016
2091.96	20.3083
2093.42	20.1033
2094.87	21.2274
2096.33	22.3407
2097.78	22.8748
2099.24	23.6923
2100.69	24.3206
2102.15	24.0574
2103.6	24.7194
2105.06	24.609
2106.51	24.9459
2107.96	25.4912
2109.42	26.0387
2110.87	26.2925
2112.32	26.9104
2113.77	27.8293
2115.23	28.5423
2116.68	29.3668
2118.13	30.1173
2119.58	29.9345
2121.03	30.8543
2122.48	30.6123
2123.93	31.3782
2125.38	31.3116
2126.83	32.2227
2128.28	33.2675
2129.73	34.1952
2131.18	33.1998
2132.63	33.5548
2134.08	34.9694
2135.53	36.336
