#Acq. time (s)=	45
#Accumulations=	2
#Range (cm-¹)=	200...3150
#Windows=	2
#Auto scanning=	Off
#Autofocus=	Off
#Macrospot=	Off
#AutoExposure=	Off
#Spike filter=	Multiple accum.
#Delay time (s)=	0
#Binning=	1
#Readout mode=	Signal
#DeNoise=	Off
#ICS correction=	On
#Dark correction=	Off
#Inst. Process=	Off
#Detector Gain=	Best Dynamic Range
#Detector ADC=	20 kHz       
#Detector temperature (°C)=	-69.85
#Instrument=	LabRAM HR Evol
#Detector=	Synapse
#Objective=	x100
#Grating=	600 gr/mm
#ND Filter=	100%
#Laser (nm)=	532 
#Hole=	100.021
#Range=	Auto
#Laser Pol.=	No
#Raman. Pol.=	No
#Laser Pol. (°)=	-0.0007625
#Raman Pol. (°)=	89.9995
#Collection=	Microscope
#StageXY=	Marzhauser
#StageZ=	Marzhauser
#X (µm)=	19343.2
#Y (µm)=	3069.8
#Z (µm)=	1047.55
#Full time(mm:ss)=	3:18
#Project=	
#Sample=	
#Site=	
#Title=	Mb_50_18_06_2x_45s_532 nm_x100_100%_600 gr_mm
#Remark=	
#Date=	12.07.2022 10:39
#Acquired=	12.07.2022 10:39:48
#Base:Fit=	10.08.2022 10:49:18
#Base:Sub=	10.08.2022 10:49:30
#Filter:Polynom=	16.08.2022 10:14:59
#AxisType[0]=Intens
#AxisUnit[0]=Cnt
#AxisType[1]=Spectr
#AxisUnit[1]=1/cm
200.388	12.1145
202.204	12.2801
204.019	12.3135
205.832	11.2575
207.646	10.3321
209.459	9.16502
211.274	8.35728
213.087	7.22464
214.899	6.52158
216.711	6.09301
218.524	5.40548
220.335	5.5384
222.146	6.07067
223.956	5.78373
225.766	5.53862
227.576	4.99747
229.388	5.17909
231.197	4.9818
233.005	4.87408
234.813	5.12594
236.621	5.83706
238.429	6.75975
240.236	6.68389
242.045	7.45045
243.852	8.08062
245.658	8.46812
247.464	7.97996
249.269	8.28825
251.074	7.89626
252.879	7.70596
254.683	8.16528
256.487	9.41054
258.291	9.98308
260.094	9.87438
261.897	11.0857
263.702	11.0812
265.504	10.4175
267.306	10.1649
269.108	10.3298
270.909	10.4569
272.71	10.6115
274.511	10.4875
276.311	10.3773
278.111	12.2564
279.91	13.7621
281.709	14.1847
283.508	14.4508
285.306	15.2368
287.105	15.5789
288.9	15.8277
290.698	15.9711
292.495	16.1099
294.291	15.4644
296.088	15.6993
297.884	16.2548
299.679	17.1106
301.475	17.4772
303.27	17.3832
305.064	17.4527
306.858	16.7291
308.652	16.8689
310.444	17.4234
312.237	17.3177
314.03	16.7226
315.822	17.0658
317.615	17.3147
319.406	18.3044
321.198	17.6509
322.987	17.3275
324.778	16.4582
326.568	15.9515
328.358	14.8257
330.148	14.2417
331.935	13.3885
333.724	11.778
335.513	10.5925
337.301	9.39986
339.089	8.6842
340.875	8.11628
342.662	7.04453
344.449	7.20059
346.236	8.11212
348.02	7.80103
349.806	7.24423
351.592	8.28683
353.375	8.1157
355.16	8.27298
356.944	8.75954
358.728	9.28278
360.51	9.6188
362.294	11.2837
364.077	12.692
365.858	14.1705
367.64	16.8818
369.422	18.4131
371.202	19.3062
372.983	20.6705
374.764	21.4514
376.543	22.1469
378.324	22.6526
380.102	22.8875
381.881	23.3027
383.661	23.0133
385.438	24.1082
387.216	24.5398
388.993	24.3234
390.771	24.1866
392.548	23.2634
394.324	22.982
396.101	22.5955
397.875	23.8105
399.651	23.3672
401.425	22.4822
403.201	22.2263
404.974	21.3225
406.749	20.7623
408.524	18.8908
410.296	16.8217
412.07	15.4795
413.841	13.9382
415.614	13.3842
417.385	12.6033
419.156	12.612
420.928	12.1982
422.698	11.1613
424.469	9.84554
426.238	8.91904
428.009	8.15779
429.777	8.54394
431.548	7.70715
433.315	7.72285
435.083	8.31634
436.852	8.01828
438.618	7.94021
440.387	8.4916
442.153	8.62825
443.919	7.77425
445.686	8.29085
447.451	8.51384
449.218	9.3679
450.982	10.5192
452.746	10.8942
454.512	10.6705
456.275	11.0675
458.038	11.188
459.803	11.274
461.565	11.5903
463.327	11.6474
465.091	11.9725
466.852	11.4134
468.613	10.9727
470.374	12.0792
472.136	12.7658
473.896	13.6811
475.655	14.3719
477.415	15.4751
479.176	15.6665
480.934	16.7936
482.692	17.9023
484.45	18.9544
486.21	20.8636
487.967	21.5416
489.724	22.2842
491.481	25.0923
493.237	26.1
494.995	27.2661
496.75	28.5883
498.506	30.6254
500.26	32.0469
502.015	33.8662
503.771	35.5054
505.525	36.6528
507.279	37.3574
509.032	37.152
510.785	36.5755
512.537	37.5018
514.289	38.695
516.041	39.6759
517.793	39.3425
519.546	39.2331
521.297	38.7892
523.047	38.9738
524.797	38.373
526.547	37.1974
528.297	36.2015
530.046	34.6876
531.795	33.309
533.543	33.2077
535.291	32.2217
537.039	30.6346
538.787	29.0936
540.534	27.6479
542.281	26.4669
544.027	25.0596
545.773	23.9671
547.519	22.6534
549.264	20.9164
551.01	19.6781
552.754	18.5326
554.499	17.0258
556.243	16.5391
557.987	16.6364
559.73	15.8074
561.474	15.8361
563.216	15.48
564.959	14.7485
566.701	12.8652
568.441	12.561
570.182	11.5201
571.923	10.967
573.664	11.1683
575.405	10.756
577.145	10.2495
578.885	11.3764
580.624	10.0963
582.361	9.64666
584.1	10.7693
585.839	10.2592
587.577	9.9019
589.315	9.836
591.052	8.83951
592.787	8.18085
594.524	7.95994
596.26	8.19297
597.997	8.69488
599.732	7.98193
601.466	7.81836
603.201	8.4103
604.936	7.65581
606.67	8.48354
608.403	8.92014
610.136	9.4519
611.87	9.84392
613.603	10.3568
615.334	10.9375
617.067	10.1535
618.799	10.9174
620.529	11.1122
622.26	10.3259
623.991	10.051
625.72	10.4844
627.451	11.4437
629.181	11.7923
630.909	10.7837
632.638	10.0679
634.368	9.66264
636.095	9.55175
637.823	9.88548
639.551	9.59005
641.277	8.8679
643.005	9.37578
644.73	10.0598
646.457	9.68976
648.184	9.60354
649.908	8.81056
651.634	8.41006
653.357	8.79633
655.083	9.55632
656.806	9.84068
658.53	11.2253
660.253	12.0437
661.977	12.4455
663.7	12.8839
665.422	14.2142
667.145	13.9976
668.865	15.0757
670.588	15.5405
672.308	15.3787
674.027	16.326
675.749	17.1958
677.468	18.6752
679.188	20.2187
680.907	21.3176
682.627	23.0294
684.345	24.3092
686.064	25.248
687.781	27.033
689.498	28.225
691.216	28.3123
692.932	29.0144
694.65	30.8176
696.366	31.0453
698.081	31.9071
699.797	31.8755
701.512	32.4048
703.228	32.1883
704.942	32.9009
706.655	33.5834
708.371	34.1914
710.083	34.8485
711.796	34.8007
713.51	33.9101
715.222	32.537
716.934	31.8216
718.645	31.6849
720.358	31.9644
722.068	32.751
723.779	33.3554
725.49	34.1097
727.2	34.4632
728.909	35.5862
730.618	36.7849
732.329	36.8432
734.037	38.3628
735.745	41.1162
737.453	43.0527
739.16	44.7094
740.869	46.725
742.576	49.0925
744.282	51.9826
745.988	53.7845
747.694	57.5242
749.401	60.0155
751.107	62.7376
752.811	64.4127
754.516	66.831
756.22	68.4936
757.924	71.4808
759.627	73.6296
761.332	75.2748
763.035	77.773
764.738	77.9014
766.44	79.0796
768.142	81.4075
769.843	81.766
771.544	82.311
773.245	83.4097
774.946	84.2407
776.646	84.8942
778.346	85.8745
780.046	87.3637
781.745	87.4647
783.444	88.7362
785.143	88.4241
786.841	87.3385
788.539	86.7343
790.237	86.4415
791.934	86.1185
793.631	84.5087
795.328	82.6182
797.024	81.1716
798.72	80.2721
800.416	79.9914
802.112	79.4347
803.807	78.7406
805.502	77.5166
807.196	76.4899
808.89	75.4709
810.584	74.7048
812.278	73.5118
813.971	72.2545
815.664	71.6357
817.354	71.2569
819.047	71.7136
820.739	72.676
822.43	71.8087
824.122	71.4081
825.813	72.3161
827.503	71.3263
829.192	71.9273
830.882	71.6346
832.571	71.2092
834.261	70.3734
835.95	68.9241
837.637	67.3857
839.325	66.6857
841.013	65.6324
842.701	64.8587
844.389	63.6732
846.074	62.692
847.761	62.8228
849.447	61.9945
851.131	61.3983
852.817	61.1464
854.503	60.3948
856.188	59.6945
857.871	59.3266
859.556	58.7159
861.24	57.9663
862.922	57.1775
864.606	56.2098
866.289	55.3696
867.97	54.6624
869.653	53.7485
871.336	53.5002
873.016	54.5499
874.698	53.6299
876.379	53.0742
878.058	52.9141
879.739	52.6211
881.418	53.0246
883.098	52.8838
884.778	53.2765
886.456	52.4596
888.135	51.5697
889.812	49.4238
891.49	49.309
893.167	49.6369
894.845	49.094
896.523	48.444
898.198	47.7902
899.875	47.5551
901.55	47.8138
903.226	48.076
904.901	47.8462
906.576	47.1776
908.25	46.6092
909.925	46.6667
911.598	46.0551
913.271	46.2175
914.945	45.2461
916.617	44.2583
918.291	43.8533
919.962	42.7082
921.635	41.6119
923.306	41.7543
924.978	41.5066
926.648	40.9093
928.318	39.6234
929.989	38.6343
931.659	38.8166
933.328	37.5311
934.998	36.3699
936.666	36.1196
938.336	35.2279
940.004	34.0144
941.671	34.1934
943.34	33.2354
945.007	32.8796
946.673	32.5255
948.339	32.3211
950.007	32.1745
951.672	32.7604
953.337	32.472
955.004	31.7336
956.669	31.3332
958.333	30.3396
959.997	30.2143
961.662	29.5405
963.326	29.0217
964.989	29.3905
966.651	28.4225
968.315	28.7178
969.977	27.7418
971.639	28.1817
973.301	28.6385
974.962	30.8875
976.624	30.8529
978.285	31.0599
979.945	31.0617
981.605	31.1934
983.264	32.2752
984.924	33.2862
986.583	32.7234
988.243	32.425
989.901	32.1647
991.56	31.8506
993.217	33.1608
994.875	33.8438
996.532	33.4844
998.188	34.5017
999.845	35.0978
1001.5	36.3329
1003.16	37.938
1004.81	38.7452
1006.47	41.1393
1008.12	42.3795
1009.78	42.7456
1011.43	43.9229
1013.09	45.1336
1014.74	46.3836
1016.39	46.3369
1018.05	47.3813
1019.7	47.9204
1021.35	49.0871
1023	49.8586
1024.65	50.2267
1026.31	50.0364
1027.96	51.1854
1029.61	50.9747
1031.26	51.185
1032.91	50.8875
1034.56	50.2043
1036.21	49.1884
1037.86	49.2061
1039.51	49.265
1041.16	48.7691
1042.8	47.8166
1044.45	46.8322
1046.1	46.0338
1047.75	45.5458
1049.39	44.5789
1051.04	44.3027
1052.69	43.7813
1054.33	43.2387
1055.98	41.7896
1057.62	40.1411
1059.27	37.7597
1060.91	36.4498
1062.56	34.4445
1064.2	33.3198
1065.85	31.9491
1067.49	30.2798
1069.13	28.2648
1070.77	27.5942
1072.42	27.2165
1074.06	26.7253
1075.7	26.2461
1077.34	24.9752
1078.98	24.5148
1080.62	24.4044
1082.27	23.4391
1083.91	24.2381
1085.55	23.5792
1087.18	22.7961
1088.82	22.5256
1090.46	22.0924
1092.1	21.9914
1093.74	23.1131
1095.38	23.3389
1097.02	23.4708
1098.65	23.348
1100.29	23.7981
1101.93	24.0959
1103.56	24.1943
1105.2	24.1453
1106.84	24.1768
1108.47	23.3847
1110.11	23.2065
1111.74	22.418
1113.38	22.023
1115.01	20.5495
1116.64	19.8939
1118.28	19.7395
1119.91	19.8041
1121.54	18.8194
1123.18	17.0744
1124.81	15.8105
1126.44	15.4038
1128.07	15.3917
1129.7	14.7966
1131.33	14.291
1132.97	12.962
1134.6	12.65
1136.23	12.688
1137.86	11.9408
1139.49	12.2345
1141.11	11.8848
1142.74	11.9496
1144.37	10.7203
1146	11.0385
1147.63	10.6289
1149.26	9.97268
1150.88	8.73672
1152.51	8.19937
1154.14	7.11944
1155.76	6.16937
1157.39	5.52935
1159.01	5.29407
1160.64	5.25328
1162.27	4.5348
1163.89	5.06216
1165.51	4.93056
1167.14	4.47464
1168.76	5.22838
1170.39	5.90599
1172.01	6.58546
1173.63	7.85851
1175.25	8.5881
1176.88	7.83434
1178.5	7.08305
1180.12	7.00963
1181.74	6.47709
1183.36	6.94117
1184.98	6.13304
1186.6	5.9814
1188.22	5.29337
1189.84	4.23354
1191.46	4.32309
1193.08	3.51387
1194.7	3.75178
1196.32	3.81983
1197.94	4.50482
1199.55	3.92327
1201.17	4.70687
1202.79	3.38155
1204.41	3.46903
1206.02	4.08474
1207.64	4.52957
1209.25	5.4819
1210.87	6.29816
1212.48	7.74826
1214.1	8.40026
1215.71	11.0206
1217.33	12.1452
1218.94	12.6786
1220.56	14.0569
1222.17	14.842
1223.79	16.6869
1225.4	17.8205
1227.01	19.7166
1228.62	20.5914
1230.23	21.5443
1231.85	22.7708
1233.46	24.0745
1235.07	26.2862
1236.68	28.6917
1238.29	30.7515
1239.9	32.7993
1241.51	34.5481
1243.12	35.5666
1244.73	36.5673
1246.34	36.9546
1247.94	39.3271
1249.55	39.9952
1251.16	40.9756
1252.77	42.1072
1254.37	43.1315
1255.98	43.828
1257.59	43.7278
1259.2	44.7697
1260.8	45.9979
1262.41	46.5271
1264.01	47.4436
1265.62	48.0114
1267.22	48.4337
1268.83	48.3463
1270.43	49.4869
1272.03	49.9892
1273.64	50.2902
1275.24	50.9687
1276.85	50.9466
1278.45	51.4223
1280.05	51.1247
1281.65	52.8722
1283.25	52.7528
1284.85	53.8992
1286.46	54.4091
1288.06	54.8849
1289.66	56.0712
1291.26	56.2451
1292.86	55.728
1294.46	56.3982
1296.06	56.7416
1297.66	57.0105
1299.25	57.7357
1300.85	58.2086
1302.45	58.5335
1304.05	58.8076
1305.65	59.1291
1307.24	58.9345
1308.84	59.6844
1310.43	59.5314
1312.03	60.0714
1313.63	61.1572
1315.22	61.3778
1316.82	61.4053
1318.41	61.3986
1320.01	60.6813
1321.6	59.0789
1323.2	57.7665
1324.79	57.2708
1326.38	56.9199
1327.98	56.4104
1329.57	55.2784
1331.16	55.8093
1332.76	55.0941
1334.35	54.0132
1335.94	52.742
1337.53	51.2537
1339.12	50.9382
1340.71	49.8542
1342.3	48.2426
1343.89	48.1874
1345.48	47.6501
1347.07	45.6656
1348.66	44.473
1350.25	43.763
1351.84	41.7184
1353.43	40.1477
1355.01	39.8337
1356.6	39.3947
1358.19	38.8148
1359.77	38.0498
1361.36	37.8187
1362.95	35.6158
1364.53	34.9367
1366.12	33.9777
1367.71	32.5711
1369.29	32.391
1370.88	31.5116
1372.46	30.7974
1374.04	31.1134
1375.63	30.6289
1377.21	30.4633
1378.8	29.9172
1380.38	29.2162
1381.96	28.7449
1383.54	28.2654
1385.13	27.9597
1386.71	26.6303
1388.29	25.9055
1389.87	25.8117
1391.45	26.2833
1393.03	25.9114
1394.61	24.7728
1396.19	25.0899
1397.77	23.8144
1399.35	23.9377
1400.93	23.3718
1402.51	24.1762
1404.09	25.7604
1405.67	26.5323
1407.24	26.9912
1408.82	28.5085
1410.4	29.7971
1411.98	29.6905
1413.55	30.4327
1415.13	30.9524
1416.71	33.1743
1418.28	35.5082
1419.86	37.7923
1421.43	39.1323
1423.01	42.0923
1424.58	43.3269
1426.16	44.8922
1427.73	47.3013
1429.31	49.3779
1430.88	51.3493
1432.45	54.5124
1434.02	57.28
1435.6	58.8745
1437.17	60.9583
1438.74	62.4834
1440.31	63.2741
1441.88	64.4036
1443.45	65.7581
1445.03	66.1359
1446.6	67.4108
1448.17	69.5244
1449.74	70.2014
1451.3	71.4888
1452.87	71.6761
1454.44	71.2221
1456.01	71.2697
1457.58	70.419
1459.15	69.5022
1460.72	69.0802
1462.28	68.2508
1463.85	67.5117
1465.42	66.3234
1466.98	65.7548
1468.55	64.7693
1470.12	62.7033
1471.68	61.1504
1473.25	60.291
1474.81	59.7985
1476.38	58.2826
1477.94	57.5065
1479.51	56.2821
1481.07	55.5835
1482.63	55.123
1484.2	53.4336
1485.76	51.6735
1487.32	50.3491
1488.88	47.9293
1490.45	46.3139
1492.01	44.8593
1493.57	43.2432
1495.13	42.2593
1496.69	41.0055
1498.25	39.7655
1499.81	38.3388
1501.37	37.9281
1502.93	36.584
1504.49	35.612
1506.05	34.1241
1507.61	33.1674
1509.17	31.3317
1510.73	30.9802
1512.28	28.4762
1513.84	27.2392
1515.4	25.4971
1516.96	23.7841
1518.51	23.1546
1520.07	22.9286
1521.63	23.238
1523.18	23.2574
1524.74	23.497
1526.29	24.1315
1527.85	23.3654
1529.4	23.3932
1530.96	22.2932
1532.51	22.0866
1534.06	23.1019
1535.62	23.0169
1537.17	23.8204
1538.72	24.9068
1540.28	25.7716
1541.83	25.9744
1543.38	26.4386
1544.93	26.9204
1546.48	27.2542
1548.03	27.8082
1549.59	29.1446
1551.14	29.5795
1552.69	29.2698
1554.24	28.9381
1555.79	29.7738
1557.34	30.4257
1558.88	30.4969
1560.43	30.7188
1561.98	30.5827
1563.53	29.7526
1565.08	30.0522
1566.62	30.9308
1568.17	32.499
1569.72	32.263
1571.27	33.6858
1572.81	34.8987
1574.36	35.758
1575.9	37.5004
1577.45	39.1769
1579	40.2623
1580.54	41.4029
1582.09	42.4583
1583.63	43.3191
1585.17	45.1409
1586.72	45.6338
1588.26	47.2143
1589.8	48.0567
1591.35	49.3928
1592.89	50.5093
1594.43	51.4066
1595.97	52.7707
1597.52	53.851
1599.06	54.3551
1600.6	54.4386
1602.14	55.0961
1603.68	55.4856
1605.22	54.9577
1606.76	55.4607
1608.3	55.3579
1609.84	56.6951
1611.38	57.8704
1612.92	57.9177
1614.46	58.2096
1615.99	59.0275
1617.53	58.9947
1619.07	58.7008
1620.61	59.303
1622.14	59.7613
1623.68	60.4163
1625.22	61.7908
1626.75	63.2044
1628.29	63.6266
1629.82	64.7564
1631.36	65.7995
1632.9	66.7186
1634.43	68.1761
1635.96	69.4986
1637.5	69.9326
1639.03	71.4534
1640.57	72.1727
1642.1	73.9402
1643.63	76.3755
1645.16	77.8526
1646.7	78.4268
1648.23	80.118
1649.76	80.6856
1651.29	81.1744
1652.82	82.5222
1654.36	82.3439
1655.89	81.9565
1657.42	82.3891
1658.95	81.9099
1660.48	80.7024
1662.01	79.8486
1663.53	78.0727
1665.06	76.9233
1666.59	75.6706
1668.12	73.1886
1669.65	71.1265
1671.18	68.2674
1672.7	66.9797
1674.23	64.6158
1675.76	61.0727
1677.29	58.1726
1678.81	54.2712
1680.34	50.8809
1681.86	48.3127
1683.39	45.3162
1684.91	42.7213
1686.44	40.3719
1687.96	37.3958
1689.49	35.3128
1691.01	32.8647
1692.54	30.7648
1694.06	28.374
1695.58	26.7032
1697.11	25.2124
1698.63	23.736
1700.15	22.4074
1701.67	20.5979
1703.2	18.303
1704.72	16.97
1706.24	15.3542
1707.76	13.4309
1709.28	12.5966
1710.8	12.0727
1712.32	10.8532
1713.84	9.699
1715.36	9.85521
1716.88	9.20718
1718.4	9.44798
1719.91	10.1343
1721.43	9.52537
1722.95	8.96547
1724.47	8.60911
1725.99	8.1846
1727.5	7.61197
1729.02	7.25572
1730.54	6.27904
1732.05	6.41575
1733.57	6.29445
1735.09	5.08188
1736.6	5.06715
1738.12	5.58645
1739.63	5.6659
1741.15	5.75985
1742.66	5.44878
1744.18	5.38079
1745.69	5.32452
1747.2	4.86765
1748.72	4.42723
1750.23	3.56388
1751.74	2.94952
1753.25	2.88198
1754.77	2.80268
1756.28	3.32542
1757.79	3.42717
1759.3	3.37157
1760.81	3.67953
1762.32	3.42186
1763.83	3.39448
1765.34	3.00045
1766.85	2.37431
1768.36	2.05079
1769.87	1.80528
1771.38	1.74828
1772.89	1.12298
1774.4	0.948529
1775.91	0.853349
1777.41	0.744467
1778.92	1.02293
1780.43	1.22057
1781.94	1.06791
1783.44	1.46322
1784.95	2.18742
1786.45	2.57266
1787.96	3.02595
1789.47	3.46973
1790.97	3.98275
1792.48	4.73144
1793.98	5.26736
1795.48	5.85066
1796.99	5.9004
1798.49	5.98865
1800	6.08034
1801.5	6.24729
1803	6.86815
1804.51	7.11972
1806.01	7.45937
1807.51	8.10021
1809.01	8.08118
1810.51	8.36151
1812.02	9.08758
1813.52	9.09657
1815.02	8.96447
1816.52	8.94862
1818.02	8.85261
1819.52	8.96707
1821.02	8.46663
1822.52	8.17455
1824.02	8.2875
1825.51	8.68742
1827.01	8.81963
1828.51	8.43767
1830.01	8.18987
1831.51	7.55304
1833	7.13542
1834.5	6.80212
1836	6.64892
1837.5	5.98594
1838.99	5.51883
1840.49	5.00331
1841.98	4.10783
1843.48	3.29772
1844.97	2.45558
1846.47	1.70068
1847.96	1.52959
1849.46	1.40201
1850.95	0.705187
1852.45	0.27804
1853.94	-0.398023
1855.43	-0.88648
1856.92	-0.867015
1858.42	-0.724746
1859.91	-0.863626
1861.4	-1.13092
1862.89	-1.07388
1864.39	-0.490139
1865.88	-0.834251
1867.37	-0.436781
1868.86	-0.388161
1870.35	0.230312
1871.84	0.549628
1873.33	1.36405
1874.82	1.69557
1876.31	1.99215
1877.8	2.57548
1879.29	2.86308
1880.77	2.71892
1882.26	3.10837
1882.51	3.22534
1884	3.50014
1885.5	3.7076
1886.99	4.20047
1888.48	4.65188
1889.98	5.59947
1891.47	6.01988
1892.97	6.50136
1894.46	6.71621
1895.95	7.11405
1897.44	7.77675
1898.93	8.78269
1900.42	9.41505
1901.92	8.91957
1903.41	9.4727
1904.9	9.93355
1906.39	10.8963
1907.88	11.5533
1909.37	11.4567
1910.86	11.163
1912.35	10.5641
1913.84	10.5071
1915.32	10.0756
1916.81	10.1294
1918.3	9.60017
1919.79	10.1709
1921.28	10.2392
1922.76	9.32108
1924.25	8.91163
1925.74	8.69861
1927.22	8.23336
1928.71	8.05234
1930.2	7.4751
1931.68	7.12548
1933.17	6.53906
1934.65	6.82094
1936.14	6.75699
1937.62	6.38878
1939.11	5.7431
1940.59	5.99627
1942.08	5.92035
1943.56	6.39934
1945.04	5.96771
1946.53	6.17074
1948.01	5.06571
1949.49	4.45234
1950.97	4.04983
1952.45	3.80254
1953.94	4.13578
1955.42	4.68077
1956.9	4.52829
1958.38	4.62467
1959.86	5.28761
1961.34	6.03453
1962.82	6.14323
1964.3	6.1712
1965.78	5.81825
1967.26	6.03251
1968.74	5.90351
1970.22	6.50366
1971.69	7.23643
1973.17	7.69962
1974.65	8.28487
1976.13	8.64405
1977.61	9.24516
1979.08	9.54439
1980.56	9.89038
1982.03	9.49145
1983.51	9.5538
1984.99	10.3709
1986.46	10.3388
1987.94	10.9555
1989.41	10.5455
1990.89	10.136
1992.36	10.1063
1993.84	10.4983
1995.31	10.1695
1996.78	9.5922
1998.26	9.45095
1999.73	9.72338
2001.2	9.4844
2002.68	9.60679
2004.15	9.31925
2005.62	9.44162
2007.09	10.058
2008.56	10.259
2010.04	9.59802
2011.51	9.41296
2012.98	9.59948
2014.45	9.73381
2015.92	9.80019
2017.39	10.0529
2018.86	9.12165
2020.33	9.48126
2021.8	8.46746
2023.27	8.97428
2024.74	8.87234
2026.2	9.25574
2027.67	9.57544
2029.14	9.10278
2030.61	9.06734
2032.07	9.23933
2033.54	9.50059
2035.01	9.59446
2036.47	9.07223
2037.94	9.10046
2039.41	9.39222
2040.87	9.90841
2042.34	10.1958
2043.8	10.6342
2045.27	11.4072
2046.73	12.1082
2048.2	12.9079
2049.66	13.0844
2051.12	12.991
2052.59	13.8337
2054.05	14.5052
2055.51	15.1564
2056.98	16.3303
2058.44	16.325
2059.9	16.1984
2061.36	16.863
2062.82	16.6934
2064.29	17.3108
2065.75	18.2285
2067.21	18.4308
2068.67	18.8768
2070.13	18.7906
2071.59	19.7272
2073.05	20.7032
2074.51	21.1367
2075.97	21.8546
2077.43	22.5203
2078.88	22.9471
2080.34	24.4345
2081.8	24.222
2083.26	24.7738
2084.72	25.4853
2086.17	26.8935
2087.63	27.386
2089.09	28.1375
2090.54	28.6703
2092	28.7426
2093.46	29.5435
2094.91	29.5799
2096.37	30.4723
2097.82	30.8354
2099.28	31.6732
2100.73	32.2893
2102.19	33.162
2103.64	34.3039
2105.09	34.8642
2106.55	35.4632
2108	36.6253
2109.46	37.6316
2110.91	38.2725
2112.36	39.0058
2113.81	39.8648
2115.27	41.0001
2116.72	42.6136
2118.17	45.0008
2119.62	46.0873
2121.07	46.9947
2122.52	48.9114
2123.97	50.5221
2125.42	52.243
2126.87	53.6926
2128.32	55.6879
2129.77	57.3301
2131.22	59.176
2132.67	61.3737
2134.12	62.947
