#Acq. time (s)=	45
#Accumulations=	2
#Range (cm-¹)=	200...3150
#Windows=	2
#Auto scanning=	Off
#Autofocus=	Off
#Macrospot=	Off
#AutoExposure=	Off
#Spike filter=	Multiple accum.
#Delay time (s)=	0
#Binning=	1
#Readout mode=	Signal
#DeNoise=	Off
#ICS correction=	On
#Dark correction=	Off
#Inst. Process=	Off
#Detector Gain=	Best Dynamic Range
#Detector ADC=	20 kHz       
#Detector temperature (°C)=	-69.85
#Instrument=	LabRAM HR Evol
#Detector=	Synapse
#Objective=	x100
#Grating=	600 gr/mm
#ND Filter=	100%
#Laser (nm)=	532 
#Hole=	100.021
#Range=	Auto
#Laser Pol.=	No
#Raman. Pol.=	No
#Laser Pol. (°)=	-0.0007625
#Raman Pol. (°)=	89.9995
#Collection=	Microscope
#StageXY=	Marzhauser
#StageZ=	Marzhauser
#X (µm)=	28317.4
#Y (µm)=	-3288.5
#Z (µm)=	1040.95
#Full time(mm:ss)=	3:19
#Project=	
#Sample=	
#Site=	
#Title=	Mb_50_18_27_2x_45s_532 nm_x100_100%_600 gr_mm
#Remark=	
#Date=	12.07.2022 12:51
#Acquired=	12.07.2022 12:51:29
#Base:Fit=	10.08.2022 10:49:18
#Base:Sub=	10.08.2022 10:49:30
#Filter:Polynom=	16.08.2022 10:14:59
#AxisType[0]=Intens
#AxisUnit[0]=Cnt
#AxisType[1]=Spectr
#AxisUnit[1]=1/cm
200.388	64.7043
202.204	61.641
204.019	59.2746
205.832	57.4136
207.646	55.4526
209.459	54.134
211.274	52.76
213.087	50.5579
214.899	47.9583
216.711	45.791
218.524	42.7252
220.335	39.9713
222.146	36.7684
223.956	34.8559
225.766	32.9871
227.576	31.0917
229.388	29.2064
231.197	28.8582
233.005	26.9433
234.813	25.4769
236.621	25.7181
238.429	25.0324
240.236	23.5308
242.045	21.9646
243.852	21.437
245.658	21.996
247.464	21.5562
249.269	20.6903
251.074	18.915
252.879	18.089
254.683	17.1102
256.487	16.8595
258.291	17.0195
260.094	16.3276
261.897	14.1568
263.702	12.3849
265.504	11.8724
267.306	11.1743
269.108	10.3011
270.909	10.0015
272.71	9.49105
274.511	9.63
276.311	9.08595
278.111	8.95144
279.91	9.19621
281.709	8.07708
283.508	7.35635
285.306	8.01103
287.105	7.46475
288.9	9.37639
290.698	10.4402
292.495	11.8406
294.291	13.3943
296.088	14.9725
297.884	16.7086
299.679	17.4713
301.475	17.6049
303.27	18.2757
305.064	20.3221
306.858	21.3518
308.652	21.4112
310.444	22.9812
312.237	24.7664
314.03	27.1409
315.822	28.6949
317.615	29.1262
319.406	30.3059
321.198	32.2356
322.987	33.3469
324.778	34.3996
326.568	35.6539
328.358	35.0627
330.148	34.6928
331.935	33.7985
333.724	33.4639
335.513	32.764
337.301	30.2647
339.089	28.0573
340.875	25.8492
342.662	24.8718
344.449	24.4704
346.236	24.6612
348.02	25.9243
349.806	26.7097
351.592	28.1588
353.375	31.5785
355.16	34.9214
356.944	37.0475
358.728	40.0002
360.51	43.2854
362.294	47.6421
364.077	50.8439
365.858	54.1414
367.64	59.2256
369.422	64.3604
371.202	67.8639
372.983	72.1471
374.764	76.528
376.543	79.2972
378.324	83.5356
380.102	84.2812
381.881	86.6606
383.661	88.7271
385.438	89.5893
387.216	90.6115
388.993	90.2697
390.771	90.7602
392.548	90.4305
394.324	90.3306
396.101	89.0208
397.875	86.7455
399.651	85.0811
401.425	82.8849
403.201	79.8306
404.974	77.4695
406.749	72.9126
408.524	69.7823
410.296	65.4298
412.07	59.9959
413.841	54.2552
415.614	48.5807
417.385	42.1295
419.156	36.0802
420.928	30.0075
422.698	25.4252
424.469	20.8284
426.238	15.9294
428.009	12.2444
429.777	8.54866
431.548	6.13041
433.315	4.35539
435.083	3.15961
436.852	2.69203
438.618	1.21305
440.387	0.633688
442.153	0.0661157
443.919	0.677755
445.686	0.797989
447.451	1.59229
449.218	1.52771
450.982	2.7051
452.746	2.53071
454.512	4.30787
456.275	5.08983
458.038	3.6757
459.803	2.93507
461.565	4.02511
463.327	4.3448
465.091	4.75489
466.852	5.50051
468.613	5.60769
470.374	7.97185
472.136	8.13781
473.896	9.12491
475.655	11.0474
477.415	13.0031
479.176	16.8722
480.934	19.9798
482.692	24.7835
484.45	27.2107
486.21	31.2217
487.967	36.9017
489.724	42.3322
491.481	47.4983
493.237	53.0218
494.995	56.6658
496.75	61.9201
498.506	65.7677
500.26	70.303
502.015	74.6013
503.771	78.0434
505.525	80.9176
507.279	84.5109
509.032	87.3544
510.785	90.0788
512.537	91.3535
514.289	92.945
516.041	93.8499
517.793	93.9952
519.546	94.9443
521.297	95.1902
523.047	94.797
524.797	93.8169
526.547	92.3948
528.297	90.7297
530.046	89.1898
531.795	87.1986
533.543	83.5863
535.291	80.4005
537.039	75.8032
538.787	71.7336
540.534	67.6665
542.281	62.915
544.027	58.646
545.773	52.8161
547.519	48.4626
549.264	42.7458
551.01	36.3554
552.754	31.5505
554.499	26.1734
556.243	22.6272
557.987	18.1677
559.73	13.305
561.474	10.479
563.216	9.2092
564.959	7.74541
566.701	7.16333
568.441	5.74761
570.182	7.36013
571.923	6.50953
573.664	8.34994
575.405	8.36013
577.145	8.525
578.885	9.34525
580.624	10.1149
582.361	10.2663
584.1	10.9713
585.839	11.1786
587.577	12.2379
589.315	12.5816
591.052	12.8701
592.787	13.9943
594.524	16.8447
596.26	18.5473
597.997	19.238
599.732	20.6763
601.466	23.0125
603.201	25.1548
604.936	26.7608
606.67	28.0027
608.403	29.3589
610.136	29.17
611.87	30.4729
613.603	31.2569
615.334	31.6648
617.067	32.4464
618.799	32.4678
620.529	32.2096
622.26	31.8814
623.991	30.9624
625.72	30.6479
627.451	30.2774
629.181	28.534
630.909	27.6508
632.638	26.0662
634.368	24.7528
636.095	23.8419
637.823	23.0429
639.551	22.0498
641.277	20.3197
643.005	18.6873
644.73	16.9832
646.457	16.8394
648.184	16.9488
649.908	15.9333
651.634	15.6587
653.357	14.9198
655.083	13.8488
656.806	14.1112
658.53	11.8826
660.253	10.9725
661.977	9.5047
663.7	8.18412
665.422	6.15169
667.145	4.99962
668.865	3.61213
670.588	3.28459
672.308	2.03227
674.027	2.62664
675.749	3.14614
677.468	3.54354
679.188	5.85188
680.907	6.36353
682.627	6.54606
684.345	5.91356
686.064	7.10819
687.781	7.20344
689.498	6.98358
691.216	6.6532
692.932	7.60614
694.65	8.48707
696.366	8.1819
698.081	9.41434
699.797	9.55345
701.512	10.4692
703.228	10.678
704.942	11.0612
706.655	11.3704
708.371	12.9954
710.083	13.7681
711.796	13.7523
713.51	13.8129
715.222	13.6519
716.934	13.9949
718.645	14.0465
720.358	13.7637
722.068	13.0326
723.779	12.554
725.49	12.5383
727.2	12.7397
728.909	13.1438
730.618	14.5638
732.329	16.1981
734.037	17.0939
735.745	19.7373
737.453	25.1743
739.16	30.1398
740.869	37.6088
742.576	46.5908
744.282	54.7681
745.988	63.3596
747.694	71.5272
749.401	80.2678
751.107	88.6563
752.811	98.9524
754.516	108.516
756.22	117.405
757.924	125.012
759.627	133.089
761.332	139.277
763.035	145.981
764.738	152.032
766.44	155.793
768.142	159.808
769.843	162.386
771.544	165.781
773.245	167.719
774.946	169.348
776.646	170.631
778.346	171.107
780.046	169.546
781.745	167.76
783.444	164.902
785.143	162.049
786.841	157.888
788.539	154.295
790.237	150.192
791.934	144.445
793.631	138.374
795.328	131.286
797.024	124.075
798.72	116.772
800.416	108.718
802.112	101.238
803.807	93.4047
805.502	86.068
807.196	77.4717
808.89	71.0986
810.584	64.4134
812.278	59.0782
813.971	54.3583
815.664	51.1779
817.354	48.6385
819.047	45.6221
820.739	45.4476
822.43	44.9963
824.122	45.0112
825.813	44.9293
827.503	44.1279
829.192	42.9727
830.882	42.0562
832.571	41.1291
834.261	41.1488
835.95	39.7269
837.637	39.6103
839.325	39.0486
841.013	37.3916
842.701	37.3212
844.389	36.3238
846.074	36.7111
847.761	36.2372
849.447	35.1106
851.131	34.0108
852.817	32.6329
854.503	31.7576
856.188	31.1492
857.871	30.0675
859.556	29.6787
861.24	28.443
862.922	27.4402
864.606	25.6002
866.289	25.3189
867.97	23.5996
869.653	24.0358
871.336	23.1822
873.016	23.1646
874.698	22.6369
876.379	22.0498
878.058	21.2809
879.739	21.0827
881.418	19.7353
883.098	19.8913
884.778	19.7947
886.456	20.023
888.135	19.1885
889.812	18.7942
891.49	18.3455
893.167	17.4679
894.845	17.8771
896.523	17.2617
898.198	16.5688
899.875	15.7175
901.55	14.9015
903.226	14.311
904.901	14.761
906.576	13.9182
908.25	14.5732
909.925	13.7729
911.598	13.9414
913.271	13.581
914.945	13.5023
916.617	14.0944
918.291	14.9282
919.962	14.7906
921.635	16.1762
923.306	16.6743
924.978	16.2667
926.648	17.3538
928.318	17.1457
929.989	18.166
931.659	17.9616
933.328	18.192
934.998	17.811
936.666	18.2792
938.336	18.6652
940.004	18.2036
941.671	16.8823
943.34	15.9741
945.007	14.5507
946.673	14.08
948.339	13.5244
950.007	12.9501
951.672	10.7755
953.337	10.4455
955.004	8.56935
956.669	7.55076
958.333	6.15416
959.997	3.22074
961.662	0.520608
963.326	-0.31516
964.989	-2.76178
966.651	-3.61324
968.315	-4.09189
969.977	-3.30249
971.639	-1.56571
973.301	1.18564
974.962	4.55317
976.624	8.55006
978.285	13.4039
979.945	17.3369
981.605	23.2712
983.264	28.5631
984.924	33.4294
986.583	37.7523
988.243	41.6336
989.901	46.9669
991.56	51.8611
993.217	55.7357
994.875	60.8871
996.532	67.1683
998.188	74.8604
999.845	82.5827
1001.5	89.6441
1003.16	96.1809
1004.81	103.216
1006.47	108.769
1008.12	115.563
1009.78	122.472
1011.43	128.111
1013.09	133.468
1014.74	138.436
1016.39	142.194
1018.05	145.272
1019.7	148.114
1021.35	148.737
1023	148.994
1024.65	149.77
1026.31	149.175
1027.96	148.39
1029.61	146.532
1031.26	143.86
1032.91	138.921
1034.56	133.854
1036.21	128.487
1037.86	122.519
1039.51	116.432
1041.16	108.518
1042.8	100.524
1044.45	94.1922
1046.1	88.5809
1047.75	83.233
1049.39	79.8588
1051.04	76.6869
1052.69	73.147
1054.33	71.0165
1055.98	69.1324
1057.62	66.697
1059.27	66.4225
1060.91	64.2673
1062.56	64.426
1064.2	64.6936
1065.85	63.1417
1067.49	62.3834
1069.13	62.9163
1070.77	64.1007
1072.42	66.1364
1074.06	67.01
1075.7	68.6264
1077.34	70.9395
1078.98	73.5032
1080.62	74.3744
1082.27	75.9064
1083.91	77.3609
1085.55	78.1651
1087.18	78.7646
1088.82	78.8153
1090.46	80.9702
1092.1	82.8607
1093.74	83.6736
1095.38	85.3611
1097.02	85.8197
1098.65	84.8824
1100.29	84.1426
1101.93	83.0046
1103.56	80.5797
1105.2	78.8444
1106.84	76.4427
1108.47	73.303
1110.11	70.7865
1111.74	67.2527
1113.38	64.0329
1115.01	58.7734
1116.64	55.8183
1118.28	50.9318
1119.91	46.3119
1121.54	40.8712
1123.18	35.5785
1124.81	31.6504
1126.44	29.5238
1128.07	26.6866
1129.7	24.6153
1131.33	22.572
1132.97	20.5203
1134.6	19.7964
1136.23	20.1142
1137.86	19.5211
1139.49	18.5415
1141.11	18.9607
1142.74	18.5769
1144.37	18.8983
1146	17.4704
1147.63	16.3393
1149.26	16.199
1150.88	15.5979
1152.51	14.1042
1154.14	12.3566
1155.76	10.5529
1157.39	8.60299
1159.01	7.43183
1160.64	6.37824
1162.27	6.27309
1163.89	6.30032
1165.51	6.31839
1167.14	5.3102
1168.76	5.41757
1170.39	6.5808
1172.01	7.99536
1173.63	8.13829
1175.25	7.79865
1176.88	7.79498
1178.5	6.64866
1180.12	6.45657
1181.74	5.98401
1183.36	6.13769
1184.98	4.68044
1186.6	4.10679
1188.22	3.98977
1189.84	3.71237
1191.46	2.66507
1193.08	2.53507
1194.7	2.72462
1196.32	2.15951
1197.94	2.88688
1199.55	2.98644
1201.17	3.27216
1202.79	3.68353
1204.41	5.78888
1206.02	6.81924
1207.64	7.78591
1209.25	8.6724
1210.87	9.89339
1212.48	10.9341
1214.1	12.605
1215.71	14.7302
1217.33	16.1617
1218.94	16.4938
1220.56	18.4657
1222.17	20.282
1223.79	22.1642
1225.4	23.8766
1227.01	24.9433
1228.62	27.3095
1230.23	29.4397
1231.85	30.1925
1233.46	30.9894
1235.07	33.1961
1236.68	34.5218
1238.29	35.6016
1239.9	37.266
1241.51	38.9429
1243.12	39.1412
1244.73	39.9816
1246.34	40.9702
1247.94	42.4264
1249.55	43.1148
1251.16	43.9874
1252.77	44.3653
1254.37	45.1669
1255.98	46.559
1257.59	46.75
1259.2	47.3778
1260.8	46.677
1262.41	46.5223
1264.01	47.5967
1265.62	46.8731
1267.22	47.8397
1268.83	49.5894
1270.43	50.9311
1272.03	52.1382
1273.64	53.9275
1275.24	55.5186
1276.85	57.03
1278.45	58.6217
1280.05	60.1417
1281.65	59.9692
1283.25	61.4588
1284.85	62.8475
1286.46	63.6699
1288.06	63.9782
1289.66	65.6827
1291.26	68.0242
1292.86	68.5671
1294.46	69.831
1296.06	69.9286
1297.66	69.5525
1299.25	70.3602
1300.85	71.1339
1302.45	71.1701
1304.05	71.2845
1305.65	71.0994
1307.24	70.8142
1308.84	70.9426
1310.43	69.848
1312.03	69.433
1313.63	68.7157
1315.22	68.5204
1316.82	67.5432
1318.41	66.7903
1320.01	66.1115
1321.6	64.7526
1323.2	63.5154
1324.79	63.4461
1326.38	61.7443
1327.98	60.8117
1329.57	59.2811
1331.16	58.7796
1332.76	57.7237
1334.35	57.1304
1335.94	55.5877
1337.53	53.3439
1339.12	52.1484
1340.71	50.9515
1342.3	50.2451
1343.89	49.6812
1345.48	46.9909
1347.07	45.8086
1348.66	45.6393
1350.25	44.1295
1351.84	42.7054
1353.43	41.6751
1355.01	41.2299
1356.6	40.0967
1358.19	38.3564
1359.77	37.1101
1361.36	35.9563
1362.95	36.0627
1364.53	35.6252
1366.12	34.479
1367.71	33.5543
1369.29	32.987
1370.88	32.3553
1372.46	30.5966
1374.04	30.9424
1375.63	30.2705
1377.21	30.3079
1378.8	30.3287
1380.38	29.6674
1381.96	29.9146
1383.54	29.5644
1385.13	29.4935
1386.71	30.2078
1388.29	30.2775
1389.87	29.7634
1391.45	30.5395
1393.03	29.4932
1394.61	30.0921
1396.19	31.0821
1397.77	30.5955
1399.35	30.8945
1400.93	31.9618
1402.51	34.1919
1404.09	35.2795
1405.67	37.7825
1407.24	40.0091
1408.82	42.5779
1410.4	45.5934
1411.98	48.9851
1413.55	52.2992
1415.13	55.0432
1416.71	57.9865
1418.28	61.9427
1419.86	65.8332
1421.43	69.9875
1423.01	74.9752
1424.58	78.3885
1426.16	83.6806
1427.73	88.2746
1429.31	91.4827
1430.88	96.0389
1432.45	99.2318
1434.02	102.48
1435.6	104.069
1437.17	106.745
1438.74	108.568
1440.31	109.572
1441.88	111.113
1443.45	111.309
1445.03	110.814
1446.6	111.174
1448.17	110.118
1449.74	109.678
1451.3	108.842
1452.87	106.171
1454.44	104.468
1456.01	101.865
1457.58	98.2951
1459.15	96.3418
1460.72	92.4976
1462.28	88.6569
1463.85	84.3587
1465.42	80.3498
1466.98	75.5961
1468.55	71.3529
1470.12	66.658
1471.68	61.7193
1473.25	59
1474.81	55.9023
1476.38	51.9631
1477.94	49.9871
1479.51	48.0275
1481.07	45.9623
1482.63	43.4892
1484.2	41.4844
1485.76	40.7459
1487.32	40.722
1488.88	40.3119
1490.45	39.6134
1492.01	38.8742
1493.57	38.2311
1495.13	37.563
1496.69	39.2118
1498.25	39.4047
1499.81	39.1364
1501.37	39.3368
1502.93	38.9454
1504.49	38.4933
1506.05	38.2379
1507.61	38.3472
1509.17	38.5275
1510.73	36.7994
1512.28	36.1128
1513.84	35.1476
1515.4	33.8657
1516.96	32.9671
1518.51	32.9805
1520.07	32.0994
1521.63	31.2151
1523.18	31.0431
1524.74	31.3645
1526.29	30.0072
1527.85	30.004
1529.4	29.3734
1530.96	28.7496
1532.51	28.8571
1534.06	28.3058
1535.62	27.5986
1537.17	28.6894
1538.72	27.1888
1540.28	27.8143
1541.83	27.864
1543.38	27.8507
1544.93	29.1592
1546.48	28.9036
1548.03	28.1883
1549.59	29.6554
1551.14	31.7678
1552.69	31.5161
1554.24	31.7491
1555.79	32.1111
1557.34	32.1174
1558.88	33.3007
1560.43	34.434
1561.98	35.8097
1563.53	38.5184
1565.08	39.08
1566.62	40.7059
1568.17	42.1175
1569.72	44.5146
1571.27	45.9517
1572.81	47.3079
1574.36	49.8611
1575.9	50.883
1577.45	52.619
1579	54.4646
1580.54	55.9695
1582.09	58.1467
1583.63	60.542
1585.17	62.1314
1586.72	63.1673
1588.26	63.3422
1589.8	63.6958
1591.35	63.9243
1592.89	63.3969
1594.43	65.7269
1595.97	66.2953
1597.52	67.3722
1599.06	68.9422
1600.6	69.6947
1602.14	70.6448
1603.68	70.5924
1605.22	71.4241
1606.76	70.9755
1608.3	70.7681
1609.84	70.5525
1611.38	70.9499
1612.92	71.5175
1614.46	72.5268
1615.99	72.9261
1617.53	73.3025
1619.07	73.1573
1620.61	72.8383
1622.14	73.7717
1623.68	72.9032
1625.22	73.7555
1626.75	75.1905
1628.29	76.9095
1629.82	78.0863
1631.36	80.0751
1632.9	80.8516
1634.43	82.6713
1635.96	84.3651
1637.5	86.1441
1639.03	88.2925
1640.57	89.3732
1642.1	90.981
1643.63	93.0945
1645.16	93.8456
1646.7	95.7877
1648.23	95.9902
1649.76	96.9806
1651.29	98.4463
1652.82	98.6839
1654.36	99.0884
1655.89	98.6306
1657.42	98.5178
1658.95	97.628
1660.48	96.8093
1662.01	95.6031
1663.53	92.9783
1665.06	89.9631
1666.59	87.8707
1668.12	86.6242
1669.65	84.2352
1671.18	83.2523
1672.7	80.3575
1674.23	77.9733
1675.76	73.933
1677.29	70.2418
1678.81	66.5884
1680.34	62.9386
1681.86	59.2046
1683.39	55.7934
1684.91	52.5137
1686.44	49.5883
1687.96	46.4403
1689.49	44.504
1691.01	40.8886
1692.54	37.6967
1694.06	34.5829
1695.58	32.497
1697.11	30.5174
1698.63	29.3611
1700.15	27.8409
1701.67	26.3205
1703.2	25.1393
1704.72	23.5546
1706.24	21.3864
1707.76	19.3115
1709.28	17.2662
1710.8	15.6669
1712.32	14.2862
1713.84	12.7927
1715.36	11.4601
1716.88	10.051
1718.4	10.0582
1719.91	8.68084
1721.43	7.249
1722.95	6.67282
1724.47	5.6629
1725.99	5.61751
1727.5	4.81508
1729.02	4.06791
1730.54	3.83337
1732.05	3.07939
1733.57	3.43863
1735.09	3.45305
1736.6	3.59472
1738.12	3.20318
1739.63	2.6486
1741.15	3.30487
1742.66	3.09199
1744.18	2.81356
1745.69	2.40356
1747.2	2.516
1748.72	2.06533
1750.23	1.71379
1751.74	1.18017
1753.25	1.20934
1754.77	1.32156
1756.28	1.44066
1757.79	0.507284
1759.3	0.341264
1760.81	0.53549
1762.32	0.306929
1763.83	-0.00900794
1765.34	0.46758
1766.85	-0.703115
1768.36	-0.130303
1769.87	0.328366
1771.38	0.21239
1772.89	0.509262
1774.4	0.521944
1775.91	0.133881
1777.41	0.105818
1778.92	0.0580396
1780.43	0.522104
1781.94	1.41156
1783.44	1.78238
1784.95	1.38727
1786.45	1.21533
1787.96	1.24618
1789.47	1.55473
1790.97	2.24697
1792.48	2.51237
1793.98	2.8727
1795.48	3.31305
1796.99	3.94034
1798.49	4.88492
1800	5.00298
1801.5	5.49085
1803	5.02389
1804.51	5.57632
1806.01	6.07914
1807.51	6.71258
1809.01	7.45096
1810.51	8.15299
1812.02	8.2984
1813.52	9.1381
1815.02	9.30625
1816.52	9.00383
1818.02	8.76031
1819.52	9.09293
1821.02	9.02841
1822.52	8.85803
1824.02	9.15604
1825.51	9.5665
1827.01	9.02146
1828.51	9.18988
1830.01	8.79701
1831.51	8.58663
1833	8.63225
1834.5	8.71111
1836	8.64972
1837.5	8.11563
1838.99	7.87376
1840.49	8.11822
1841.98	6.89423
1843.48	7.42679
1844.97	6.82215
1846.47	6.65585
1847.96	6.47607
1849.46	5.92256
1850.95	5.26231
1852.45	5.94002
1853.94	5.77489
1855.43	6.09152
1856.92	4.81194
1858.42	3.75887
1859.91	3.2314
1861.4	3.1486
1862.89	2.96386
1864.39	2.69216
1865.88	2.86939
1867.37	3.1893
1868.86	2.49032
1870.35	2.63952
1871.84	2.47252
1873.33	2.86818
1874.82	2.17736
1876.31	2.25093
1877.8	2.70161
1879.29	3.83507
1880.77	3.73749
1882.26	3.73719
1882.51	3.98642
1884	4.5692
1885.5	4.11201
1886.99	4.80715
1888.48	4.28386
1889.98	4.11988
1891.47	4.84745
1892.97	5.06471
1894.46	5.6716
1895.95	7.08389
1897.44	7.74687
1898.93	8.02045
1900.42	7.86807
1901.92	8.23523
1903.41	8.45343
1904.9	9.46897
1906.39	10.194
1907.88	10.6489
1909.37	11.4573
1910.86	12.0048
1912.35	11.919
1913.84	11.8874
1915.32	11.5383
1916.81	11.996
1918.3	11.6358
1919.79	11.8399
1921.28	12.5868
1922.76	12.5855
1924.25	12.2206
1925.74	12.5518
1927.22	12.1656
1928.71	11.5614
1930.2	11.159
1931.68	11.2068
1933.17	11.7989
1934.65	11.8291
1936.14	12.166
1937.62	12.062
1939.11	12.7554
1940.59	12.1446
1942.08	12.3173
1943.56	12.9266
1945.04	12.7536
1946.53	12.5089
1948.01	12.4364
1949.49	12.9798
1950.97	12.8611
1952.45	11.7601
1953.94	11.747
1955.42	12.4063
1956.9	12.3845
1958.38	12.2602
1959.86	11.714
1961.34	12.075
1962.82	10.9743
1964.3	11.3752
1965.78	11.2069
1967.26	11.6168
1968.74	12.8363
1970.22	12.7638
1971.69	11.5231
1973.17	11.2477
1974.65	10.6513
1976.13	10.8577
1977.61	12.1356
1979.08	12.4047
1980.56	12.2528
1982.03	12.2811
1983.51	12.343
1984.99	12.0631
1986.46	12.0744
1987.94	12.3772
1989.41	12.1022
1990.89	11.7518
1992.36	12.2601
1993.84	12.1841
1995.31	12.4913
1996.78	11.5553
1998.26	11.4833
1999.73	12.0916
2001.2	12.1368
2002.68	11.2995
2004.15	11.8698
2005.62	11.7729
2007.09	11.8998
2008.56	11.5678
2010.04	11.6688
2011.51	11.953
2012.98	12.8709
2014.45	12.7403
2015.92	13.5095
2017.39	13.8272
2018.86	14.265
2020.33	14.8494
2021.8	15.4348
2023.27	15.8875
2024.74	15.8518
2026.2	16.0056
2027.67	16.9082
2029.14	17.1709
2030.61	17.1455
2032.07	17.5075
2033.54	18.2861
2035.01	18.3851
2036.47	18.7558
2037.94	19.9195
2039.41	20.9851
2040.87	22.8158
2042.34	23.1438
2043.8	22.6582
2045.27	22.7141
2046.73	23.8339
2048.2	25.0806
2049.66	25.7247
2051.12	26.6075
2052.59	26.8284
2054.05	27.4251
2055.51	28.3526
2056.98	29.0621
2058.44	29.7106
2059.9	31.0757
2061.36	30.8808
2062.82	31.3386
2064.29	32.0851
2065.75	32.4487
2067.21	33.2305
2068.67	33.4755
2070.13	33.5742
2071.59	34.3585
2073.05	35.3544
2074.51	35.9838
2075.97	36.2782
2077.43	37.3487
2078.88	37.7547
2080.34	39.3089
2081.8	40.7559
2083.26	41.6051
2084.72	42.6666
2086.17	43.8627
2087.63	44.1173
2089.09	45.6646
2090.54	46.8636
2092	48.1198
2093.46	48.762
2094.91	49.2716
2096.37	50.5156
2097.82	51.0634
2099.28	52.6404
2100.73	54.3899
2102.19	56.2191
2103.64	57.5084
2105.09	58.9875
2106.55	60.7256
2108	61.4455
2109.46	63.1632
2110.91	64.4992
2112.36	66.5129
2113.81	68.0569
2115.27	70.7926
2116.72	72.9734
2118.17	75.4903
2119.62	78.0015
2121.07	79.5962
2122.52	81.3783
2123.97	84.2115
2125.42	86.6392
2126.87	89.1743
2128.32	92.5721
2129.77	94.7427
2131.22	97.4826
2132.67	100.211
2134.12	102.541
