#Acq. time (s)=	45
#Accumulations=	2
#Range (cm-¹)=	200...3150
#Windows=	2
#Auto scanning=	Off
#Autofocus=	Off
#Macrospot=	Off
#AutoExposure=	Off
#Spike filter=	Multiple accum.
#Delay time (s)=	0
#Binning=	1
#Readout mode=	Signal
#DeNoise=	Off
#ICS correction=	On
#Dark correction=	Off
#Inst. Process=	Off
#Detector Gain=	Best Dynamic Range
#Detector ADC=	20 kHz       
#Detector temperature (°C)=	-69.85
#Instrument=	LabRAM HR Evol
#Detector=	Synapse
#Objective=	x100
#Grating=	600 gr/mm
#ND Filter=	100%
#Laser (nm)=	532 
#Hole=	100.021
#Range=	Auto
#Laser Pol.=	No
#Raman. Pol.=	No
#Laser Pol. (°)=	-0.0007625
#Raman Pol. (°)=	89.9995
#Collection=	Microscope
#StageXY=	Marzhauser
#StageZ=	Marzhauser
#X (µm)=	28454.7
#Y (µm)=	-2984.1
#Z (µm)=	1043.05
#Full time(mm:ss)=	3:19
#Project=	
#Sample=	
#Site=	
#Title=	Mb_50_18_45_2x_45s_532 nm_x100_100%_600 gr_mm
#Remark=	
#Date=	12.07.2022 14:33
#Acquired=	12.07.2022 14:33:02
#Base:Fit=	10.08.2022 10:49:18
#Base:Sub=	10.08.2022 10:49:30
#Filter:Polynom=	16.08.2022 10:14:59
#AxisType[0]=Intens
#AxisUnit[0]=Cnt
#AxisType[1]=Spectr
#AxisUnit[1]=1/cm
200.388	19.4593
202.204	23.224
204.019	24.4018
205.832	26.3283
207.646	26.5065
209.459	25.82
211.274	24.313
213.087	22.3184
214.899	20.9642
216.711	19.8267
218.524	19.0248
220.335	17.7015
222.146	17.106
223.956	15.5547
225.766	15.0184
227.576	14.8653
229.388	14.3031
231.197	14.4368
233.005	14.7842
234.813	15.398
236.621	14.922
238.429	15.628
240.236	15.5006
242.045	15.8772
243.852	15.8004
245.658	15.6967
247.464	15.8252
249.269	14.9692
251.074	14.6213
252.879	14.7037
254.683	15.6539
256.487	16.2151
258.291	15.4458
260.094	16.4028
261.897	16.1594
263.702	17.0751
265.504	16.9576
267.306	17.0864
269.108	16.8354
270.909	18.0744
272.71	18.3504
274.511	18.4341
276.311	19.5723
278.111	18.6646
279.91	19.1443
281.709	18.5886
283.508	18.4503
285.306	20.0256
287.105	19.9148
288.9	19.7237
290.698	18.7987
292.495	18.2657
294.291	17.7441
296.088	16.5606
297.884	16.7529
299.679	16.2754
301.475	17.0581
303.27	17.4663
305.064	17.4583
306.858	17.7696
308.652	17.3709
310.444	16.8429
312.237	17.1212
314.03	16.9812
315.822	17.4892
317.615	17.5404
319.406	18.2534
321.198	18.6134
322.987	17.9297
324.778	18.1628
326.568	17.7889
328.358	18.0406
330.148	17.5029
331.935	17.8946
333.724	17.1848
335.513	16.1896
337.301	15.8839
339.089	15.5425
340.875	16.5803
342.662	17.0576
344.449	16.8515
346.236	16.7997
348.02	17.0119
349.806	17.5774
351.592	18.2485
353.375	19.0276
355.16	19.1658
356.944	20.1759
358.728	22.2068
360.51	24.2691
362.294	24.8781
364.077	26.584
365.858	27.0666
367.64	28.2126
369.422	30.5267
371.202	32.1328
372.983	33.9051
374.764	34.3764
376.543	34.1721
378.324	34.7779
380.102	35.4885
381.881	35.6386
383.661	36.8413
385.438	37.5543
387.216	38.1983
388.993	38.0537
390.771	37.8362
392.548	36.7695
394.324	35.144
396.101	35.1993
397.875	32.6564
399.651	31.6464
401.425	31.0543
403.201	30.1322
404.974	28.0332
406.749	26.7402
408.524	24.9945
410.296	22.5557
412.07	20.3256
413.841	19.788
415.614	17.4138
417.385	15.1685
419.156	13.4358
420.928	12.2051
422.698	9.8047
424.469	8.71781
426.238	8.73927
428.009	8.13332
429.777	7.6694
431.548	6.81972
433.315	5.96389
435.083	5.70199
436.852	4.00323
438.618	3.85838
440.387	4.6102
442.153	3.39901
443.919	4.24417
445.686	4.99729
447.451	5.92208
449.218	5.98765
450.982	4.7883
452.746	5.75857
454.512	6.37286
456.275	7.23099
458.038	6.41226
459.803	6.76616
461.565	6.5227
463.327	6.9081
465.091	7.49154
466.852	8.08134
468.613	7.90341
470.374	7.8678
472.136	9.83096
473.896	9.55071
475.655	10.7262
477.415	10.6332
479.176	10.9887
480.934	11.6509
482.692	12.495
484.45	13.5919
486.21	14.2519
487.967	15.7011
489.724	17.3825
491.481	19.1714
493.237	20.6702
494.995	23.3891
496.75	25.172
498.506	26.284
500.26	27.1974
502.015	28.5636
503.771	29.8421
505.525	31.8105
507.279	33.8803
509.032	35.0175
510.785	35.6225
512.537	36.5957
514.289	36.7076
516.041	36.8811
517.793	37.7814
519.546	37.5112
521.297	37.3961
523.047	37.3698
524.797	35.6913
526.547	36.904
528.297	36.2955
530.046	35.5023
531.795	34.6923
533.543	33.2271
535.291	31.5248
537.039	29.5378
538.787	28.5434
540.534	27.8248
542.281	25.503
544.027	23.5888
545.773	22.3217
547.519	20.6008
549.264	17.8224
551.01	15.928
552.754	13.5764
554.499	10.7881
556.243	9.39115
557.987	8.17216
559.73	8.31906
561.474	6.9051
563.216	5.65636
564.959	4.23909
566.701	3.28978
568.441	3.19309
570.182	3.21356
571.923	2.55572
573.664	3.47178
575.405	3.75096
577.145	4.17922
578.885	4.94179
580.624	4.82896
582.361	4.79178
584.1	4.76255
585.839	4.94736
587.577	5.9769
589.315	7.13121
591.052	8.22184
592.787	8.70549
594.524	9.36226
596.26	10.1963
597.997	10.7514
599.732	11.0706
601.466	10.8813
603.201	11.6767
604.936	12.0886
606.67	12.0188
608.403	12.0977
610.136	11.9648
611.87	11.24
613.603	11.3986
615.334	10.3847
617.067	10.4081
618.799	9.59548
620.529	8.85271
622.26	8.59221
623.991	7.55465
625.72	7.42352
627.451	6.64242
629.181	6.40088
630.909	6.08815
632.638	4.78332
634.368	4.20691
636.095	4.28785
637.823	4.53703
639.551	4.69633
641.277	4.64324
643.005	5.69307
644.73	5.24734
646.457	4.98714
648.184	4.99016
649.908	4.88538
651.634	5.16262
653.357	4.62595
655.083	5.77013
656.806	5.81715
658.53	6.03805
660.253	7.43518
661.977	7.89463
663.7	8.59601
665.422	10.1722
667.145	10.9805
668.865	12.3169
670.588	13.8342
672.308	14.635
674.027	15.5589
675.749	16.5793
677.468	18.1369
679.188	18.4976
680.907	19.0949
682.627	20.4324
684.345	20.4125
686.064	21.9474
687.781	23.1878
689.498	24.1253
691.216	24.7109
692.932	26.1045
694.65	27.2236
696.366	28.523
698.081	29.3773
699.797	29.4106
701.512	30.7971
703.228	31.437
704.942	31.8456
706.655	33.5761
708.371	34.6768
710.083	35.2005
711.796	36.2997
713.51	36.9562
715.222	37.6956
716.934	37.8334
718.645	39.33
720.358	41.2585
722.068	41.3498
723.779	40.9524
725.49	40.9908
727.2	40.4465
728.909	40.4599
730.618	40.1445
732.329	40.8478
734.037	41.7493
735.745	42.9796
737.453	44.8025
739.16	46.7739
740.869	49.9392
742.576	52.5461
744.282	55.6888
745.988	58.7686
747.694	61.4167
749.401	63.6315
751.107	65.1434
752.811	68.4822
754.516	70.7507
756.22	72.5727
757.924	74.0217
759.627	76.1151
761.332	78.0179
763.035	80.4764
764.738	80.8181
766.44	82.9054
768.142	85.3124
769.843	87.1981
771.544	88.7832
773.245	88.6221
774.946	89.6504
776.646	90.4924
778.346	92.0035
780.046	91.3416
781.745	90.9856
783.444	90.6121
785.143	91.4053
786.841	92.4998
788.539	91.7087
790.237	91.1313
791.934	89.6492
793.631	88.0997
795.328	85.9011
797.024	83.4296
798.72	81.5999
800.416	80.246
802.112	78.6783
803.807	77.4372
805.502	75.7493
807.196	72.5962
808.89	70.1386
810.584	69.0981
812.278	68.4133
813.971	67.8187
815.664	67.0886
817.354	67.3388
819.047	67.5514
820.739	68.2008
822.43	68.0426
824.122	67.4917
825.813	67.9735
827.503	68.4178
829.192	67.8352
830.882	67.2767
832.571	67.1028
834.261	66.6583
835.95	66.7091
837.637	66.9502
839.325	64.8875
841.013	64.2676
842.701	64.1773
844.389	63.6232
846.074	63.0263
847.761	61.7457
849.447	59.0589
851.131	57.3777
852.817	57.1371
854.503	55.0974
856.188	52.8188
857.871	51.2856
859.556	50.8725
861.24	49.086
862.922	49.2725
864.606	47.8446
866.289	47.6975
867.97	48.1691
869.653	47.6346
871.336	45.5651
873.016	44.0247
874.698	42.8747
876.379	41.1999
878.058	39.8147
879.739	38.9017
881.418	38.6371
883.098	38.998
884.778	39.7638
886.456	39.0257
888.135	38.0046
889.812	38.6846
891.49	37.5246
893.167	38.4649
894.845	39.7111
896.523	39.5414
898.198	39.5759
899.875	39.8593
901.55	40.5583
903.226	41.3655
904.901	42.1934
906.576	42.1715
908.25	42.9802
909.925	43.8901
911.598	44.1901
913.271	44.1327
914.945	44.3687
916.617	44.2868
918.291	43.4941
919.962	42.5213
921.635	41.7036
923.306	40.2697
924.978	39.7229
926.648	38.6747
928.318	37.2751
929.989	35.8784
931.659	34.1642
933.328	32.6217
934.998	31.2335
936.666	30.7771
938.336	28.8846
940.004	28.3999
941.671	27.6758
943.34	26.6034
945.007	25.7848
946.673	24.5418
948.339	22.5796
950.007	21.8762
951.672	21.3929
953.337	19.318
955.004	17.814
956.669	16.9213
958.333	16.0387
959.997	14.4708
961.662	13.0404
963.326	13.0555
964.989	12.2664
966.651	12.9919
968.315	12.1218
969.977	11.2958
971.639	11.6322
973.301	11.9412
974.962	10.6043
976.624	11.4846
978.285	10.3278
979.945	9.37216
981.605	9.86034
983.264	8.96321
984.924	8.65834
986.583	8.35249
988.243	7.36248
989.901	6.84066
991.56	5.8956
993.217	5.82264
994.875	6.45623
996.532	7.46922
998.188	8.01654
999.845	8.09164
1001.5	9.29431
1003.16	10.0347
1004.81	11.8402
1006.47	13.2523
1008.12	15.2349
1009.78	17.7256
1011.43	19.0839
1013.09	20.2248
1014.74	22.1592
1016.39	24.2621
1018.05	25.4233
1019.7	27.2803
1021.35	29.0345
1023	30.2165
1024.65	31.4222
1026.31	31.2997
1027.96	32.468
1029.61	32.6832
1031.26	33.8543
1032.91	35.7369
1034.56	35.4691
1036.21	35.9654
1037.86	35.386
1039.51	35.0741
1041.16	34.9444
1042.8	34.3721
1044.45	35.0045
1046.1	35.5238
1047.75	35.2268
1049.39	34.6693
1051.04	32.2869
1052.69	31.3346
1054.33	29.9866
1055.98	27.9253
1057.62	28.0129
1059.27	28.0538
1060.91	26.6233
1062.56	25.9695
1064.2	25.8414
1065.85	24.3555
1067.49	24.3641
1069.13	24.2551
1070.77	23.1504
1072.42	22.7501
1074.06	22.3988
1075.7	23.0925
1077.34	23.1998
1078.98	22.5515
1080.62	22.5983
1082.27	21.5594
1083.91	21.517
1085.55	21.0598
1087.18	22.7091
1088.82	23.3297
1090.46	24.4652
1092.1	25.6094
1093.74	25.16
1095.38	25.3594
1097.02	25.8707
1098.65	25.65
1100.29	25.2637
1101.93	25.9894
1103.56	25.8951
1105.2	24.6917
1106.84	24.2851
1108.47	23.7271
1110.11	23.5138
1111.74	23.2362
1113.38	23.4494
1115.01	23.3144
1116.64	22.266
1118.28	22.1851
1119.91	20.5725
1121.54	20.7884
1123.18	21.2327
1124.81	20.0063
1126.44	19.5895
1128.07	18.3275
1129.7	18.3622
1131.33	17.6223
1132.97	17.316
1134.6	17.8569
1136.23	18.2048
1137.86	18.8262
1139.49	19.549
1141.11	19.5719
1142.74	18.9555
1144.37	17.7977
1146	16.5642
1147.63	15.1933
1149.26	14.327
1150.88	12.7284
1152.51	11.2666
1154.14	9.74679
1155.76	8.48076
1157.39	6.99561
1159.01	6.50159
1160.64	6.25919
1162.27	5.60078
1163.89	4.41941
1165.51	4.5806
1167.14	5.27828
1168.76	7.02446
1170.39	6.96307
1172.01	8.1366
1173.63	7.16851
1175.25	6.20358
1176.88	5.90302
1178.5	5.97538
1180.12	5.53377
1181.74	5.69077
1183.36	5.58258
1184.98	4.07792
1186.6	4.09779
1188.22	5.12643
1189.84	5.07556
1191.46	4.85481
1193.08	5.2589
1194.7	5.08671
1196.32	5.77667
1197.94	6.43205
1199.55	6.71717
1201.17	6.58915
1202.79	7.22866
1204.41	7.51399
1206.02	8.34436
1207.64	9.10785
1209.25	9.96068
1210.87	10.4486
1212.48	10.9206
1214.1	12.0099
1215.71	12.8336
1217.33	13.7443
1218.94	15.0615
1220.56	15.3506
1222.17	16.1885
1223.79	15.9
1225.4	16.1472
1227.01	17.1457
1228.62	18.7499
1230.23	18.4763
1231.85	18.9738
1233.46	19.6222
1235.07	19.8494
1236.68	20.8259
1238.29	21.2251
1239.9	21.5525
1241.51	22.8811
1243.12	24.0189
1244.73	24.8459
1246.34	26.5419
1247.94	27.1086
1249.55	27.4523
1251.16	26.8218
1252.77	27.564
1254.37	26.558
1255.98	27.588
1257.59	28.1489
1259.2	28.3497
1260.8	28.6135
1262.41	28.495
1264.01	29.5284
1265.62	30.1556
1267.22	31.4695
1268.83	31.9363
1270.43	32.2436
1272.03	32.9894
1273.64	32.9656
1275.24	34.3459
1276.85	35.5293
1278.45	36.031
1280.05	36.6317
1281.65	36.7815
1283.25	37.7392
1284.85	38.3145
1286.46	39.6922
1288.06	40.5203
1289.66	42.1251
1291.26	42.7685
1292.86	43.4428
1294.46	43.8318
1296.06	45.4237
1297.66	46.2022
1299.25	47.4213
1300.85	46.466
1302.45	47.3191
1304.05	47.6539
1305.65	47.9897
1307.24	46.819
1308.84	46.4267
1310.43	45.8878
1312.03	46.3894
1313.63	47.4425
1315.22	46.516
1316.82	45.7797
1318.41	46.317
1320.01	46.9008
1321.6	47.8126
1323.2	47.732
1324.79	46.4146
1326.38	46.0947
1327.98	44.092
1329.57	43.6142
1331.16	43.3379
1332.76	43.8239
1334.35	43.9835
1335.94	43.9873
1337.53	43.3434
1339.12	42.0661
1340.71	42.02
1342.3	41.2858
1343.89	41.6037
1345.48	40.4952
1347.07	39.5719
1348.66	39.9205
1350.25	39.8744
1351.84	38.9676
1353.43	38.396
1355.01	39.2703
1356.6	38.2794
1358.19	37.7218
1359.77	36.8885
1361.36	35.7725
1362.95	35.8238
1364.53	35.6835
1366.12	35.6117
1367.71	34.3883
1369.29	32.9695
1370.88	32.0349
1372.46	31.503
1374.04	31.7619
1375.63	31.1002
1377.21	30.103
1378.8	29.2176
1380.38	26.3574
1381.96	26.3981
1383.54	25.51
1385.13	24.8975
1386.71	24.0361
1388.29	24.1778
1389.87	24.4197
1391.45	24.1831
1393.03	25.0544
1394.61	23.6924
1396.19	24.3829
1397.77	24.7862
1399.35	24.4991
1400.93	24.2773
1402.51	24.0253
1404.09	24.464
1405.67	25.5911
1407.24	26.8582
1408.82	29.5372
1410.4	31.5209
1411.98	34.2075
1413.55	36.5963
1415.13	38.5571
1416.71	41.079
1418.28	42.8447
1419.86	45.6654
1421.43	48.0328
1423.01	50.3729
1424.58	53.5012
1426.16	55.8812
1427.73	58.3714
1429.31	60.0907
1430.88	62.2251
1432.45	64.4271
1434.02	65.3591
1435.6	65.5468
1437.17	66.2766
1438.74	67.6576
1440.31	69.1566
1441.88	69.9138
1443.45	70.0969
1445.03	69.985
1446.6	69.5733
1448.17	71.1688
1449.74	72.0459
1451.3	72.4443
1452.87	72.2585
1454.44	72.208
1456.01	72.5602
1457.58	72.139
1459.15	72.4049
1460.72	74.2277
1462.28	74.5247
1463.85	73.8768
1465.42	72.7676
1466.98	72.986
1468.55	73.0809
1470.12	72.9502
1471.68	72.8491
1473.25	71.6133
1474.81	71.3805
1476.38	71.0393
1477.94	70.0753
1479.51	68.9845
1481.07	68.0729
1482.63	67.7225
1484.2	67.2211
1485.76	66.4817
1487.32	66.186
1488.88	65.0783
1490.45	64.1482
1492.01	62.8303
1493.57	61.4904
1495.13	60.0674
1496.69	58.3491
1498.25	56.5871
1499.81	54.7348
1501.37	51.6741
1502.93	49.5801
1504.49	45.6917
1506.05	43.1349
1507.61	40.4813
1509.17	37.9913
1510.73	34.3323
1512.28	30.6997
1513.84	27.9907
1515.4	26.5556
1516.96	25.0187
1518.51	23.0954
1520.07	21.1276
1521.63	20.5783
1523.18	19.3488
1524.74	18.1475
1526.29	18.7933
1527.85	17.3696
1529.4	16.318
1530.96	15.5083
1532.51	16.9243
1534.06	17.1363
1535.62	18.11
1537.17	19.0696
1538.72	20.3054
1540.28	20.3758
1541.83	21.0823
1543.38	22.01
1544.93	23.08
1546.48	23.6227
1548.03	24.7053
1549.59	25.1429
1551.14	25.3252
1552.69	25.9206
1554.24	25.8537
1555.79	25.6983
1557.34	26.3984
1558.88	27.1966
1560.43	27.738
1561.98	28.81
1563.53	29.3657
1565.08	30.2614
1566.62	31.037
1568.17	32.0734
1569.72	32.6187
1571.27	33.3272
1572.81	34.6852
1574.36	35.4825
1575.9	36.0151
1577.45	36.7598
1579	36.8865
1580.54	38.6872
1582.09	38.9894
1583.63	40.2285
1585.17	41.2177
1586.72	41.4791
1588.26	42.2224
1589.8	43.0449
1591.35	44.5021
1592.89	46.2867
1594.43	46.9825
1595.97	48.2792
1597.52	49.3775
1599.06	50.0219
1600.6	49.2551
1602.14	48.8629
1603.68	50.2131
1605.22	50.027
1606.76	50.4076
1608.3	50.9954
1609.84	52.3972
1611.38	51.7359
1612.92	51.3141
1614.46	47.3389
1615.99	46.4781
1617.53	46.3774
1619.07	47.7736
1620.61	48.3199
1622.14	48.7482
1623.68	50.0984
1625.22	50.8686
1626.75	51.9899
1628.29	52.7218
1629.82	52.7494
1631.36	53.3152
1632.9	53.7445
1634.43	54.6509
1635.96	55.8031
1637.5	56.882
1639.03	58.2433
1640.57	58.9432
1642.1	59.4805
1643.63	60.3931
1645.16	60.9343
1646.7	60.6607
1648.23	62.0345
1649.76	62.6984
1651.29	62.2991
1652.82	62.3743
1654.36	62.6094
1655.89	62.6173
1657.42	61.6377
1658.95	60.1615
1660.48	59.6213
1662.01	58.7688
1663.53	57.3187
1665.06	56.881
1666.59	55.2953
1668.12	54.3618
1669.65	52.5521
1671.18	50.5082
1672.7	48.3675
1674.23	45.9824
1675.76	42.7527
1677.29	40.0901
1678.81	37.919
1680.34	36.1058
1681.86	32.2259
1683.39	29.7479
1684.91	26.7472
1686.44	23.9
1687.96	21.0937
1689.49	18.9271
1691.01	17.05
1692.54	19.4427
1694.06	19.1815
1695.58	18.6825
1697.11	17.322
1698.63	16.6822
1700.15	16.2692
1701.67	15.4622
1703.2	14.8554
1704.72	13.8489
1706.24	12.9133
1707.76	13.3342
1709.28	13.0088
1710.8	12.892
1712.32	13.4734
1713.84	13.5021
1715.36	13.7222
1716.88	13.8657
1718.4	14.1605
1719.91	14.325
1721.43	14.2316
1722.95	14.1457
1724.47	15.0485
1725.99	15.4475
1727.5	15.7855
1729.02	15.7795
1730.54	15.4868
1732.05	15.3577
1733.57	14.9494
1735.09	15.7696
1736.6	15.649
1738.12	15.5607
1739.63	15.4125
1741.15	15.2524
1742.66	14.9229
1744.18	14.466
1745.69	14.0812
1747.2	13.7766
1748.72	13.7096
1750.23	13.7454
1751.74	13.3896
1753.25	13.0725
1754.77	12.8336
1756.28	12.9513
1757.79	12.2623
1759.3	12.5898
1760.81	12.2253
1762.32	11.9264
1763.83	11.7765
1765.34	10.5115
1766.85	9.57063
1768.36	8.54723
1769.87	7.58974
1771.38	7.69173
1772.89	7.11556
1774.4	6.43543
1775.91	5.55646
1777.41	5.01069
1778.92	4.54229
1780.43	4.40731
1781.94	3.84419
1783.44	3.39893
1784.95	3.26282
1786.45	3.35414
1787.96	4.21124
1789.47	4.42456
1790.97	3.82756
1792.48	3.06942
1793.98	2.85271
1795.48	2.9977
1796.99	3.2336
1798.49	3.26678
1800	3.50673
1801.5	3.69473
1803	3.62741
1804.51	3.73713
1806.01	4.42286
1807.51	4.8656
1809.01	4.52522
1810.51	4.6196
1812.02	4.84092
1813.52	5.10979
1815.02	4.99938
1816.52	4.95667
1818.02	4.67459
1819.52	4.92907
1821.02	5.37384
1822.52	6.34684
1824.02	6.95215
1825.51	7.54268
1827.01	7.96953
1828.51	8.16186
1830.01	8.91526
1831.51	9.1733
1833	9.0052
1834.5	9.09402
1836	9.26098
1837.5	8.70339
1838.99	8.54851
1840.49	8.30893
1841.98	8.61153
1843.48	8.31773
1844.97	8.20089
1846.47	7.8157
1847.96	8.24732
1849.46	7.96953
1850.95	8.1729
1852.45	8.79171
1853.94	8.94349
1855.43	8.58489
1856.92	7.49788
1858.42	6.98537
1859.91	7.52278
1861.4	7.41166
1862.89	7.04142
1864.39	6.94246
1865.88	5.94332
1867.37	6.29903
1868.86	6.90974
1870.35	7.40199
1871.84	6.62293
1873.33	6.58114
1874.82	6.89107
1876.31	7.13575
1877.8	6.59197
1879.29	6.13961
1880.77	6.14947
1882.26	5.72059
1882.51	5.31981
1884	5.50849
1885.5	5.33531
1886.99	5.24705
1888.48	5.28967
1889.98	5.63754
1891.47	5.74045
1892.97	5.52869
1894.46	5.68843
1895.95	6.38553
1897.44	6.44488
1898.93	6.69941
1900.42	7.05866
1901.92	7.29503
1903.41	6.90969
1904.9	6.36943
1906.39	6.27803
1907.88	5.84354
1909.37	5.60153
1910.86	5.89807
1912.35	6.57345
1913.84	6.67696
1915.32	6.95612
1916.81	6.55067
1918.3	7.19766
1919.79	7.94695
1921.28	7.97194
1922.76	7.38818
1924.25	7.46991
1925.74	7.6487
1927.22	6.99946
1928.71	6.71529
1930.2	6.90641
1931.68	7.1148
1933.17	6.93991
1934.65	6.57157
1936.14	6.29649
1937.62	6.63258
1939.11	6.72669
1940.59	7.36813
1942.08	7.59236
1943.56	8.13851
1945.04	7.02088
1946.53	7.28907
1948.01	7.32408
1949.49	7.08575
1950.97	6.53914
1952.45	5.93346
1953.94	6.03561
1955.42	5.32387
1956.9	5.06829
1958.38	5.11846
1959.86	5.23124
1961.34	5.00404
1962.82	4.64635
1964.3	4.60591
1965.78	4.07662
1967.26	4.23488
1968.74	4.69043
1970.22	4.63379
1971.69	4.20769
1973.17	4.24578
1974.65	4.33642
1976.13	4.22768
1977.61	3.26381
1979.08	3.74129
1980.56	4.4881
1982.03	4.72239
1983.51	5.10176
1984.99	5.44359
1986.46	5.27346
1987.94	4.61723
1989.41	4.70912
1990.89	4.888
1992.36	5.48786
1993.84	5.67067
1995.31	4.92205
1996.78	5.65284
1998.26	5.88221
1999.73	5.87496
2001.2	5.85975
2002.68	5.79741
2004.15	5.2043
2005.62	4.98863
2007.09	5.48134
2008.56	5.74557
2010.04	5.5945
2011.51	6.42475
2012.98	6.98281
2014.45	6.92097
2015.92	6.42857
2017.39	6.48851
2018.86	5.79512
2020.33	6.8926
2021.8	7.01204
2023.27	6.44613
2024.74	5.67375
2026.2	5.78
2027.67	6.39714
2029.14	6.71491
2030.61	7.10538
2032.07	7.76319
2033.54	7.96452
2035.01	7.65282
2036.47	8.02264
2037.94	9.11892
2039.41	9.35963
2040.87	10.1446
2042.34	10.6023
2043.8	11.2884
2045.27	12.4917
2046.73	13.5137
2048.2	13.8313
2049.66	14.4153
2051.12	14.7865
2052.59	15.2981
2054.05	15.522
2055.51	15.3103
2056.98	15.4971
2058.44	15.8245
2059.9	16.0419
2061.36	16.3104
2062.82	17.0506
2064.29	17.7919
2065.75	18.5645
2067.21	18.993
2068.67	18.7872
2070.13	18.9979
2071.59	19.0648
2073.05	18.8331
2074.51	19.0747
2075.97	19.7057
2077.43	19.7075
2078.88	20.2575
2080.34	20.5042
2081.8	20.264
2083.26	20.8832
2084.72	21.4524
2086.17	21.5617
2087.63	21.6571
2089.09	22.0442
2090.54	22.6467
2092	23.7602
2093.46	24.4389
2094.91	24.1399
2096.37	25.0487
2097.82	25.6501
2099.28	26.1763
2100.73	27.2613
2102.19	27.8161
2103.64	28.4559
2105.09	29.2561
2106.55	29.3769
2108	30.6191
2109.46	31.4633
2110.91	32.4582
2112.36	33.3921
2113.81	34.9353
2115.27	36.7628
2116.72	37.443
2118.17	38.6958
2119.62	39.4041
2121.07	40.2665
2122.52	41.2881
2123.97	42.2771
2125.42	43.4165
2126.87	45.0039
2128.32	45.7952
2129.77	46.8624
2131.22	47.8143
2132.67	48.6442
2134.12	50.004
2135.57	51.1952
2137.01	52.6435
