#Acq. time (s)=	45
#Accumulations=	2
#Range (cm-¹)=	200...3150
#Windows=	2
#Auto scanning=	Off
#Autofocus=	Off
#Macrospot=	Off
#AutoExposure=	Off
#Spike filter=	Multiple accum.
#Delay time (s)=	0
#Binning=	1
#Readout mode=	Signal
#DeNoise=	Off
#ICS correction=	On
#Dark correction=	Off
#Inst. Process=	Off
#Detector Gain=	Best Dynamic Range
#Detector ADC=	20 kHz       
#Detector temperature (°C)=	-69.85
#Instrument=	LabRAM HR Evol
#Detector=	Synapse
#Objective=	x100
#Grating=	600 gr/mm
#ND Filter=	100%
#Laser (nm)=	532 
#Hole=	100.021
#Range=	Auto
#Laser Pol.=	No
#Raman. Pol.=	No
#Laser Pol. (°)=	-0.0007625
#Raman Pol. (°)=	89.9995
#Collection=	Microscope
#StageXY=	Marzhauser
#StageZ=	Marzhauser
#X (µm)=	28246.7
#Y (µm)=	-3221.3
#Z (µm)=	1041.05
#Full time(mm:ss)=	3:19
#Project=	
#Sample=	
#Site=	
#Title=	Mb_50_18_38_2x_45s_532 nm_x100_100%_600 gr_mm
#Remark=	
#Date=	12.07.2022 13:54
#Acquired=	12.07.2022 13:54:23
#Base:Fit=	10.08.2022 10:49:18
#Base:Sub=	10.08.2022 10:49:30
#Filter:Polynom=	16.08.2022 10:14:59
#AxisType[0]=Intens
#AxisUnit[0]=Cnt
#AxisType[1]=Spectr
#AxisUnit[1]=1/cm
200.388	99.8525
202.204	97.3774
204.019	96.4014
205.832	94.35
207.646	91.5923
209.459	88.5185
211.274	85.55
213.087	81.2945
214.899	78.0499
216.711	73.5588
218.524	69.4994
220.335	66.1359
222.146	62.7049
223.956	59.313
225.766	55.8021
227.576	49.8642
229.388	48.2607
231.197	44.5984
233.005	42.1
234.813	39.6982
236.621	37.4689
238.429	35.4946
240.236	34.0199
242.045	31.1804
243.852	30.2944
245.658	28.3155
247.464	24.9759
249.269	22.0738
251.074	18.95
252.879	17.1201
254.683	15.6036
256.487	13.1864
258.291	12.4736
260.094	11.9487
261.897	11.5681
263.702	11.4484
265.504	10.3188
267.306	10.2439
269.108	8.39398
270.909	8.22778
272.71	7.59172
274.511	7.29558
276.311	6.70292
278.111	5.8467
279.91	4.75415
281.709	4.41448
283.508	4.34294
285.306	3.51055
287.105	3.30333
288.9	4.20146
290.698	6.03308
292.495	6.57674
294.291	6.52155
296.088	7.99973
297.884	8.96738
299.679	9.75068
301.475	11.4251
303.27	10.8974
305.064	12.0463
306.858	12.4421
308.652	14.0177
310.444	14.7414
312.237	14.1091
314.03	14.8801
315.822	15.1977
317.615	15.4103
319.406	18.5971
321.198	18.2634
322.987	19.1446
324.778	17.9519
326.568	18.6904
328.358	17.5513
330.148	15.827
331.935	13.8301
333.724	11.9313
335.513	9.1368
337.301	6.07107
339.089	4.43917
340.875	4.58302
342.662	4.94399
344.449	5.24031
346.236	6.88517
348.02	8.7747
349.806	10.8471
351.592	12.3255
353.375	15.5406
355.16	17.9923
356.944	21.9815
358.728	26.6113
360.51	32.0037
362.294	36.4727
364.077	41.7344
365.858	47.2852
367.64	52.8927
369.422	58.5735
371.202	63.2262
372.983	67.5015
374.764	70.2513
376.543	73.9945
378.324	78.8958
380.102	81.2573
381.881	84.0118
383.661	86.8975
385.438	89.2169
387.216	89.7799
388.993	90.1856
390.771	89.6335
392.548	89.1984
394.324	88.0492
396.101	86.7548
397.875	84.5794
399.651	81.876
401.425	78.9034
403.201	76.5668
404.974	71.5682
406.749	66.9435
408.524	62.1512
410.296	55.851
412.07	50.034
413.841	43.7254
415.614	38.6624
417.385	31.1003
419.156	25.3956
420.928	18.7214
422.698	12.6627
424.469	8.36
426.238	3.83385
428.009	1.43129
429.777	-0.934228
431.548	-3.12987
433.315	-5.28139
435.083	-6.05669
436.852	-6.58721
438.618	-5.66428
440.387	-5.3886
442.153	-3.28556
443.919	-2.3378
445.686	-0.165791
447.451	1.22447
449.218	2.29559
450.982	3.29742
452.746	4.22812
454.512	4.20158
456.275	2.45386
458.038	1.91661
459.803	0.258573
461.565	0.722994
463.327	0.265556
465.091	0.690915
466.852	0.00783677
468.613	-0.546815
470.374	0.509735
472.136	1.42877
473.896	1.87236
475.655	3.05449
477.415	4.86635
479.176	7.50797
480.934	11.3262
482.692	14.7599
484.45	19.5795
486.21	24.5857
487.967	29.8009
489.724	34.3658
491.481	39.0749
493.237	44.9884
494.995	51.4822
496.75	57.9426
498.506	63.8424
500.26	70.1951
502.015	74.7409
503.771	80.5086
505.525	84.4313
507.279	88.2291
509.032	90.0373
510.785	94.1687
512.537	98.6754
514.289	101.255
516.041	103.523
517.793	104.991
519.546	106.723
521.297	107.135
523.047	107.682
524.797	107.627
526.547	106.477
528.297	104.837
530.046	102.475
531.795	99.6553
533.543	97.0596
535.291	92.8388
537.039	88.5414
538.787	84.3769
540.534	78.129
542.281	71.5309
544.027	64.9266
545.773	59.0552
547.519	52.6336
549.264	46.6305
551.01	40.0281
552.754	33.6866
554.499	28.5202
556.243	23.324
557.987	20.032
559.73	16.2058
561.474	13.0245
563.216	11.5373
564.959	11.1128
566.701	9.78577
568.441	9.77051
570.182	9.60256
571.923	8.98514
573.664	9.31771
575.405	9.18356
577.145	10.1831
578.885	10.8511
580.624	12.2407
582.361	11.539
584.1	12.9166
585.839	13.6127
587.577	14.6539
589.315	14.6358
591.052	15.1005
592.787	14.4343
594.524	15.5261
596.26	16.841
597.997	19.6045
599.732	20.0518
601.466	19.1212
603.201	19.8498
604.936	18.9697
606.67	18.9744
608.403	18.614
610.136	18.1783
611.87	18.6845
613.603	18.2417
615.334	18.5008
617.067	17.5766
618.799	17.8001
620.529	17.3753
622.26	15.6362
623.991	13.4649
625.72	13.0032
627.451	10.8636
629.181	9.57177
630.909	8.7009
632.638	9.12735
634.368	8.92589
636.095	7.23089
637.823	5.87995
639.551	4.35645
641.277	3.57865
643.005	3.52885
644.73	3.92611
646.457	3.07527
648.184	3.87061
649.908	3.82951
651.634	3.77804
653.357	1.7701
655.083	2.10306
656.806	1.25033
658.53	0.357512
660.253	0.817329
661.977	-0.102783
663.7	-0.0919513
665.422	-1.34256
667.145	-0.592339
668.865	-0.707668
670.588	0.0700781
672.308	0.921929
674.027	0.774065
675.749	1.73656
677.468	2.80714
679.188	3.88512
680.907	6.2721
682.627	7.73414
684.345	9.18519
686.064	9.01944
687.781	9.70363
689.498	9.68654
691.216	9.88932
692.932	11.6955
694.65	11.9544
696.366	12.4602
698.081	13.0728
699.797	13.4756
701.512	15.1019
703.228	15.0419
704.942	15.8664
706.655	16.7448
708.371	16.7551
710.083	17.0958
711.796	18.5066
713.51	18.6649
715.222	19.2201
716.934	19.9318
718.645	19.9932
720.358	18.6788
722.068	17.1305
723.779	15.9239
725.49	15.5748
727.2	14.4674
728.909	14.6726
730.618	15.3556
732.329	17.0289
734.037	19.2585
735.745	23.0959
737.453	28.2744
739.16	34.5952
740.869	42.7089
742.576	51.8657
744.282	60.9664
745.988	71.7639
747.694	81.4178
749.401	91.5409
751.107	101.932
752.811	113.185
754.516	122.711
756.22	131.801
757.924	140.95
759.627	149.485
761.332	158.011
763.035	165.256
764.738	170.82
766.44	177.015
768.142	181.001
769.843	184.419
771.544	186.815
773.245	188.743
774.946	190.791
776.646	191.798
778.346	192.104
780.046	190.937
781.745	188.208
783.444	185.883
785.143	182.171
786.841	178.439
788.539	173.118
790.237	168.109
791.934	161.693
793.631	154.286
795.328	146.881
797.024	138.74
798.72	130.212
800.416	121.638
802.112	112.45
803.807	102.433
805.502	92.8277
807.196	84.0492
808.89	75.347
810.584	69.1216
812.278	62.9268
813.971	59.6528
815.664	57.5941
817.354	55.2292
819.047	54.0027
820.739	54.7607
822.43	55.3066
824.122	56.0777
825.813	57.4428
827.503	58.3237
829.192	58.5578
830.882	60.8458
832.571	61.2865
834.261	61.5279
835.95	63.1563
837.637	63.1404
839.325	62.5222
841.013	62.3085
842.701	61.8774
844.389	61.7196
846.074	59.8954
847.761	59.3524
849.447	58.8977
851.131	58.6839
852.817	57.4066
854.503	56.9021
856.188	56.398
857.871	55.5293
859.556	54.3122
861.24	52.4378
862.922	51.7634
864.606	49.7491
866.289	48.6796
867.97	47.9765
869.653	47.0285
871.336	47.5631
873.016	45.283
874.698	43.608
876.379	42.0537
878.058	41.4559
879.739	39.9573
881.418	37.988
883.098	36.405
884.778	35.3065
886.456	33.4349
888.135	30.6241
889.812	30.272
891.49	30.2079
893.167	28.4596
894.845	29.4654
896.523	28.4618
898.198	29.148
899.875	29.5656
901.55	28.9845
903.226	29.2609
904.901	28.4588
906.576	29.5334
908.25	30.5555
909.925	31.3113
911.598	31.2726
913.271	31.8275
914.945	31.7589
916.617	30.7291
918.291	30.0147
919.962	30.0788
921.635	30.6461
923.306	30.7247
924.978	29.9668
926.648	29.7126
928.318	29.8691
929.989	28.4157
931.659	27.8461
933.328	27.2848
934.998	25.5238
936.666	25.068
938.336	25.1669
940.004	24.2643
941.671	22.411
943.34	20.7038
945.007	20.486
946.673	20.9789
948.339	20.5207
950.007	20.2986
951.672	18.5407
953.337	17.4768
955.004	16.3572
956.669	14.6214
958.333	13.3141
959.997	11.4649
961.662	10.3906
963.326	9.13373
964.989	9.27478
966.651	10.325
968.315	10.7048
969.977	12.1354
971.639	15.4408
973.301	20.6474
974.962	24.7919
976.624	28.0648
978.285	32.6474
979.945	35.8244
981.605	39.3294
983.264	42.4241
984.924	44.3885
986.583	46.746
988.243	48.6868
989.901	53.6375
991.56	56.6021
993.217	60.8527
994.875	66.2838
996.532	71.9598
998.188	78.7142
999.845	86.808
1001.5	95.0859
1003.16	102.337
1004.81	110.215
1006.47	116.651
1008.12	125.014
1009.78	131.737
1011.43	137.83
1013.09	143.574
1014.74	149.419
1016.39	155.546
1018.05	160.018
1019.7	163.575
1021.35	166.478
1023	169.028
1024.65	170.012
1026.31	172.591
1027.96	171.924
1029.61	172.255
1031.26	170.314
1032.91	168.6
1034.56	165.289
1036.21	161.341
1037.86	158.666
1039.51	156.164
1041.16	149.61
1042.8	146.225
1044.45	142.802
1046.1	138.748
1047.75	135.981
1049.39	133.975
1051.04	131.677
1052.69	130.841
1054.33	129.103
1055.98	126.942
1057.62	123.625
1059.27	120.019
1060.91	116.782
1062.56	114.416
1064.2	112.094
1065.85	110.86
1067.49	108.533
1069.13	108.594
1070.77	110.167
1072.42	113.101
1074.06	114.696
1075.7	117.921
1077.34	120.179
1078.98	122.121
1080.62	123.983
1082.27	124.6
1083.91	125.674
1085.55	126.598
1087.18	128.523
1088.82	129.081
1090.46	130.021
1092.1	128.845
1093.74	129.098
1095.38	127.628
1097.02	125.725
1098.65	124.03
1100.29	120.435
1101.93	117.766
1103.56	115.012
1105.2	111.995
1106.84	106.972
1108.47	103.441
1110.11	98.3209
1111.74	95.1351
1113.38	89.5903
1115.01	83.945
1116.64	77.5493
1118.28	71.4325
1119.91	67.0689
1121.54	61.7855
1123.18	55.3021
1124.81	52.3724
1126.44	47.6442
1128.07	43.8436
1129.7	42.7029
1131.33	41.6309
1132.97	39.0765
1134.6	36.8372
1136.23	35.9611
1137.86	35.8767
1139.49	34.8477
1141.11	33.3431
1142.74	32.7496
1144.37	32.8126
1146	31.6862
1147.63	30.2721
1149.26	29.1117
1150.88	28.2625
1152.51	27.6523
1154.14	26.6045
1155.76	23.7827
1157.39	22.4213
1159.01	20.7471
1160.64	18.7633
1162.27	17.2725
1163.89	17.1757
1165.51	18.2773
1167.14	19.1166
1168.76	18.0671
1170.39	17.6022
1172.01	19.4528
1173.63	19.2212
1175.25	19.3591
1176.88	19.049
1178.5	19.1585
1180.12	19.2932
1181.74	20.2839
1183.36	20.8199
1184.98	20.8077
1186.6	21.2277
1188.22	20.8417
1189.84	21.655
1191.46	21.8032
1193.08	22.2885
1194.7	21.9522
1196.32	22.5622
1197.94	22.4046
1199.55	23.0306
1201.17	23.7814
1202.79	24.799
1204.41	25.8978
1206.02	28.449
1207.64	28.9279
1209.25	31.4583
1210.87	34.6709
1212.48	36.9964
1214.1	38.3492
1215.71	40.7529
1217.33	43.2328
1218.94	45.1831
1220.56	45.7217
1222.17	47.2984
1223.79	49.7579
1225.4	51.1027
1227.01	52.6231
1228.62	53.7868
1230.23	55.2831
1231.85	55.988
1233.46	58.3208
1235.07	59.6032
1236.68	60.737
1238.29	61.9454
1239.9	63.2495
1241.51	63.7502
1243.12	66.8355
1244.73	68.7279
1246.34	69.6525
1247.94	70.3258
1249.55	71.0201
1251.16	72.5463
1252.77	74.6037
1254.37	74.1377
1255.98	75.2107
1257.59	75.914
1259.2	76.8663
1260.8	78.909
1262.41	80.6546
1264.01	82.1452
1265.62	84.1099
1267.22	86.3956
1268.83	88.8255
1270.43	92.8914
1272.03	96.5198
1273.64	100.321
1275.24	103.328
1276.85	107.307
1278.45	110.039
1280.05	113.002
1281.65	115.027
1283.25	119.134
1284.85	122.701
1286.46	124.443
1288.06	126.948
1289.66	130.193
1291.26	132.898
1292.86	133.865
1294.46	135.155
1296.06	136.448
1297.66	137.168
1299.25	137.925
1300.85	138.704
1302.45	140.318
1304.05	138.527
1305.65	138.437
1307.24	138.074
1308.84	136.179
1310.43	134.531
1312.03	133.09
1313.63	131.006
1315.22	129.244
1316.82	127.307
1318.41	122.42
1320.01	120.165
1321.6	116.556
1323.2	114.057
1324.79	109.847
1326.38	107.045
1327.98	103.488
1329.57	99.8273
1331.16	94.8328
1332.76	91.653
1334.35	87.9698
1335.94	85.5314
1337.53	82.9916
1339.12	80.3893
1340.71	79.2288
1342.3	75.921
1343.89	73.3413
1345.48	71.523
1347.07	71.3918
1348.66	70.1575
1350.25	69.9179
1351.84	67.8732
1353.43	66.1735
1355.01	64.5211
1356.6	62.8162
1358.19	60.1675
1359.77	57.8723
1361.36	56.4129
1362.95	55.3787
1364.53	54.3016
1366.12	53.1969
1367.71	52.4467
1369.29	48.9095
1370.88	47.0658
1372.46	44.5987
1374.04	43.5693
1375.63	42.847
1377.21	42.0005
1378.8	41.5552
1380.38	41.3689
1381.96	39.6685
1383.54	37.4942
1385.13	37.988
1386.71	35.6309
1388.29	34.2866
1389.87	33.2553
1391.45	31.9228
1393.03	29.68
1394.61	29.8567
1396.19	28.6611
1397.77	27.4103
1399.35	29.6094
1400.93	32.1641
1402.51	35.8515
1404.09	40.0805
1405.67	44.6569
1407.24	49.1206
1408.82	55.2626
1410.4	62.2429
1411.98	69.4741
1413.55	76.3892
1415.13	84.5662
1416.71	91.9328
1418.28	98.9538
1419.86	107
1421.43	115.597
1423.01	125.25
1424.58	134.775
1426.16	143.704
1427.73	152.893
1429.31	161.792
1430.88	170.056
1432.45	177.435
1434.02	184.468
1435.6	190.579
1437.17	195.905
1438.74	201.755
1440.31	205.389
1441.88	208.302
1443.45	209.988
1445.03	209.789
1446.6	208.728
1448.17	208.244
1449.74	207.319
1451.3	204.842
1452.87	202.733
1454.44	199.226
1456.01	195.243
1457.58	189.431
1459.15	182.303
1460.72	174.323
1462.28	166.467
1463.85	157.587
1465.42	147.44
1466.98	138.547
1468.55	128.502
1470.12	119.85
1471.68	111.269
1473.25	103.349
1474.81	94.6013
1476.38	86.6021
1477.94	79.6338
1479.51	73.5781
1481.07	66.6288
1482.63	59.8077
1484.2	53.3383
1485.76	47.632
1487.32	41.2713
1488.88	36.1477
1490.45	30.147
1492.01	26.042
1493.57	23.1664
1495.13	18.6303
1496.69	15.8353
1498.25	14.4073
1499.81	12.8561
1501.37	10.2229
1502.93	8.85799
1504.49	6.96813
1506.05	6.15041
1507.61	4.00544
1509.17	2.89776
1510.73	1.76022
1512.28	0.891187
1513.84	0.0450073
1515.4	-1.36632
1516.96	-2.32317
1518.51	-4.35723
1520.07	-4.28878
1521.63	-4.3444
1523.18	-3.51919
1524.74	-2.35157
1526.29	-1.29692
1527.85	-0.111151
1529.4	1.96934
1530.96	3.83603
1532.51	4.91388
1534.06	7.76481
1535.62	8.72657
1537.17	10.1144
1538.72	11.4926
1540.28	12.8966
1541.83	14.304
1543.38	17.0606
1544.93	19.447
1546.48	22.137
1548.03	25.6036
1549.59	26.7532
1551.14	28.3721
1552.69	29.7336
1554.24	31.4724
1555.79	32.2738
1557.34	33.1126
1558.88	33.6721
1560.43	34.1833
1561.98	37.0362
1563.53	39.4342
1565.08	41.8837
1566.62	46.0458
1568.17	48.9213
1569.72	52.8626
1571.27	56.2632
1572.81	59.1432
1574.36	62.4139
1575.9	65.61
1577.45	68.2934
1579	71.9629
1580.54	74.5219
1582.09	77.0036
1583.63	79.644
1585.17	81.4308
1586.72	83.3337
1588.26	84.7449
1589.8	85.5951
1591.35	87.0432
1592.89	88.5559
1594.43	90.5667
1595.97	91.2274
1597.52	91.9232
1599.06	92.4928
1600.6	92.4281
1602.14	92.0693
1603.68	92.5033
1605.22	92.4046
1606.76	91.8466
1608.3	91.2628
1609.84	90.6619
1611.38	89.79
1612.92	87.4132
1614.46	84.9557
1615.99	84.0387
1617.53	83.2782
1619.07	83.9301
1620.61	84.18
1622.14	82.8069
1623.68	83.0201
1625.22	81.8537
1626.75	81.2092
1628.29	81.1081
1629.82	80.8665
1631.36	81.755
1632.9	81.7013
1634.43	83.4822
1635.96	86.0524
1637.5	88.7442
1639.03	92.7259
1640.57	94.9548
1642.1	96.8013
1643.63	99.3859
1645.16	101.011
1646.7	102.874
1648.23	105.519
1649.76	107.146
1651.29	108.694
1652.82	110.774
1654.36	112.451
1655.89	112.93
1657.42	112.439
1658.95	113.13
1660.48	112.458
1662.01	112.585
1663.53	111.492
1665.06	110.296
1666.59	108.037
1668.12	106.867
1669.65	104.763
1671.18	100.965
1672.7	96.3281
1674.23	93.6762
1675.76	90.7852
1677.29	86.5483
1678.81	82.3667
1680.34	79.4722
1681.86	74.834
1683.39	70.9003
1684.91	67.1881
1686.44	63.0048
1687.96	58.7801
1689.49	54.173
1691.01	50.7514
1692.54	48.3449
1694.06	44.9931
1695.58	43.3745
1697.11	39.1941
1698.63	36.7303
1700.15	35.0104
1701.67	32.9429
1703.2	32.3446
1704.72	31.8382
1706.24	30.8798
1707.76	29.86
1709.28	27.8715
1710.8	27.7169
1712.32	26.7789
1713.84	25.4076
1715.36	24.3223
1716.88	23.8868
1718.4	23.1518
1719.91	23.1792
1721.43	22.1941
1722.95	22.2288
1724.47	23.0238
1725.99	22.5619
1727.5	22.6713
1729.02	22.432
1730.54	21.9691
1732.05	21.4662
1733.57	21.8936
1735.09	22.4365
1736.6	22.0201
1738.12	21.401
1739.63	20.7398
1741.15	20.3673
1742.66	19.0212
1744.18	18.4776
1745.69	17.3001
1747.2	16.2652
1748.72	16.1077
1750.23	16.8484
1751.74	15.7194
1753.25	15.2342
1754.77	14.3073
1756.28	13.6965
1757.79	12.6243
1759.3	12.8164
1760.81	12.2978
1762.32	10.7061
1763.83	8.96445
1765.34	8.32261
1766.85	8.0818
1768.36	7.32644
1769.87	6.38833
1771.38	6.08039
1772.89	5.02913
1774.4	5.78088
1775.91	6.03353
1777.41	6.46117
1778.92	6.40327
1780.43	5.83375
1781.94	4.67348
1783.44	4.11961
1784.95	3.86726
1786.45	3.80379
1787.96	2.69694
1789.47	2.37396
1790.97	2.27496
1792.48	2.67544
1793.98	1.8758
1795.48	1.60794
1796.99	1.40105
1798.49	1.98941
1800	1.9849
1801.5	1.44858
1803	1.95354
1804.51	1.88007
1806.01	2.51548
1807.51	3.7636
1809.01	3.61553
1810.51	3.55974
1812.02	3.24855
1813.52	2.73167
1815.02	2.42983
1816.52	2.05684
1818.02	2.18878
1819.52	2.29692
1821.02	2.80475
1822.52	3.04969
1824.02	2.98195
1825.51	3.47013
1827.01	3.20888
1828.51	3.43198
1830.01	3.39737
1831.51	4.02259
1833	4.27061
1834.5	4.47626
1836	3.99585
1837.5	3.6052
1838.99	3.8972
1840.49	4.0594
1841.98	3.51158
1843.48	2.91306
1844.97	1.99671
1846.47	1.86858
1847.96	2.20624
1849.46	2.61084
1850.95	2.27127
1852.45	1.8984
1853.94	1.97476
1855.43	1.73705
1856.92	1.91751
1858.42	2.05156
1859.91	1.71622
1861.4	0.625999
1862.89	1.31334
1864.39	1.95986
1865.88	1.85718
1867.37	2.02393
1868.86	2.06413
1870.35	2.17903
1871.84	2.36364
1873.33	3.18397
1874.82	2.95896
1876.31	4.56818
1877.8	5.12587
1879.29	4.55232
1880.77	5.0139
1882.26	5.27569
1882.51	4.58752
1884	5.07653
1885.5	4.96584
1886.99	5.27698
1888.48	5.79598
1889.98	7.14076
1891.47	7.66824
1892.97	7.74726
1894.46	8.15481
1895.95	8.58198
1897.44	9.12536
1898.93	9.4998
1900.42	9.91491
1901.92	9.95374
1903.41	9.25334
1904.9	9.46375
1906.39	8.92171
1907.88	8.71821
1909.37	8.29146
1910.86	8.76905
1912.35	8.73884
1913.84	9.30748
1915.32	8.92996
1916.81	8.77737
1918.3	8.23744
1919.79	8.43048
1921.28	8.02485
1922.76	7.71804
1924.25	6.97617
1925.74	7.07466
1927.22	6.54157
1928.71	5.45494
1930.2	4.67677
1931.68	4.21667
1933.17	3.96302
1934.65	3.94572
1936.14	3.53883
1937.62	2.65051
1939.11	2.25178
1940.59	2.67167
1942.08	2.43676
1943.56	1.6725
1945.04	1.4136
1946.53	1.86059
1948.01	0.77843
1949.49	0.253793
1950.97	-0.402854
1952.45	-0.997773
1953.94	-0.0799866
1955.42	-0.00583799
1956.9	-0.446533
1958.38	-0.905699
1959.86	0.167061
1961.34	0.740415
1962.82	1.20593
1964.3	1.18321
1965.78	1.2454
1967.26	1.26406
1968.74	1.2308
1970.22	1.39373
1971.69	1.51042
1973.17	1.20032
1974.65	1.70095
1976.13	0.588351
1977.61	0.823217
1979.08	1.51367
1980.56	1.92241
1982.03	1.9594
1983.51	2.62907
1984.99	3.20937
1986.46	3.41758
1987.94	4.00323
1989.41	3.7479
1990.89	3.11385
1992.36	2.785
1993.84	2.51755
1995.31	2.57957
1996.78	1.77996
1998.26	1.67518
1999.73	1.8094
2001.2	1.87279
2002.68	2.80196
2004.15	3.34598
2005.62	3.19033
2007.09	3.13609
2008.56	2.66283
2010.04	2.44969
2011.51	3.16265
2012.98	2.9202
2014.45	2.75066
2015.92	1.97614
2017.39	1.78597
2018.86	2.29385
2020.33	1.878
2021.8	0.235046
2023.27	1.31215
2024.74	2.29464
2026.2	1.83281
2027.67	2.24755
2029.14	2.30707
2030.61	3.34748
2032.07	4.42429
2033.54	5.0385
2035.01	5.89489
2036.47	6.63669
2037.94	7.81424
2039.41	8.68427
2040.87	9.1562
2042.34	9.37669
2043.8	10.394
2045.27	11.5336
2046.73	13.1683
2048.2	13.9231
2049.66	13.7291
2051.12	15.5432
2052.59	16.1658
2054.05	16.6851
2055.51	17.0987
2056.98	17.6339
2058.44	18.4757
2059.9	20.0197
2061.36	20.7964
2062.82	21.4364
2064.29	22.2174
2065.75	23.1915
2067.21	24.15
2068.67	25.2881
2070.13	25.8326
2071.59	28.0718
2073.05	30.8187
2074.51	32.6202
2075.97	33.305
2077.43	33.9575
2078.88	34.5953
2080.34	35.8913
2081.8	37.1995
2083.26	38.2115
2084.72	38.7173
2086.17	39.506
2087.63	40.3703
2089.09	42.3109
2090.54	42.3247
2092	43.2426
2093.46	43.7334
2094.91	45.4315
2096.37	48.606
2097.82	49.7214
2099.28	51.6239
2100.73	54.3539
2102.19	57.3209
2103.64	58.87
2105.09	59.7772
2106.55	62.339
2108	65.6728
2109.46	67.9808
2110.91	70.2145
2112.36	71.5902
2113.81	73.9628
2115.27	77.0277
2116.72	79.645
2118.17	82.3317
2119.62	84.1059
2121.07	85.4302
2122.52	88.7458
2123.97	91.7847
2125.42	93.9055
2126.87	96.3779
2128.32	99.697
2129.77	102.833
2131.22	106.465
