#Acq. time (s)=	45
#Accumulations=	2
#Range (cm-¹)=	200...3150
#Windows=	2
#Auto scanning=	Off
#Autofocus=	Off
#Macrospot=	Off
#AutoExposure=	Off
#Spike filter=	Multiple accum.
#Delay time (s)=	0
#Binning=	1
#Readout mode=	Signal
#DeNoise=	Off
#ICS correction=	On
#Dark correction=	Off
#Inst. Process=	Off
#Detector Gain=	Best Dynamic Range
#Detector ADC=	20 kHz       
#Detector temperature (°C)=	-69.85
#Instrument=	LabRAM HR Evol
#Detector=	Synapse
#Objective=	x100
#Grating=	600 gr/mm
#ND Filter=	100%
#Laser (nm)=	532 
#Hole=	100.021
#Range=	Auto
#Laser Pol.=	No
#Raman. Pol.=	No
#Laser Pol. (°)=	-0.0007625
#Raman Pol. (°)=	89.9995
#Collection=	Microscope
#StageXY=	Marzhauser
#StageZ=	Marzhauser
#X (µm)=	28236.8
#Y (µm)=	-3207.7
#Z (µm)=	1040.8
#Full time(mm:ss)=	3:19
#Project=	
#Sample=	
#Site=	
#Title=	Mb_50_18_40_2x_45s_532 nm_x100_100%_600 gr_mm
#Remark=	
#Date=	12.07.2022 14:03
#Acquired=	12.07.2022 14:03:34
#Base:Fit=	10.08.2022 10:49:18
#Base:Sub=	10.08.2022 10:49:30
#Filter:Polynom=	16.08.2022 10:14:59
#AxisType[0]=Intens
#AxisUnit[0]=Cnt
#AxisType[1]=Spectr
#AxisUnit[1]=1/cm
200.388	16.6932
202.204	17.5238
204.019	17.8311
205.832	18.5522
207.646	18.8107
209.459	18.6425
211.274	18.0431
213.087	17.1311
214.899	15.9344
216.711	15.3017
218.524	14.7729
220.335	13.4985
222.146	12.3297
223.956	11.2538
225.766	10.9887
227.576	10.1908
229.388	10.5546
231.197	11.52
233.005	11.1309
234.813	10.2252
236.621	9.89889
238.429	9.12089
240.236	8.01841
242.045	7.70869
243.852	7.40691
245.658	7.9368
247.464	7.75232
249.269	7.5988
251.074	8.68982
252.879	8.38382
254.683	8.01157
256.487	7.76234
258.291	8.64103
260.094	9.44434
261.897	10.8594
263.702	10.7079
265.504	9.81083
267.306	9.71165
269.108	9.1293
270.909	8.36606
272.71	9.84082
274.511	8.41278
276.311	8.29922
278.111	7.8809
279.91	8.45244
281.709	8.43377
283.508	9.43427
285.306	9.61428
287.105	10.0962
288.9	10.043
290.698	10.7993
292.495	12.0837
294.291	12.8746
296.088	13.085
297.884	14.3996
299.679	15.0258
301.475	16.0829
303.27	17.3147
305.064	18.8902
306.858	20.2652
308.652	20.6475
310.444	20.5151
312.237	21.3829
314.03	22.0289
315.822	23.1149
317.615	23.5348
319.406	24.218
321.198	24.5118
322.987	23.3781
324.778	23.8395
326.568	25.1509
328.358	25.3132
330.148	25.1263
331.935	24.8952
333.724	24.3661
335.513	24.5527
337.301	23.6395
339.089	23.9762
340.875	24.6252
342.662	24.2711
344.449	23.1561
346.236	23.6976
348.02	25.8513
349.806	27.1416
351.592	28.4146
353.375	30.3407
355.16	30.9079
356.944	32.3908
358.728	32.7438
360.51	34.8985
362.294	36.4872
364.077	37.0456
365.858	40.1412
367.64	41.8873
369.422	45.185
371.202	46.5638
372.983	48.2574
374.764	50.3904
376.543	52.1792
378.324	54.6408
380.102	56.4402
381.881	58.2092
383.661	58.852
385.438	58.67
387.216	59.3985
388.993	59.0874
390.771	59.3224
392.548	58.4284
394.324	57.2851
396.101	54.5264
397.875	51.9149
399.651	50.3507
401.425	48.3261
403.201	46.324
404.974	44.613
406.749	41.6388
408.524	38.4817
410.296	35.1135
412.07	30.8906
413.841	27.8536
415.614	24.686
417.385	20.4399
419.156	16.711
420.928	13.6488
422.698	11.6553
424.469	10.5848
426.238	8.02364
428.009	6.1304
429.777	4.04662
431.548	2.81872
433.315	1.5789
435.083	2.70848
436.852	4.09591
438.618	2.03191
440.387	2.06126
442.153	2.13483
443.919	0.79507
445.686	1.69615
447.451	2.2931
449.218	2.9363
450.982	3.77957
452.746	4.42914
454.512	5.65083
456.275	6.14578
458.038	7.41238
459.803	7.02149
461.565	7.59236
463.327	8.9725
465.091	8.84351
466.852	9.70812
468.613	9.95884
470.374	10.1885
472.136	9.58561
473.896	10.7476
475.655	11.5907
477.415	12.5327
479.176	13.9841
480.934	14.9775
482.692	17.557
484.45	18.7527
486.21	22.1088
487.967	25.4783
489.724	27.0783
491.481	29.6844
493.237	30.9591
494.995	32.0827
496.75	34.0535
498.506	37.1484
500.26	39.6378
502.015	42.895
503.771	45.4006
505.525	47.4788
507.279	49.2601
509.032	50.0751
510.785	51.0813
512.537	51.507
514.289	51.3445
516.041	52.0668
517.793	53.2508
519.546	54.7797
521.297	54.6388
523.047	54.2555
524.797	54.0113
526.547	53.6067
528.297	54.3713
530.046	53.5325
531.795	52.168
533.543	51.2833
535.291	49.6272
537.039	47.3504
538.787	45.254
540.534	41.6668
542.281	39.4523
544.027	36.6513
545.773	33.3247
547.519	29.8967
549.264	27.2659
551.01	25.3565
552.754	21.652
554.499	18.8722
556.243	16.3893
557.987	14.8286
559.73	13.1589
561.474	11.8806
563.216	10.2106
564.959	9.6095
566.701	9.68225
568.441	9.08685
570.182	8.75062
571.923	7.362
573.664	7.96685
575.405	7.40321
577.145	7.44433
578.885	7.14135
580.624	6.6788
582.361	8.39838
584.1	10.0877
585.839	10.1126
587.577	8.76861
589.315	8.5381
591.052	7.64393
592.787	7.36583
594.524	8.08429
596.26	7.49103
597.997	8.85382
599.732	9.90866
601.466	10.5684
603.201	11.4271
604.936	11.7126
606.67	12.9605
608.403	12.8532
610.136	13.3515
611.87	13.6317
613.603	13.9093
615.334	12.8719
617.067	12.8957
618.799	12.0602
620.529	11.9915
622.26	11.3728
623.991	10.4306
625.72	9.98162
627.451	9.84895
629.181	9.71641
630.909	8.54323
632.638	7.57945
634.368	7.8974
636.095	8.12538
637.823	7.62562
639.551	6.26855
641.277	5.26135
643.005	5.51103
644.73	5.1173
646.457	4.27734
648.184	3.33168
649.908	3.77071
651.634	3.64339
653.357	3.97058
655.083	4.22515
656.806	4.72078
658.53	5.69153
660.253	6.42094
661.977	5.67058
663.7	5.64727
665.422	4.88977
667.145	5.52253
668.865	6.66664
670.588	7.23074
672.308	6.45761
674.027	7.24264
675.749	8.11116
677.468	9.55471
679.188	11.7822
680.907	13.2488
682.627	14.34
684.345	16.538
686.064	17.46
687.781	18.1692
689.498	20.0139
691.216	20.5451
692.932	22.259
694.65	23.2945
696.366	23.2543
698.081	24.6013
699.797	25.98
701.512	26.8921
703.228	28.9446
704.942	29.384
706.655	29.6911
708.371	29.9974
710.083	30.9718
711.796	30.9944
713.51	32.4541
715.222	32.8599
716.934	33.5753
718.645	33.7123
720.358	34.3366
722.068	33.9567
723.779	33.0648
725.49	32.9922
727.2	33.1847
728.909	34.294
730.618	35.8394
732.329	36.6254
734.037	37.9405
735.745	40.6583
737.453	44.1754
739.16	47.3919
740.869	51.6342
742.576	55.0277
744.282	58.5626
745.988	62.0398
747.694	66.3447
749.401	71.8495
751.107	76.6989
752.811	81.3071
754.516	86.0803
756.22	90.5959
757.924	93.1896
759.627	96.8477
761.332	99.9937
763.035	103.091
764.738	104.395
766.44	105.874
768.142	108.423
769.843	109.608
771.544	110.798
773.245	111.666
774.946	111.957
776.646	112.478
778.346	112.577
780.046	112.891
781.745	110.95
783.444	111.034
785.143	110.322
786.841	108.726
788.539	107.465
790.237	104.692
791.934	102.526
793.631	100.924
795.328	99.2011
797.024	96.1248
798.72	94.2528
800.416	91.2809
802.112	88.3172
803.807	84.7476
805.502	82.1163
807.196	79.4005
808.89	77.5292
810.584	76.4881
812.278	75.5355
813.971	74.1299
815.664	74.225
817.354	72.6534
819.047	73.5919
820.739	74.7289
822.43	74.199
824.122	73.4116
825.813	72.925
827.503	73.4955
829.192	73.0947
830.882	73.3839
832.571	73.4321
834.261	72.8105
835.95	72.3243
837.637	70.7419
839.325	70.4196
841.013	69.7717
842.701	67.996
844.389	66.9042
846.074	64.91
847.761	62.3504
849.447	60.8938
851.131	59.7797
852.817	58.5402
854.503	56.3709
856.188	54.3277
857.871	52.5069
859.556	51.4854
861.24	50.7651
862.922	49.649
864.606	49.7268
866.289	48.4792
867.97	47.8558
869.653	48.1907
871.336	47.6614
873.016	46.9711
874.698	46.0627
876.379	45.9719
878.058	45.9096
879.739	44.7589
881.418	44.1609
883.098	44.8
884.778	44.5622
886.456	44.1499
888.135	42.7594
889.812	43.8606
891.49	44.0715
893.167	44.0157
894.845	43.2413
896.523	43.2793
898.198	42.759
899.875	42.9624
901.55	41.2276
903.226	40.537
904.901	39.5287
906.576	38.1957
908.25	37.9047
909.925	37.5451
911.598	38.0478
913.271	37.7334
914.945	38.2498
916.617	38.9202
918.291	37.8725
919.962	38.0031
921.635	36.919
923.306	37.1163
924.978	36.6082
926.648	34.4599
928.318	33.3191
929.989	31.6956
931.659	30.6594
933.328	30.7861
934.998	29.5798
936.666	28.6229
938.336	28.0382
940.004	28.7283
941.671	28.3553
943.34	29.0268
945.007	29.0674
946.673	29.1979
948.339	28.8766
950.007	28.3812
951.672	28.4037
953.337	28.9574
955.004	28.5157
956.669	27.0289
958.333	26.5969
959.997	25.2607
961.662	24.5967
963.326	23.7553
964.989	24.0307
966.651	23.5488
968.315	23.2333
969.977	23.1051
971.639	24.0378
973.301	24.6463
974.962	24.2162
976.624	22.9669
978.285	22.4771
979.945	21.7305
981.605	19.7236
983.264	17.8959
984.924	16.4409
986.583	16.0421
988.243	14.9483
989.901	14.1848
991.56	14.4786
993.217	15.2465
994.875	17.4056
996.532	19.3709
998.188	21.938
999.845	23.9481
1001.5	25.3224
1003.16	28.0435
1004.81	30.7425
1006.47	33.1063
1008.12	35.9659
1009.78	38.2746
1011.43	41.1935
1013.09	44.9159
1014.74	47.3802
1016.39	50.6761
1018.05	54.3275
1019.7	56.7874
1021.35	59.6827
1023	61.9401
1024.65	63.7813
1026.31	66.2531
1027.96	66.4417
1029.61	68.5464
1031.26	69.6348
1032.91	70.0733
1034.56	70.3213
1036.21	69.7121
1037.86	68.8284
1039.51	68.0845
1041.16	67.2779
1042.8	65.2708
1044.45	65.7964
1046.1	65.0832
1047.75	63.5996
1049.39	61.7586
1051.04	60.1599
1052.69	58.4159
1054.33	56.714
1055.98	53.9853
1057.62	51.8397
1059.27	48.9336
1060.91	46.753
1062.56	44.0401
1064.2	42.8849
1065.85	41.2017
1067.49	41.1655
1069.13	39.545
1070.77	38.6162
1072.42	39.2887
1074.06	39.3098
1075.7	40.4027
1077.34	42.0933
1078.98	43.2961
1080.62	42.7272
1082.27	41.7945
1083.91	41.7857
1085.55	41.9466
1087.18	42.2265
1088.82	42.0998
1090.46	42.6751
1092.1	42.9166
1093.74	43.0763
1095.38	43.4368
1097.02	43.6986
1098.65	44.2971
1100.29	44.6993
1101.93	43.0182
1103.56	42.0992
1105.2	41.5561
1106.84	41.4431
1108.47	39.9448
1110.11	38.6168
1111.74	38.3714
1113.38	36.0887
1115.01	34.2929
1116.64	32.7144
1118.28	31.2359
1119.91	28.6728
1121.54	27.9816
1123.18	26.061
1124.81	25.0342
1126.44	24.2404
1128.07	21.6794
1129.7	19.903
1131.33	18.9803
1132.97	18.7867
1134.6	18.5519
1136.23	18.6837
1137.86	19.3374
1139.49	18.5655
1141.11	18.3765
1142.74	17.0019
1144.37	16.1301
1146	15.4219
1147.63	13.2177
1149.26	13.1015
1150.88	10.8169
1152.51	10.6187
1154.14	9.61105
1155.76	9.06717
1157.39	9.40029
1159.01	7.7331
1160.64	7.06102
1162.27	5.66354
1163.89	5.73497
1165.51	5.73828
1167.14	7.01933
1168.76	7.5961
1170.39	8.13333
1172.01	8.87623
1173.63	10.2228
1175.25	10.323
1176.88	10.8641
1178.5	11.5766
1180.12	10.8201
1181.74	12.2437
1183.36	11.9123
1184.98	11.5448
1186.6	12.8688
1188.22	13.052
1189.84	12.761
1191.46	13.748
1193.08	14.3911
1194.7	14.5359
1196.32	14.2179
1197.94	15.2496
1199.55	15.8403
1201.17	16.3077
1202.79	18.1526
1204.41	19.4691
1206.02	20.935
1207.64	20.1569
1209.25	21.5171
1210.87	22.4743
1212.48	23.8521
1214.1	24.4744
1215.71	26.2902
1217.33	28.072
1218.94	28.6357
1220.56	28.2154
1222.17	28.5736
1223.79	28.0641
1225.4	27.7726
1227.01	28.6775
1228.62	29.6614
1230.23	30.4921
1231.85	30.8093
1233.46	32.2386
1235.07	32.3106
1236.68	33.7165
1238.29	34.5718
1239.9	35.4453
1241.51	36.5971
1243.12	37.3344
1244.73	37.8574
1246.34	39.3698
1247.94	40.9311
1249.55	40.8577
1251.16	42.0011
1252.77	43.1084
1254.37	43.6888
1255.98	43.4948
1257.59	44.741
1259.2	45.4098
1260.8	46.4793
1262.41	48.375
1264.01	48.5025
1265.62	49.7257
1267.22	51.6908
1268.83	53.53
1270.43	55.6641
1272.03	57.6227
1273.64	58.0759
1275.24	59.5805
1276.85	61.5561
1278.45	64.138
1280.05	65.5112
1281.65	67.6771
1283.25	68.8435
1284.85	70.3493
1286.46	70.3651
1288.06	70.4263
1289.66	71.9457
1291.26	72.3306
1292.86	72.5683
1294.46	72.6527
1296.06	74.9902
1297.66	74.9279
1299.25	74.9279
1300.85	74.2524
1302.45	73.9594
1304.05	73.126
1305.65	72.8446
1307.24	73.725
1308.84	73.7162
1310.43	74.1479
1312.03	73.5169
1313.63	72.5421
1315.22	71.5766
1316.82	71.8099
1318.41	71.9752
1320.01	71.7152
1321.6	71.5585
1323.2	71.6302
1324.79	70.5108
1326.38	70.5542
1327.98	69.813
1329.57	69.1918
1331.16	69.4833
1332.76	68.7104
1334.35	67.5478
1335.94	66.6683
1337.53	66.3221
1339.12	64.3148
1340.71	63.9199
1342.3	62.9995
1343.89	61.4507
1345.48	60.6423
1347.07	60.1602
1348.66	59.6522
1350.25	57.8023
1351.84	56.4252
1353.43	53.5661
1355.01	53.4564
1356.6	51.9933
1358.19	50.2961
1359.77	48.9399
1361.36	47.1914
1362.95	45.0465
1364.53	43.5083
1366.12	41.4748
1367.71	40.582
1369.29	38.2743
1370.88	36.9787
1372.46	35.6115
1374.04	35.2367
1375.63	34.4732
1377.21	32.3353
1378.8	31.5278
1380.38	30.1397
1381.96	28.7164
1383.54	27.7677
1385.13	27.1809
1386.71	26.1806
1388.29	25.2857
1389.87	23.9796
1391.45	22.2587
1393.03	21.9475
1394.61	21.7524
1396.19	23.0711
1397.77	22.1962
1399.35	21.6724
1400.93	22.0612
1402.51	22.7017
1404.09	24.2563
1405.67	26.908
1407.24	27.9147
1408.82	30.1777
1410.4	32.3297
1411.98	33.9678
1413.55	34.7527
1415.13	38.1241
1416.71	41.0196
1418.28	42.9966
1419.86	47.146
1421.43	50.277
1423.01	54.1163
1424.58	58.388
1426.16	62.3639
1427.73	66.597
1429.31	70.6901
1430.88	74.4173
1432.45	78.1257
1434.02	82.8577
1435.6	86.1811
1437.17	88.6087
1438.74	91.5945
1440.31	92.8847
1441.88	94.9102
1443.45	96.5107
1445.03	97.9695
1446.6	99.3723
1448.17	100.342
1449.74	102.064
1451.3	102.372
1452.87	102.272
1454.44	101.865
1456.01	102.322
1457.58	102.626
1459.15	101.538
1460.72	101.43
1462.28	100.708
1463.85	100.157
1465.42	98.96
1466.98	97.8382
1468.55	97.1049
1470.12	96.0259
1471.68	94.1719
1473.25	91.8435
1474.81	90.9448
1476.38	88.0668
1477.94	87.4307
1479.51	85.3852
1481.07	83.5621
1482.63	81.5546
1484.2	79.1782
1485.76	76.0625
1487.32	72.9824
1488.88	70.7214
1490.45	67.6773
1492.01	64.9747
1493.57	63.8919
1495.13	61.0724
1496.69	58.7309
1498.25	57.7858
1499.81	55.3439
1501.37	52.9745
1502.93	50.5436
1504.49	47.827
1506.05	46.0503
1507.61	42.5344
1509.17	39.2525
1510.73	36.5729
1512.28	32.7871
1513.84	29.2081
1515.4	25.27
1516.96	22.8321
1518.51	20.0767
1520.07	18.6729
1521.63	16.621
1523.18	14.6863
1524.74	13.6641
1526.29	12.5039
1527.85	10.8806
1529.4	10.7782
1530.96	10.8702
1532.51	11.7946
1534.06	12.7361
1535.62	13.1018
1537.17	13.4132
1538.72	14.5796
1540.28	15.1372
1541.83	16.3109
1543.38	16.9854
1544.93	18.2606
1546.48	18.9566
1548.03	18.0986
1549.59	18.0205
1551.14	18.3103
1552.69	20.4447
1554.24	20.207
1555.79	19.8108
1557.34	19.8817
1558.88	21.1896
1560.43	22.547
1561.98	23.2022
1563.53	24.1598
1565.08	25.0052
1566.62	27.8714
1568.17	28.6417
1569.72	30.8906
1571.27	32.5806
1572.81	34.0774
1574.36	35.6444
1575.9	38.2953
1577.45	39.5883
1579	41.394
1580.54	42.8945
1582.09	45.6768
1583.63	46.8336
1585.17	47.3124
1586.72	48.6171
1588.26	50.7843
1589.8	52.0673
1591.35	53.5332
1592.89	54.3175
1594.43	55.3291
1595.97	55.3818
1597.52	55.5287
1599.06	56.0201
1600.6	56.1493
1602.14	56.2353
1603.68	56.4041
1605.22	57.593
1606.76	59.1889
1608.3	59.3629
1609.84	59.9379
1611.38	59.4731
1612.92	59.7119
1614.46	60.5713
1615.99	61.4261
1617.53	60.6996
1619.07	60.45
1620.61	60.8429
1622.14	60.6413
1623.68	59.344
1625.22	58.6824
1626.75	59.6272
1628.29	59.7275
1629.82	60.4151
1631.36	59.8357
1632.9	60.5882
1634.43	62.203
1635.96	62.4492
1637.5	63.5531
1639.03	64.4508
1640.57	65.9502
1642.1	66.3343
1643.63	67.3324
1645.16	67.8571
1646.7	69.78
1648.23	69.7704
1649.76	70.2545
1651.29	70.7318
1652.82	71.6907
1654.36	71.878
1655.89	71.5963
1657.42	71.2735
1658.95	70.9745
1660.48	68.3495
1662.01	67.3111
1663.53	65.7444
1665.06	63.9669
1666.59	61.463
1668.12	58.8961
1669.65	56.469
1671.18	54.9814
1672.7	52.911
1674.23	51.2206
1675.76	50.0779
1677.29	47.7924
1678.81	45.0672
1680.34	43.1285
1681.86	40.8002
1683.39	38.4079
1684.91	36.6449
1686.44	34.0101
1687.96	31.8666
1689.49	29.5763
1691.01	27.9512
1692.54	25.6965
1694.06	22.6358
1695.58	21.2892
1697.11	19.5791
1698.63	18.5069
1700.15	16.9933
1701.67	16.8963
1703.2	15.7698
1704.72	15.2027
1706.24	14.6193
1707.76	13.5513
1709.28	12.8479
1710.8	11.9876
1712.32	11.4564
1713.84	11.677
1715.36	11.8869
1716.88	11.6656
1718.4	11.2316
1719.91	11.3894
1721.43	11.0665
1722.95	10.9776
1724.47	10.1019
1725.99	10.1271
1727.5	9.44149
1729.02	9.09688
1730.54	8.35211
1732.05	7.26755
1733.57	6.56795
1735.09	6.47245
1736.6	6.10324
1738.12	6.07183
1739.63	6.22416
1741.15	6.5852
1742.66	7.92494
1744.18	7.30544
1745.69	7.10018
1747.2	6.57434
1748.72	5.99324
1750.23	5.44565
1751.74	4.81215
1753.25	4.06655
1754.77	2.80295
1756.28	2.57446
1757.79	3.33925
1759.3	3.38837
1760.81	3.23076
1762.32	2.21062
1763.83	2.44629
1765.34	1.98307
1766.85	2.43872
1768.36	1.92726
1769.87	2.29757
1771.38	2.68705
1772.89	3.51136
1774.4	3.82686
1775.91	3.33309
1777.41	3.3087
1778.92	2.78777
1780.43	3.30265
1781.94	2.69467
1783.44	2.83252
1784.95	3.54355
1786.45	4.15137
1787.96	3.8652
1789.47	3.8956
1790.97	3.50773
1792.48	2.72082
1793.98	2.35574
1795.48	2.31763
1796.99	2.21404
1798.49	2.50004
1800	2.07209
1801.5	1.71117
1803	1.54121
1804.51	2.67085
1806.01	3.1358
1807.51	3.14934
1809.01	3.1197
1810.51	2.87671
1812.02	2.79774
1813.52	2.74499
1815.02	2.52959
1816.52	1.88653
1818.02	1.63515
1819.52	0.721126
1821.02	0.746917
1822.52	0.21769
1824.02	0.120469
1825.51	-0.187214
1827.01	0.175783
1828.51	0.677734
1830.01	0.587068
1831.51	0.854777
1833	0.904499
1834.5	1.05799
1836	1.07239
1837.5	1.63355
1838.99	2.35099
1840.49	2.47832
1841.98	2.52607
1843.48	2.70933
1844.97	3.67781
1846.47	3.98787
1847.96	4.76172
1849.46	4.91877
1850.95	5.41512
1852.45	5.54064
1853.94	5.30941
1855.43	5.24654
1856.92	4.9188
1858.42	5.47734
1859.91	6.07915
1861.4	5.93485
1862.89	5.53393
1864.39	6.10998
1865.88	6.67628
1867.37	7.0025
1868.86	7.66927
1870.35	7.70638
1871.84	7.64487
1873.33	7.86351
1874.82	8.34853
1876.31	8.70344
1877.8	9.23648
1879.29	10.0009
1880.77	9.77458
1882.26	9.53243
1882.51	9.62712
1884	9.78419
1885.5	9.44612
1886.99	9.34499
1888.48	8.62864
1889.98	8.86797
1891.47	9.11116
1892.97	8.96241
1894.46	8.59372
1895.95	8.47979
1897.44	9.21242
1898.93	9.74606
1900.42	10.1929
1901.92	10.6169
1903.41	10.6581
1904.9	10.2191
1906.39	10.5589
1907.88	10.7258
1909.37	10.3076
1910.86	10.681
1912.35	10.141
1913.84	9.79352
1915.32	9.9483
1916.81	10.1807
1918.3	10.2313
1919.79	10.1171
1921.28	10.0056
1922.76	9.67425
1924.25	9.61952
1925.74	8.85571
1927.22	8.82699
1928.71	9.32864
1930.2	8.4718
1931.68	8.88538
1933.17	8.52705
1934.65	8.04207
1936.14	7.69758
1937.62	7.72472
1939.11	7.96901
1940.59	7.10283
1942.08	6.98071
1943.56	7.07118
1945.04	7.14779
1946.53	7.65114
1948.01	7.73939
1949.49	7.81851
1950.97	8.0249
1952.45	7.57629
1953.94	7.06804
1955.42	6.44259
1956.9	6.15226
1958.38	5.84331
1959.86	5.07215
1961.34	5.44899
1962.82	5.35571
1964.3	6.35255
1965.78	6.03919
1967.26	5.83282
1968.74	6.57836
1970.22	6.66282
1971.69	7.15104
1973.17	6.79334
1974.65	6.90301
1976.13	7.01271
1977.61	6.37315
1979.08	6.46526
1980.56	7.00846
1982.03	6.57797
1983.51	6.73042
1984.99	6.8934
1986.46	6.60539
1987.94	6.10763
1989.41	6.46317
1990.89	6.82558
1992.36	7.49048
1993.84	8.12365
1995.31	8.04566
1996.78	8.03935
1998.26	8.70082
1999.73	8.8068
2001.2	9.60057
2002.68	9.76836
2004.15	9.1548
2005.62	9.84042
2007.09	9.95841
2008.56	10.2315
2010.04	10.3861
2011.51	10.5129
2012.98	10.4674
2014.45	10.2453
2015.92	10.6515
2017.39	11.4635
2018.86	12.1657
2020.33	12.5297
2021.8	13.051
2023.27	13.7903
2024.74	13.9661
2026.2	14.4205
2027.67	15.3098
2029.14	15.3329
2030.61	15.9886
2032.07	16.4336
2033.54	17.0898
2035.01	18.1417
2036.47	18.8342
2037.94	19.6627
2039.41	18.6917
2040.87	19.499
2042.34	19.6633
2043.8	19.3937
2045.27	20.1152
2046.73	20.0145
2048.2	20.7133
2049.66	20.8998
2051.12	20.2131
2052.59	20.5516
2054.05	20.3834
2055.51	20.3555
2056.98	20.0256
2058.44	20.2579
2059.9	19.999
2061.36	20.3795
2062.82	21.9538
2064.29	22.2703
2065.75	22.4646
2067.21	22.956
2068.67	23.3552
2070.13	24.5042
2071.59	25.0178
2073.05	25.1226
2074.51	25.5772
2075.97	25.9627
2077.43	25.8138
2078.88	26.7325
2080.34	27.4656
2081.8	28.4847
2083.26	29.2913
2084.72	29.1407
2086.17	30.2887
2087.63	31.606
2089.09	33.1097
2090.54	34.3313
2092	35.8569
2093.46	36.6898
2094.91	38.4285
2096.37	39.8507
2097.82	40.3675
2099.28	41.9967
2100.73	43.5391
2102.19	45.2604
2103.64	47.202
2105.09	48.8475
2106.55	49.6501
2108	51.1922
2109.46	51.8877
2110.91	52.8533
2112.36	54.2211
2113.81	57.3996
2115.27	59.5387
2116.72	62.642
2118.17	65.1465
2119.62	66.7954
2121.07	69.0878
2122.52	70.6241
2123.97	71.9747
2125.42	74.8687
2126.87	77.2698
2128.32	80.058
2129.77	81.8511
2131.22	84.6967
2132.67	87.5312
2134.12	90.3487
2135.57	92.3737
