#Acq. time (s)=	45
#Accumulations=	2
#Range (cm-¹)=	200...3150
#Windows=	2
#Auto scanning=	Off
#Autofocus=	Off
#Macrospot=	Off
#AutoExposure=	Off
#Spike filter=	Multiple accum.
#Delay time (s)=	0
#Binning=	1
#Readout mode=	Signal
#DeNoise=	Off
#ICS correction=	On
#Dark correction=	Off
#Inst. Process=	Off
#Detector Gain=	Best Dynamic Range
#Detector ADC=	20 kHz       
#Detector temperature (°C)=	-69.85
#Instrument=	LabRAM HR Evol
#Detector=	Synapse
#Objective=	x100
#Grating=	600 gr/mm
#ND Filter=	100%
#Laser (nm)=	532 
#Hole=	100.021
#Range=	Auto
#Laser Pol.=	No
#Raman. Pol.=	No
#Laser Pol. (°)=	-0.0007625
#Raman Pol. (°)=	89.9995
#Collection=	Microscope
#StageXY=	Marzhauser
#StageZ=	Marzhauser
#X (µm)=	28337.3
#Y (µm)=	-3244.3
#Z (µm)=	1041.05
#Full time(mm:ss)=	3:19
#Project=	
#Sample=	
#Site=	
#Title=	Mb_50_18_32_2x_45s_532 nm_x100_100%_600 gr_mm
#Remark=	
#Date=	12.07.2022 13:19
#Acquired=	12.07.2022 13:19:31
#Base:Fit=	10.08.2022 10:49:18
#Base:Sub=	10.08.2022 10:49:30
#Filter:Polynom=	16.08.2022 10:14:59
#AxisType[0]=Intens
#AxisUnit[0]=Cnt
#AxisType[1]=Spectr
#AxisUnit[1]=1/cm
200.388	44.4678
202.204	40.4071
204.019	37.0825
205.832	34.5452
207.646	31.605
209.459	28.5229
211.274	26.2629
213.087	24.3631
214.899	23.1107
216.711	21.0246
218.524	20.3102
220.335	19.6001
222.146	19.4357
223.956	17.6608
225.766	16.0637
227.576	15.7311
229.388	14.4991
231.197	13.0045
233.005	11.918
234.813	12.376
236.621	11.4604
238.429	10.7023
240.236	10.4582
242.045	10.1966
243.852	10.106
245.658	9.55121
247.464	9.19932
249.269	9.44626
251.074	9.45729
252.879	8.77883
254.683	10.1384
256.487	9.90857
258.291	10.1601
260.094	11.0967
261.897	11.8776
263.702	11.9405
265.504	11.0754
267.306	10.8257
269.108	8.95105
270.909	8.41216
272.71	7.98798
274.511	5.45673
276.311	4.5106
278.111	3.7476
279.91	4.32974
281.709	3.33636
283.508	3.09611
285.306	2.6271
287.105	2.79018
288.9	2.45629
290.698	4.57527
292.495	4.06624
294.291	4.7079
296.088	5.47594
297.884	8.14071
299.679	10.7937
301.475	13.4297
303.27	15.1717
305.064	18.2706
306.858	20.1315
308.652	23.5111
310.444	25.5163
312.237	27.0719
314.03	28.0563
315.822	29.6338
317.615	31.793
319.406	31.6175
321.198	32.9022
322.987	33.6231
324.778	34.2779
326.568	33.5732
328.358	33.6194
330.148	33.7521
331.935	33.4315
333.724	32.0713
335.513	31.003
337.301	29.0295
339.089	27.1654
340.875	24.5255
342.662	22.784
344.449	22.0495
346.236	20.9807
348.02	21.2951
349.806	22.6656
351.592	23.9916
353.375	25.977
355.16	28.1792
356.944	31.2092
358.728	35.416
360.51	39.9348
362.294	43.9126
364.077	47.3896
365.858	52.2975
367.64	57.3772
369.422	62.908
371.202	66.7449
372.983	71.2569
374.764	75.4432
376.543	79.7345
378.324	83.1563
380.102	88.1954
381.881	91.8581
383.661	95.1436
385.438	98.2908
387.216	101.521
388.993	103.272
390.771	104.121
392.548	105.595
394.324	106.27
396.101	104.404
397.875	102.113
399.651	99.8905
401.425	96.4909
403.201	92.6481
404.974	87.9057
406.749	83.637
408.524	78.5369
410.296	73.7403
412.07	67.4789
413.841	61.4131
415.614	54.6263
417.385	48.0059
419.156	41.033
420.928	34.0548
422.698	26.5278
424.469	20.3743
426.238	13.2354
428.009	8.64677
429.777	5.16651
431.548	2.1104
433.315	-0.776209
435.083	-2.75431
436.852	-4.08628
438.618	-3.6834
440.387	-4.15101
442.153	-3.86778
443.919	-3.1037
445.686	-2.10396
447.451	-0.696885
449.218	-0.130044
450.982	0.592043
452.746	2.08541
454.512	2.2736
456.275	2.45233
458.038	3.08482
459.803	3.23895
461.565	3.41586
463.327	3.69578
465.091	4.12531
466.852	4.91985
468.613	5.44417
470.374	5.80114
472.136	6.02126
473.896	6.98774
475.655	7.86801
477.415	9.3072
479.176	11.8522
480.934	15.6468
482.692	17.5972
484.45	20.6668
486.21	25.6504
487.967	30.4911
489.724	34.3289
491.481	40.2206
493.237	45.2834
494.995	52.3992
496.75	57.9438
498.506	63.2942
500.26	69.8709
502.015	75.4086
503.771	79.7107
505.525	83.9714
507.279	88.3022
509.032	93.4979
510.785	96.7646
512.537	99.4492
514.289	102.177
516.041	104.773
517.793	106.389
519.546	106.828
521.297	107.694
523.047	108.45
524.797	108.745
526.547	108.423
528.297	106.016
530.046	104.349
531.795	101.911
533.543	98.6441
535.291	95.7411
537.039	91.9258
538.787	87.1413
540.534	83.2145
542.281	78.0681
544.027	73.8348
545.773	67.9892
547.519	62.3001
549.264	56.4472
551.01	50.378
552.754	44.1104
554.499	38.8337
556.243	33.1368
557.987	29.2549
559.73	24.9214
561.474	20.9507
563.216	18.1698
564.959	16.8875
566.701	14.7248
568.441	12.8176
570.182	11.9148
571.923	12.3003
573.664	12.2373
575.405	11.4201
577.145	12.4667
578.885	14.1871
580.624	14.9138
582.361	17.4947
584.1	17.8214
585.839	19.3362
587.577	20.1683
589.315	20.101
591.052	20.2362
592.787	20.7864
594.524	21.9677
596.26	23.0936
597.997	23.2025
599.732	24.0106
601.466	25.7837
603.201	25.8557
604.936	26.1348
606.67	26.1785
608.403	26.6314
610.136	26.1069
611.87	25.4591
613.603	25.5565
615.334	25.3232
617.067	25.1646
618.799	24.4286
620.529	24.337
622.26	24.8066
623.991	23.8641
625.72	23.246
627.451	23.7332
629.181	22.4712
630.909	20.3699
632.638	17.4884
634.368	16.9782
636.095	15.6366
637.823	13.7935
639.551	12.5814
641.277	12.0034
643.005	10.9304
644.73	9.08333
646.457	6.79698
648.184	5.5585
649.908	5.52697
651.634	4.8573
653.357	3.99615
655.083	4.23813
656.806	3.67491
658.53	4.31251
660.253	4.12453
661.977	4.53794
663.7	4.46789
665.422	4.75413
667.145	4.78724
668.865	5.32553
670.588	5.19735
672.308	5.12704
674.027	4.72586
675.749	5.93406
677.468	5.78253
679.188	6.87949
680.907	7.89687
682.627	10.3931
684.345	12.0888
686.064	14.134
687.781	14.8839
689.498	15.3674
691.216	16.4892
692.932	17.9898
694.65	19.6869
696.366	20.6203
698.081	22.6154
699.797	23.6355
701.512	24.0192
703.228	25.1528
704.942	26.5214
706.655	28.0379
708.371	28.7564
710.083	29.3906
711.796	30.1079
713.51	30.4282
715.222	30.0227
716.934	28.8957
718.645	27.3411
720.358	26.8554
722.068	25.3501
723.779	23.3593
725.49	22.5433
727.2	21.2617
728.909	19.3914
730.618	18.4911
732.329	19.8662
734.037	21.8506
735.745	25.9167
737.453	29.763
739.16	35.995
740.869	43.2457
742.576	51.3813
744.282	61.0755
745.988	70.6943
747.694	80.2747
749.401	91.0661
751.107	102.787
752.811	113.294
754.516	123.731
756.22	133.243
757.924	141.929
759.627	151.369
761.332	161.266
763.035	168.277
764.738	176.97
766.44	182.903
768.142	190.678
769.843	196.195
771.544	200.247
773.245	203.105
774.946	206.594
776.646	209.049
778.346	209.449
780.046	209.791
781.745	208.452
783.444	206.318
785.143	203.611
786.841	200.184
788.539	195.773
790.237	190.425
791.934	184.135
793.631	177.061
795.328	169.333
797.024	161.024
798.72	151.32
800.416	140.358
802.112	129.186
803.807	118.559
805.502	109.393
807.196	100.324
808.89	91.434
810.584	83.3861
812.278	75.0329
813.971	68.0908
815.664	63.0658
817.354	58.8036
819.047	56.5864
820.739	55.0826
822.43	53.1153
824.122	52.4954
825.813	51.5923
827.503	52.4065
829.192	52.8992
830.882	53.4342
832.571	53.5979
834.261	54.4355
835.95	53.1431
837.637	53.0098
839.325	52.6889
841.013	51.5619
842.701	50.0986
844.389	50.0581
846.074	49.5101
847.761	48.2711
849.447	48.1827
851.131	46.9043
852.817	46.937
854.503	45.8208
856.188	44.1286
857.871	43.4309
859.556	41.8333
861.24	40.6716
862.922	39.4707
864.606	39.1573
866.289	38.173
867.97	37.6169
869.653	36.7338
871.336	35.869
873.016	35.9062
874.698	36.2303
876.379	36.5433
878.058	36.1415
879.739	36.3497
881.418	36.3429
883.098	35.2727
884.778	34.5834
886.456	34.6621
888.135	35.1863
889.812	34.8621
891.49	34.2491
893.167	33.7591
894.845	33.0085
896.523	32.5864
898.198	31.973
899.875	32.0632
901.55	32.9409
903.226	32.8047
904.901	32.0554
906.576	32.2756
908.25	33.0713
909.925	33.8975
911.598	35.4557
913.271	35.57
914.945	35.8166
916.617	36.7576
918.291	36.0388
919.962	35.7283
921.635	35.9645
923.306	35.0626
924.978	33.505
926.648	33.4941
928.318	33.9394
929.989	33.4837
931.659	32.6227
933.328	32.5831
934.998	31.4474
936.666	31.19
938.336	31.0013
940.004	30.5897
941.671	29.7786
943.34	28.5283
945.007	27.5045
946.673	26.7273
948.339	25.7286
950.007	26.0698
951.672	25.2788
953.337	23.8963
955.004	24.0903
956.669	23.191
958.333	22.01
959.997	20.6217
961.662	20.1977
963.326	20.2781
964.989	19.1266
966.651	19.1942
968.315	18.8391
969.977	18.0061
971.639	17.9723
973.301	17.9028
974.962	17.1803
976.624	17.5836
978.285	16.4203
979.945	15.3633
981.605	14.569
983.264	14.1338
984.924	14.5453
986.583	13.0883
988.243	12.1563
989.901	12.6173
991.56	13.5442
993.217	15.1403
994.875	16.8412
996.532	19.2873
998.188	22.1626
999.845	25.777
1001.5	28.7136
1003.16	33.8266
1004.81	38.1041
1006.47	44.1824
1008.12	50.0678
1009.78	57.2904
1011.43	63.8704
1013.09	69.2711
1014.74	75.147
1016.39	81.9534
1018.05	87.1657
1019.7	93.9404
1021.35	99.361
1023	103.475
1024.65	107.043
1026.31	111.368
1027.96	115.699
1029.61	120.172
1031.26	122.345
1032.91	124.64
1034.56	124.296
1036.21	124.599
1037.86	124.565
1039.51	124.328
1041.16	124.443
1042.8	123.637
1044.45	122.943
1046.1	120.008
1047.75	115.996
1049.39	113.267
1051.04	109.058
1052.69	105.716
1054.33	103.5
1055.98	102.101
1057.62	100.517
1059.27	100.314
1060.91	99.4306
1062.56	99.0632
1064.2	99.8226
1065.85	99.8055
1067.49	100.693
1069.13	100.855
1070.77	101.833
1072.42	103.529
1074.06	104.663
1075.7	106.715
1077.34	107.965
1078.98	109.872
1080.62	111.104
1082.27	112.233
1083.91	113.419
1085.55	114.179
1087.18	114.861
1088.82	116.361
1090.46	117.59
1092.1	117.73
1093.74	117.329
1095.38	116.016
1097.02	114.85
1098.65	114.041
1100.29	111.618
1101.93	108.879
1103.56	104.791
1105.2	100.452
1106.84	96.3113
1108.47	91.4508
1110.11	85.1454
1111.74	78.1624
1113.38	70.1829
1115.01	63.9891
1116.64	56.9937
1118.28	50.0004
1119.91	42.5572
1121.54	35.9372
1123.18	29.2069
1124.81	22.0386
1126.44	16.7839
1128.07	11.4175
1129.7	8.49364
1131.33	6.29597
1132.97	5.59343
1134.6	4.0549
1136.23	4.27548
1137.86	5.15361
1139.49	5.68056
1141.11	6.38055
1142.74	7.2101
1144.37	7.368
1146	7.99188
1147.63	8.16702
1149.26	8.55865
1150.88	8.86325
1152.51	9.04271
1154.14	9.84544
1155.76	10.8522
1157.39	11.2265
1159.01	11.2972
1160.64	11.2293
1162.27	11.733
1163.89	13.073
1165.51	14.635
1167.14	16.2197
1168.76	18.9189
1170.39	20.8694
1172.01	22.9076
1173.63	23.8827
1175.25	25.3161
1176.88	25.8594
1178.5	26.2517
1180.12	27.4834
1181.74	27.6427
1183.36	28.2406
1184.98	28.9639
1186.6	29.155
1188.22	29.1274
1189.84	29.1106
1191.46	28.9283
1193.08	28.7199
1194.7	29.3001
1196.32	29.5031
1197.94	28.7783
1199.55	27.2948
1201.17	27.5677
1202.79	27.0974
1204.41	27.7699
1206.02	28.1129
1207.64	28.3352
1209.25	28.2149
1210.87	28.6721
1212.48	28.4817
1214.1	28.3408
1215.71	27.2825
1217.33	28.6049
1218.94	28.7461
1220.56	29.1033
1222.17	29.7316
1223.79	30.5659
1225.4	31.4103
1227.01	31.8803
1228.62	31.8717
1230.23	32.7377
1231.85	32.5593
1233.46	33.0095
1235.07	33.0975
1236.68	33.1251
1238.29	33.3015
1239.9	34.3826
1241.51	34.7478
1243.12	36.6934
1244.73	38.5895
1246.34	39.1119
1247.94	39.0777
1249.55	40.3745
1251.16	39.7437
1252.77	40.5378
1254.37	40.7687
1255.98	41.3291
1257.59	41.307
1259.2	42.0216
1260.8	43.7005
1262.41	45.1947
1264.01	47.7703
1265.62	48.358
1267.22	49.4674
1268.83	51.3744
1270.43	53.6353
1272.03	54.0231
1273.64	55.5799
1275.24	56.7422
1276.85	57.1255
1278.45	58.6179
1280.05	59.2108
1281.65	61.0244
1283.25	60.7467
1284.85	61.6804
1286.46	62.0529
1288.06	61.9372
1289.66	62.6879
1291.26	62.7819
1292.86	61.9305
1294.46	61.2636
1296.06	61.5358
1297.66	62.0117
1299.25	61.3509
1300.85	60.8368
1302.45	60.786
1304.05	61.1377
1305.65	60.6876
1307.24	59.3026
1308.84	57.8166
1310.43	57.8502
1312.03	55.5402
1313.63	55.5201
1315.22	54.5771
1316.82	54.2879
1318.41	52.9628
1320.01	52.476
1321.6	51.5984
1323.2	50.204
1324.79	49.1611
1326.38	46.9355
1327.98	45.5998
1329.57	45.5506
1331.16	44.338
1332.76	45.4106
1334.35	44.473
1335.94	44.3138
1337.53	44.0549
1339.12	44.6548
1340.71	44.7791
1342.3	44.2187
1343.89	43.3214
1345.48	41.2402
1347.07	40.8117
1348.66	39.7065
1350.25	39.1772
1351.84	37.4209
1353.43	36.8775
1355.01	35.6405
1356.6	34.7129
1358.19	33.0493
1359.77	31.5096
1361.36	30.2749
1362.95	27.9501
1364.53	27.4826
1366.12	26.9538
1367.71	25.8521
1369.29	25.3707
1370.88	23.9293
1372.46	23.3882
1374.04	23.2013
1375.63	22.3654
1377.21	21.9241
1378.8	20.2214
1380.38	19.8262
1381.96	19.6699
1383.54	19.4775
1385.13	18.0095
1386.71	17.4885
1388.29	17.7059
1389.87	17.2948
1391.45	17.3176
1393.03	17.7998
1394.61	17.8222
1396.19	17.3875
1397.77	17.7147
1399.35	19.2429
1400.93	21.5521
1402.51	23.5796
1404.09	26.878
1405.67	30.0976
1407.24	33.7668
1408.82	38.8468
1410.4	44.0994
1411.98	48.7906
1413.55	52.7623
1415.13	57.7236
1416.71	61.3555
1418.28	65.2631
1419.86	68.8428
1421.43	73.5906
1423.01	77.9967
1424.58	82.9444
1426.16	87.5351
1427.73	92.7199
1429.31	98.3521
1430.88	102.113
1432.45	106.254
1434.02	110.113
1435.6	113.27
1437.17	115.182
1438.74	117.725
1440.31	119.788
1441.88	121.969
1443.45	124.23
1445.03	124.56
1446.6	123.316
1448.17	122.919
1449.74	121.76
1451.3	120.302
1452.87	118.257
1454.44	116.638
1456.01	114.038
1457.58	110.577
1459.15	107.901
1460.72	104.779
1462.28	101.106
1463.85	96.5786
1465.42	92.9467
1466.98	88.0255
1468.55	82.2747
1470.12	77.6461
1471.68	72.9309
1473.25	68.2545
1474.81	64.0901
1476.38	61.6244
1477.94	58.4494
1479.51	55.2311
1481.07	50.8047
1482.63	47.5604
1484.2	44.3509
1485.76	40.789
1487.32	39.2747
1488.88	36.647
1490.45	33.1092
1492.01	30.6853
1493.57	27.8757
1495.13	24.9831
1496.69	22.898
1498.25	21.4232
1499.81	20.4165
1501.37	19.4123
1502.93	18.2878
1504.49	17.1002
1506.05	16.7682
1507.61	15.6144
1509.17	14.0189
1510.73	12.3763
1512.28	9.89868
1513.84	8.24584
1515.4	6.20426
1516.96	5.64846
1518.51	5.40808
1520.07	4.91614
1521.63	4.84869
1523.18	4.08195
1524.74	4.18446
1526.29	5.42831
1527.85	5.34543
1529.4	5.45002
1530.96	5.80362
1532.51	6.16106
1534.06	6.52573
1535.62	7.68189
1537.17	8.52887
1538.72	9.47194
1540.28	10.4037
1541.83	10.9786
1543.38	11.2602
1544.93	11.2816
1546.48	11.4641
1548.03	12.8983
1549.59	14.2598
1551.14	14.1812
1552.69	14.7559
1554.24	14.8867
1555.79	15.1676
1557.34	15.2595
1558.88	16.8737
1560.43	17.5287
1561.98	18.4942
1563.53	19.7938
1565.08	22.079
1566.62	22.4102
1568.17	23.7402
1569.72	25.6621
1571.27	26.2849
1572.81	27.416
1574.36	28.8541
1575.9	31.4444
1577.45	33.4089
1579	34.7156
1580.54	36.066
1582.09	37.1718
1583.63	37.7153
1585.17	38.7334
1586.72	39.916
1588.26	39.8282
1589.8	40.8344
1591.35	41.6479
1592.89	42.6126
1594.43	43.7264
1595.97	44.9357
1597.52	45.8992
1599.06	46.0802
1600.6	45.1572
1602.14	44.2276
1603.68	42.8952
1605.22	41.6044
1606.76	41.0349
1608.3	40.8095
1609.84	40.7294
1611.38	40.6678
1612.92	40.4322
1614.46	40.7589
1615.99	40.6847
1617.53	40.1089
1619.07	38.5149
1620.61	38.066
1622.14	38.3124
1623.68	39.0317
1625.22	39.6915
1626.75	39.0037
1628.29	38.2097
1629.82	38.9555
1631.36	39.5208
1632.9	40.5153
1634.43	40.8454
1635.96	42.1423
1637.5	43.2164
1639.03	44.4873
1640.57	45.6508
1642.1	46.8592
1643.63	47.8543
1645.16	49.8498
1646.7	50.6823
1648.23	52.2782
1649.76	53.7326
1651.29	55.7377
1652.82	58.3853
1654.36	59.0632
1655.89	59.5726
1657.42	60.0638
1658.95	59.5756
1660.48	59.5106
1662.01	60.0141
1663.53	59.893
1665.06	58.5194
1666.59	57.3664
1668.12	56.627
1669.65	56.3823
1671.18	55.1596
1672.7	53.1826
1674.23	50.6291
1675.76	47.1871
1677.29	43.9591
1678.81	42.0482
1680.34	40.3334
1681.86	38.4011
1683.39	36.8285
1684.91	34.9301
1686.44	33.2466
1687.96	31.5308
1689.49	29.9177
1691.01	27.875
1692.54	25.14
1694.06	24.1517
1695.58	22.3487
1697.11	20.9006
1698.63	20.0016
1700.15	18.723
1701.67	16.4178
1703.2	14.4241
1704.72	14.0292
1706.24	13.3421
1707.76	12.2436
1709.28	10.6941
1710.8	9.70158
1712.32	9.37945
1713.84	9.21667
1715.36	7.53292
1716.88	6.74909
1718.4	6.15377
1719.91	6.42492
1721.43	5.90472
1722.95	5.44069
1724.47	6.43259
1725.99	5.80966
1727.5	5.85917
1729.02	5.50269
1730.54	4.14111
1732.05	4.03926
1733.57	3.68104
1735.09	3.20206
1736.6	3.09446
1738.12	2.63396
1739.63	2.83488
1741.15	1.98847
1742.66	1.83395
1744.18	2.39034
1745.69	1.48407
1747.2	0.410353
1748.72	-0.435122
1750.23	-0.437618
1751.74	-0.555083
1753.25	-0.164672
1754.77	0.32644
1756.28	0.177339
1757.79	-0.725409
1759.3	-0.371329
1760.81	-0.511148
1762.32	-0.509048
1763.83	-0.356568
1765.34	-0.12537
1766.85	0.408836
1768.36	0.813543
1769.87	1.54067
1771.38	0.321839
1772.89	0.412922
1774.4	0.965307
1775.91	0.700041
1777.41	0.810931
1778.92	0.57807
1780.43	0.666739
1781.94	0.0436147
1783.44	0.0990662
1784.95	-0.174012
1786.45	0.72871
1787.96	0.877426
1789.47	0.718349
1790.97	0.513365
1792.48	0.788269
1793.98	1.07852
1795.48	1.39287
1796.99	1.03462
1798.49	1.31445
1800	1.75214
1801.5	1.49587
1803	1.83591
1804.51	1.87425
1806.01	1.52984
1807.51	1.79713
1809.01	1.83466
1810.51	2.14882
1812.02	2.86823
1813.52	2.92232
1815.02	3.15324
1816.52	2.07935
1818.02	2.21257
1819.52	2.35385
1821.02	1.97961
1822.52	2.37063
1824.02	2.73808
1825.51	2.88859
1827.01	2.74306
1828.51	2.20769
1830.01	2.09835
1831.51	2.33345
1833	2.45349
1834.5	2.9354
1836	2.6763
1837.5	2.51645
1838.99	3.08325
1840.49	3.15412
1841.98	3.24083
1843.48	3.51111
1844.97	3.90351
1846.47	3.90146
1847.96	4.06661
1849.46	3.86973
1850.95	3.34357
1852.45	3.51161
1853.94	3.14708
1855.43	3.59134
1856.92	4.00824
1858.42	4.06793
1859.91	3.29844
1861.4	3.69324
1862.89	3.04738
1864.39	3.14166
1865.88	4.205
1867.37	4.31092
1868.86	4.25625
1870.35	4.84555
1871.84	5.66182
1873.33	5.69606
1874.82	5.80029
1876.31	4.81562
1877.8	4.82367
1879.29	5.32575
1880.77	6.42727
1882.26	7.42284
1882.51	8.13247
1884	8.48036
1885.5	8.20922
1886.99	7.76417
1888.48	7.55555
1889.98	7.01345
1891.47	7.03301
1892.97	7.25643
1894.46	7.33398
1895.95	7.82658
1897.44	6.9415
1898.93	6.4163
1900.42	6.40309
1901.92	6.3946
1903.41	6.60753
1904.9	6.92775
1906.39	5.92081
1907.88	5.25895
1909.37	4.917
1910.86	4.20108
1912.35	4.9494
1913.84	4.41512
1915.32	4.51873
1916.81	3.84291
1918.3	2.89228
1919.79	2.13517
1921.28	1.31308
1922.76	1.67953
1924.25	2.02183
1925.74	2.93013
1927.22	3.1013
1928.71	2.87564
1930.2	3.1555
1931.68	2.49982
1933.17	2.41607
1934.65	3.35768
1936.14	2.98458
1937.62	3.11699
1939.11	3.70219
1940.59	3.19435
1942.08	4.50978
1943.56	5.25408
1945.04	5.0449
1946.53	4.63503
1948.01	5.08503
1949.49	5.32867
1950.97	6.72344
1952.45	7.19711
1953.94	7.61783
1955.42	7.66892
1956.9	7.87668
1958.38	7.18242
1959.86	6.50587
1961.34	7.01494
1962.82	6.3318
1964.3	5.98787
1965.78	6.18332
1967.26	7.26856
1968.74	7.8773
1970.22	8.80501
1971.69	8.5119
1973.17	9.22734
1974.65	9.0559
1976.13	9.59808
1977.61	9.45727
1979.08	9.44983
1980.56	9.67243
1982.03	9.51789
1983.51	9.01726
1984.99	8.07193
1986.46	8.15682
1987.94	7.78946
1989.41	8.38994
1990.89	8.12405
1992.36	9.25921
1993.84	9.43846
1995.31	10.8302
1996.78	11.6398
1998.26	11.3297
1999.73	11.4679
2001.2	10.6607
2002.68	10.1255
2004.15	10.1426
2005.62	9.57794
2007.09	10.0036
2008.56	10.3625
2010.04	10.4668
2011.51	10.745
2012.98	11.268
2014.45	11.2712
2015.92	12.1271
2017.39	11.0121
2018.86	11.3429
2020.33	11.6437
2021.8	11.7939
2023.27	11.2684
2024.74	10.7276
2026.2	10.7701
2027.67	11.1945
2029.14	10.7237
2030.61	11.4965
2032.07	11.6589
2033.54	11.9307
2035.01	12.8792
2036.47	13.0499
2037.94	13.6535
2039.41	14.1731
2040.87	14.8792
2042.34	15.2815
2043.8	15.6112
2045.27	14.2286
2046.73	15.1109
2048.2	15.2958
2049.66	16.2905
2051.12	16.6892
2052.59	16.9291
2054.05	17.7639
2055.51	17.4475
2056.98	18.1793
2058.44	19.0029
2059.9	20.213
2061.36	21.6769
2062.82	21.9888
2064.29	22.4653
2065.75	22.7882
2067.21	22.6707
2068.67	23.9054
2070.13	23.4061
2071.59	23.1059
2073.05	23.7724
2074.51	24.2034
2075.97	25.4356
2077.43	26.2547
2078.88	26.7628
2080.34	28.172
2081.8	29.3039
2083.26	29.83
2084.72	30.7052
2086.17	31.7434
2087.63	32.8919
2089.09	34.4623
2090.54	35.0037
2092	36.9856
2093.46	37.3418
2094.91	37.9414
2096.37	39.0281
2097.82	40.771
2099.28	42.0849
2100.73	43.0456
2102.19	44.4518
2103.64	46.3038
2105.09	47.2383
2106.55	48.5429
2108	49.7193
2109.46	50.5557
2110.91	51.1303
2112.36	52.0747
2113.81	53.0924
2115.27	54.7365
2116.72	56.7191
2118.17	57.2564
2119.62	59.6385
2121.07	60.4
2122.52	61.4435
2123.97	63.7304
2125.42	65.3781
2126.87	67.7374
2128.32	69.0722
2129.77	70.9204
2131.22	72.7952
