#Acq. time (s)=	45
#Accumulations=	2
#Range (cm-¹)=	200...3150
#Windows=	2
#Auto scanning=	Off
#Autofocus=	Off
#Macrospot=	Off
#AutoExposure=	Off
#Spike filter=	Multiple accum.
#Delay time (s)=	0
#Binning=	1
#Readout mode=	Signal
#DeNoise=	Off
#ICS correction=	On
#Dark correction=	Off
#Inst. Process=	Off
#Detector Gain=	Best Dynamic Range
#Detector ADC=	20 kHz       
#Detector temperature (°C)=	-69.85
#Instrument=	LabRAM HR Evol
#Detector=	Synapse
#Objective=	x100
#Grating=	600 gr/mm
#ND Filter=	100%
#Laser (nm)=	532 
#Hole=	100.021
#Range=	Auto
#Laser Pol.=	No
#Raman. Pol.=	No
#Laser Pol. (°)=	-0.0007625
#Raman Pol. (°)=	89.9995
#Collection=	Microscope
#StageXY=	Marzhauser
#StageZ=	Marzhauser
#X (µm)=	19372.1
#Y (µm)=	3086.5
#Z (µm)=	1047
#Full time(mm:ss)=	3:18
#Project=	
#Sample=	
#Site=	
#Title=	Mb_50_18_08_2x_45s_532 nm_x100_100%_600 gr_mm
#Remark=	
#Date=	12.07.2022 10:52
#Acquired=	12.07.2022 10:52:38
#Base:Fit=	10.08.2022 10:49:18
#Base:Sub=	10.08.2022 10:49:30
#Filter:Polynom=	16.08.2022 10:14:59
#AxisType[0]=Intens
#AxisUnit[0]=Cnt
#AxisType[1]=Spectr
#AxisUnit[1]=1/cm
200.388	75.2162
202.204	70.3098
204.019	66.6606
205.832	62.4046
207.646	58.2952
209.459	54.5444
211.274	51.4577
213.087	48.1822
214.899	45.9982
216.711	43.7289
218.524	41.3143
220.335	39.0212
222.146	35.4197
223.956	32.0317
225.766	28.7369
227.576	26.207
229.388	25.1525
231.197	23.2787
233.005	21.0937
234.813	20.2486
236.621	20.1153
238.429	19.2353
240.236	18.0284
242.045	16.6849
243.852	15.6002
245.658	14.7957
247.464	15.0557
249.269	15.4904
251.074	16.0089
252.879	15.7417
254.683	15.6564
256.487	15.6146
258.291	15.5102
260.094	14.4495
261.897	14.5443
263.702	14.2412
265.504	14.9323
267.306	14.7658
269.108	14.4489
270.909	14.1532
272.71	14.0027
274.511	13.9711
276.311	13.0628
278.111	11.885
279.91	12.0158
281.709	12.0528
283.508	11.9903
285.306	11.6233
287.105	11.0053
288.9	11.8011
290.698	11.7255
292.495	12.2796
294.291	12.4412
296.088	13.7583
297.884	14.7794
299.679	15.3902
301.475	15.5542
303.27	16.0692
305.064	16.3991
306.858	16.5091
308.652	16.299
310.444	16.1473
312.237	15.3739
314.03	15.7011
315.822	16.5362
317.615	17.2173
319.406	16.8857
321.198	16.3834
322.987	17.2196
324.778	17.3236
326.568	17.2885
328.358	16.6987
330.148	16.286
331.935	16.0597
333.724	16.1204
335.513	16.4332
337.301	16.1231
339.089	15.1695
340.875	15.2051
342.662	13.8687
344.449	12.6998
346.236	12.5832
348.02	12.2265
349.806	12.0249
351.592	13.0069
353.375	14.2459
355.16	14.5533
356.944	15.153
358.728	15.2628
360.51	15.6707
362.294	17.2858
364.077	18.496
365.858	19.687
367.64	20.0117
369.422	21.815
371.202	22.9272
372.983	23.825
374.764	24.733
376.543	27.1222
378.324	28.6446
380.102	29.4987
381.881	31.3304
383.661	31.6852
385.438	31.647
387.216	32.037
388.993	32.5062
390.771	32.8741
392.548	32.769
394.324	32.3553
396.101	33.2977
397.875	31.872
399.651	30.6721
401.425	29.0335
403.201	28.2847
404.974	26.4239
406.749	24.6364
408.524	23.3575
410.296	22.3179
412.07	20.188
413.841	17.9921
415.614	16.1365
417.385	13.8184
419.156	11.3153
420.928	9.33786
422.698	7.88258
424.469	6.25879
426.238	4.91326
428.009	4.46805
429.777	3.96845
431.548	2.1342
433.315	2.09979
435.083	1.69003
436.852	0.93609
438.618	0.890975
440.387	0.82992
442.153	-0.25424
443.919	-1.47798
445.686	-1.19434
447.451	-1.18866
449.218	-0.611203
450.982	0.390622
452.746	0.238027
454.512	-0.795988
456.275	-0.662598
458.038	0.586228
459.803	0.53706
461.565	0.989793
463.327	2.00951
465.091	3.00472
466.852	2.97052
468.613	2.78308
470.374	2.4415
472.136	1.25181
473.896	2.83032
475.655	5.22851
477.415	6.02516
479.176	6.0842
480.934	8.27413
482.692	9.93835
484.45	10.8121
486.21	10.9055
487.967	12.4862
489.724	14.3981
491.481	15.5307
493.237	16.8064
494.995	19.0374
496.75	20.0456
498.506	22.1099
500.26	23.6654
502.015	25.4301
503.771	26.1199
505.525	27.8107
507.279	29.2822
509.032	30.1986
510.785	30.8357
512.537	32.0117
514.289	33.3619
516.041	33.6487
517.793	33.6093
519.546	34.0934
521.297	34.2628
523.047	34.378
524.797	34.8556
526.547	35.8881
528.297	36.445
530.046	35.8615
531.795	35.5052
533.543	35.8138
535.291	35.5141
537.039	34.3896
538.787	33.0801
540.534	31.5807
542.281	29.3163
544.027	28.6181
545.773	27.2862
547.519	24.9373
549.264	24.6755
551.01	23.4101
552.754	21.6312
554.499	18.78
556.243	17.0921
557.987	16.0392
559.73	15.2621
561.474	14.8858
563.216	13.203
564.959	12.1479
566.701	10.9598
568.441	10.1802
570.182	8.20947
571.923	7.06357
573.664	5.82939
575.405	5.40435
577.145	4.78673
578.885	4.20218
580.624	4.98937
582.361	4.66625
584.1	4.13471
585.839	4.34838
587.577	1.64858
589.315	0.412778
591.052	0.560419
592.787	-0.432718
594.524	-0.696036
596.26	-1.31692
597.997	-0.147289
599.732	0.745326
601.466	1.03436
603.201	0.951693
604.936	2.23489
606.67	2.95064
608.403	2.92148
610.136	3.9208
611.87	4.27799
613.603	4.96567
615.334	4.26747
617.067	4.02502
618.799	3.55731
620.529	3.55864
622.26	2.82751
623.991	2.62768
625.72	2.99796
627.451	2.60646
629.181	2.82699
630.909	4.01943
632.638	3.72002
634.368	3.95188
636.095	5.25115
637.823	5.20441
639.551	4.93415
641.277	5.68152
643.005	6.38462
644.73	6.18056
646.457	5.62697
648.184	4.74695
649.908	5.54792
651.634	5.59983
653.357	4.91561
655.083	5.6117
656.806	6.13929
658.53	6.39468
660.253	6.47369
661.977	7.9304
663.7	8.5397
665.422	8.52412
667.145	9.41515
668.865	10.1193
670.588	9.91959
672.308	10.7321
674.027	11.6006
675.749	13.1689
677.468	14.6482
679.188	15.0016
680.907	16.452
682.627	17.5469
684.345	18.6534
686.064	18.61
687.781	19.4014
689.498	19.7054
691.216	20.7443
692.932	20.4686
694.65	21.0274
696.366	21.8688
698.081	22.3368
699.797	22.9478
701.512	23.3745
703.228	25.4291
704.942	26.1497
706.655	27.328
708.371	28.4578
710.083	30.0551
711.796	30.3715
713.51	30.5059
715.222	31.8775
716.934	32.6215
718.645	32.7678
720.358	32.9807
722.068	33.7757
723.779	34.2898
725.49	34.4188
727.2	34.8922
728.909	35.2323
730.618	36.4126
732.329	36.9146
734.037	39.0328
735.745	41.4006
737.453	42.7009
739.16	45.5878
740.869	49.2053
742.576	52.8842
744.282	56.047
745.988	59.5438
747.694	63.248
749.401	67.4543
751.107	71.1584
752.811	76.1442
754.516	79.2454
756.22	81.8243
757.924	84.2493
759.627	86.3047
761.332	88.2219
763.035	90.1733
764.738	92.374
766.44	93.2984
768.142	95.1843
769.843	96.5836
771.544	98.4054
773.245	99.2548
774.946	99.6129
776.646	100.865
778.346	100.535
780.046	100.438
781.745	100.523
783.444	100.468
785.143	100.448
786.841	99.7133
788.539	98.48
790.237	96.4118
791.934	94.8278
793.631	92.923
795.328	91.3052
797.024	89.2645
798.72	87.391
800.416	85.7548
802.112	83.5822
803.807	80.8291
805.502	79.0135
807.196	78.3967
808.89	75.9532
810.584	74.4015
812.278	73.0627
813.971	71.925
815.664	71.252
817.354	70.5116
819.047	70.7276
820.739	69.425
822.43	68.9914
824.122	69.1404
825.813	69.2524
827.503	68.5191
829.192	67.6155
830.882	66.676
832.571	66.1468
834.261	65.1305
835.95	63.3651
837.637	62.4603
839.325	59.8489
841.013	57.978
842.701	55.4843
844.389	54.1785
846.074	52.5119
847.761	51.5998
849.447	51.7893
851.131	51.0195
852.817	50.1779
854.503	49.5381
856.188	47.5615
857.871	45.357
859.556	44.0707
861.24	42.614
862.922	40.7024
864.606	39.6986
866.289	38.7546
867.97	37.9768
869.653	37.1299
871.336	35.9502
873.016	34.9702
874.698	34.411
876.379	34.9375
878.058	34.8688
879.739	35.047
881.418	34.538
883.098	34.078
884.778	33.5564
886.456	32.6233
888.135	32.4423
889.812	34.0523
891.49	34.5122
893.167	33.7891
894.845	34.8922
896.523	35.9788
898.198	36.1971
899.875	36.8152
901.55	37.2929
903.226	37.1822
904.901	36.6488
906.576	37.0575
908.25	37.3005
909.925	38.3734
911.598	38.7907
913.271	39.2151
914.945	37.9245
916.617	37.3004
918.291	36.8481
919.962	36.2985
921.635	35.4489
923.306	34.1131
924.978	33.9845
926.648	33.0234
928.318	33.3518
929.989	33.5349
931.659	34.1869
933.328	33.1246
934.998	32.227
936.666	30.5852
938.336	29.9831
940.004	28.3111
941.671	27.9722
943.34	26.7255
945.007	26.0392
946.673	25.6723
948.339	24.9208
950.007	24.3378
951.672	23.7406
953.337	22.9426
955.004	23.0638
956.669	22.2054
958.333	21.6786
959.997	21.0647
961.662	20.7038
963.326	19.3653
964.989	18.5933
966.651	18.0925
968.315	18.4867
969.977	18.3888
971.639	19.2675
973.301	20.5385
974.962	20.8599
976.624	21.1793
978.285	21.7225
979.945	22.2062
981.605	22.603
983.264	22.5336
984.924	23.203
986.583	22.6413
988.243	23.5079
989.901	23.4253
991.56	24.5895
993.217	25.9572
994.875	26.919
996.532	27.0729
998.188	28.2219
999.845	29.5505
1001.5	30.7527
1003.16	31.6398
1004.81	34.616
1006.47	36.5395
1008.12	39.2428
1009.78	41.2826
1011.43	43.3907
1013.09	45.0348
1014.74	47.0125
1016.39	48.2945
1018.05	50.3022
1019.7	50.7744
1021.35	52.2876
1023	53.0011
1024.65	54.1075
1026.31	54.5933
1027.96	56.0999
1029.61	56.7525
1031.26	57.0226
1032.91	56.8398
1034.56	56.3131
1036.21	56.6219
1037.86	56.0928
1039.51	54.8846
1041.16	54.8838
1042.8	54.0791
1044.45	53.9172
1046.1	53.1466
1047.75	52.6317
1049.39	51.0595
1051.04	50.5361
1052.69	49.3062
1054.33	48.3514
1055.98	47.2471
1057.62	46.4109
1059.27	44.9383
1060.91	43.218
1062.56	41.8791
1064.2	41.0787
1065.85	39.0479
1067.49	38.7117
1069.13	37.7037
1070.77	37.1465
1072.42	36.4921
1074.06	37.2653
1075.7	37.7663
1077.34	37.7565
1078.98	36.7004
1080.62	37.323
1082.27	36.7528
1083.91	37.307
1085.55	38.0827
1087.18	39.4552
1088.82	38.5955
1090.46	38.9041
1092.1	39.1124
1093.74	39.4849
1095.38	39.7144
1097.02	39.6137
1098.65	38.9142
1100.29	38.7542
1101.93	37.7433
1103.56	37.6322
1105.2	37.0817
1106.84	37.2181
1108.47	36.5188
1110.11	36.6512
1111.74	36.1153
1113.38	35.4812
1115.01	34.5809
1116.64	34.0746
1118.28	33.4013
1119.91	32.2291
1121.54	29.8928
1123.18	28.3326
1124.81	26.2039
1126.44	25.5753
1128.07	25.1944
1129.7	23.948
1131.33	23.1278
1132.97	22.172
1134.6	20.6635
1136.23	18.9493
1137.86	19.1944
1139.49	19.1456
1141.11	17.5796
1142.74	15.7883
1144.37	14.4479
1146	13.2769
1147.63	12.0012
1149.26	10.3826
1150.88	8.3279
1152.51	8.00465
1154.14	7.78424
1155.76	7.08653
1157.39	6.40396
1159.01	5.88761
1160.64	5.08458
1162.27	5.48757
1163.89	4.97053
1165.51	5.41149
1167.14	5.43491
1168.76	6.65543
1170.39	6.62247
1172.01	7.52299
1173.63	8.81401
1175.25	9.49334
1176.88	9.63531
1178.5	9.85661
1180.12	10.3818
1181.74	11.1971
1183.36	10.8239
1184.98	11.4231
1186.6	11.0161
1188.22	11.12
1189.84	11.5142
1191.46	11.7494
1193.08	11.6102
1194.7	11.1479
1196.32	10.9999
1197.94	10.9693
1199.55	11.1342
1201.17	10.8205
1202.79	10.3414
1204.41	12.8113
1206.02	13.1182
1207.64	14.3131
1209.25	14.7326
1210.87	13.6626
1212.48	13.8958
1214.1	13.5986
1215.71	14.2471
1217.33	15.0919
1218.94	16.0432
1220.56	15.8389
1222.17	15.485
1223.79	15.5611
1225.4	16.1846
1227.01	15.7879
1228.62	16.836
1230.23	16.5919
1231.85	17.751
1233.46	18.8075
1235.07	19.8638
1236.68	20.1472
1238.29	20.7424
1239.9	22.3331
1241.51	23.0795
1243.12	24.0847
1244.73	25.0689
1246.34	26.2735
1247.94	26.9497
1249.55	27.6776
1251.16	28.6724
1252.77	29.9687
1254.37	31.1734
1255.98	32.4439
1257.59	33.669
1259.2	34.4008
1260.8	35.5836
1262.41	35.295
1264.01	35.6099
1265.62	37.901
1267.22	39.1568
1268.83	40.9994
1270.43	42.5127
1272.03	43.9519
1273.64	46.1502
1275.24	47.3784
1276.85	49.129
1278.45	49.8058
1280.05	51.0829
1281.65	52.165
1283.25	53.2853
1284.85	55.3861
1286.46	55.1911
1288.06	57.0348
1289.66	57.7194
1291.26	58.5763
1292.86	59.8436
1294.46	60.6239
1296.06	61.0404
1297.66	61.118
1299.25	61.2916
1300.85	61.2183
1302.45	61.3398
1304.05	60.6053
1305.65	60.1826
1307.24	59.6434
1308.84	59.712
1310.43	58.4183
1312.03	57.8478
1313.63	57.101
1315.22	56.6558
1316.82	55.4377
1318.41	55.018
1320.01	54.9403
1321.6	53.7226
1323.2	52.7583
1324.79	51.8924
1326.38	51.0981
1327.98	50.7191
1329.57	49.8915
1331.16	49.8635
1332.76	48.4463
1334.35	48.251
1335.94	47.42
1337.53	46.1899
1339.12	44.8835
1340.71	43.452
1342.3	42.1588
1343.89	42.4903
1345.48	41.5439
1347.07	40.3116
1348.66	39.7656
1350.25	38.3332
1351.84	37.6359
1353.43	36.632
1355.01	35.9243
1356.6	34.3979
1358.19	33.5995
1359.77	32.9784
1361.36	32.6166
1362.95	32.1334
1364.53	31.7602
1366.12	30.4507
1367.71	30.1631
1369.29	29.0157
1370.88	28.2451
1372.46	27.2831
1374.04	26.088
1375.63	24.1444
1377.21	23.0903
1378.8	22.7877
1380.38	22.0336
1381.96	20.9961
1383.54	19.2572
1385.13	19.0416
1386.71	17.4761
1388.29	17.1232
1389.87	16.0279
1391.45	15.6291
1393.03	14.3976
1394.61	13.6018
1396.19	13.8344
1397.77	13.0619
1399.35	13.3402
1400.93	13.3524
1402.51	14.7645
1404.09	14.9844
1405.67	16.5298
1407.24	18.6484
1408.82	19.6277
1410.4	21.1866
1411.98	22.9863
1413.55	24.7602
1415.13	26.3726
1416.71	28.5912
1418.28	31.3377
1419.86	33.9039
1421.43	37.3835
1423.01	39.956
1424.58	42.6876
1426.16	45.6899
1427.73	48.2096
1429.31	51.2405
1430.88	55.475
1432.45	58.5206
1434.02	61.3729
1435.6	64.1358
1437.17	66.6541
1438.74	68.2651
1440.31	70.9653
1441.88	71.7937
1443.45	72.1931
1445.03	73.3827
1446.6	74.069
1448.17	75.569
1449.74	75.3961
1451.3	76.0238
1452.87	75.4146
1454.44	75.278
1456.01	76.0644
1457.58	75.7305
1459.15	75.472
1460.72	74.5624
1462.28	73.3122
1463.85	72.2177
1465.42	70.1569
1466.98	68.9816
1468.55	67.134
1470.12	64.7243
1471.68	63.2522
1473.25	62.1272
1474.81	60.6522
1476.38	59.2905
1477.94	58.4426
1479.51	57.8116
1481.07	56.9788
1482.63	55.45
1484.2	54.3044
1485.76	52.1677
1487.32	49.6599
1488.88	48.4468
1490.45	46.9404
1492.01	45.1478
1493.57	44.0712
1495.13	43.0659
1496.69	41.0044
1498.25	39.505
1499.81	37.5412
1501.37	36.0781
1502.93	35.5317
1504.49	34.2284
1506.05	33.4898
1507.61	32.3648
1509.17	30.6376
1510.73	28.7156
1512.28	26.9066
1513.84	25.3258
1515.4	23.3294
1516.96	21.7493
1518.51	20.6718
1520.07	18.1412
1521.63	17.6705
1523.18	16.9333
1524.74	17.0597
1526.29	17.2325
1527.85	16.21
1529.4	17.1181
1530.96	16.8566
1532.51	16.435
1534.06	17.4826
1535.62	17.5531
1537.17	17.84
1538.72	18.1536
1540.28	18.561
1541.83	19.5602
1543.38	20.6962
1544.93	22.3286
1546.48	23.546
1548.03	23.9319
1549.59	25.9357
1551.14	25.7924
1552.69	26.203
1554.24	26.1709
1555.79	26.0854
1557.34	25.9913
1558.88	25.405
1560.43	25.5006
1561.98	26.0605
1563.53	26.6107
1565.08	27.7889
1566.62	28.4818
1568.17	28.3333
1569.72	29.4663
1571.27	31.2294
1572.81	32.0265
1574.36	33.1216
1575.9	35.1629
1577.45	36.5081
1579	38.1978
1580.54	39.6576
1582.09	40.3641
1583.63	41.8959
1585.17	42.7632
1586.72	43.608
1588.26	44.4747
1589.8	44.6739
1591.35	45.7196
1592.89	46.3163
1594.43	46.9754
1595.97	48.1877
1597.52	48.3049
1599.06	49.2958
1600.6	49.1538
1602.14	50.1534
1603.68	50.4047
1605.22	50.105
1606.76	50.1722
1608.3	50.1293
1609.84	50.3358
1611.38	51.9493
1612.92	52.1975
1614.46	52.4198
1615.99	54.3771
1617.53	54.8099
1619.07	55.6866
1620.61	56.3891
1622.14	56.04
1623.68	55.6915
1625.22	55.222
1626.75	55.764
1628.29	55.8228
1629.82	56.0089
1631.36	55.7309
1632.9	56.2527
1634.43	57.2829
1635.96	58.8152
1637.5	60.7062
1639.03	61.4186
1640.57	61.9534
1642.1	63.0464
1643.63	64.5475
1645.16	66.0401
1646.7	67.4637
1648.23	69.1487
1649.76	69.9208
1651.29	71.3871
1652.82	71.7564
1654.36	71.9415
1655.89	72.1978
1657.42	72.1279
1658.95	71.342
1660.48	70.9502
1662.01	69.3504
1663.53	68.683
1665.06	68.2755
1666.59	67.1319
1668.12	66.1831
1669.65	63.965
1671.18	62.6221
1672.7	60.3795
1674.23	58.489
1675.76	56.4296
1677.29	54.0412
1678.81	51.8693
1680.34	49.3846
1681.86	47.198
1683.39	45.6805
1684.91	43.9127
1686.44	42.2195
1687.96	39.9233
1689.49	37.9877
1691.01	36.1459
1692.54	34.5725
1694.06	32.3402
1695.58	30.9058
1697.11	28.5715
1698.63	27.1595
1700.15	25.8709
1701.67	24.7137
1703.2	24.1866
1704.72	23.0159
1706.24	21.3848
1707.76	20.0459
1709.28	19.3025
1710.8	18.5612
1712.32	17.8776
1713.84	17.3397
1715.36	16.9242
1716.88	17.1717
1718.4	16.7529
1719.91	16.4565
1721.43	16.3842
1722.95	15.5975
1724.47	15.9396
1725.99	15.5776
1727.5	15.5969
1729.02	15.2891
1730.54	14.8911
1732.05	14.6134
1733.57	14.0314
1735.09	14.1802
1736.6	13.7363
1738.12	13.6656
1739.63	13.6624
1741.15	13.3632
1742.66	12.8079
1744.18	11.8449
1745.69	11.1715
1747.2	10.8419
1748.72	10.202
1750.23	9.65833
1751.74	8.4488
1753.25	7.50676
1754.77	6.85319
1756.28	6.62057
1757.79	5.97622
1759.3	5.24574
1760.81	4.6235
1762.32	4.49022
1763.83	4.25717
1765.34	4.79642
1766.85	4.62171
1768.36	4.59418
1769.87	4.64749
1771.38	4.657
1772.89	4.32304
1774.4	4.4872
1775.91	4.36617
1777.41	4.43549
1778.92	4.62051
1780.43	4.45991
1781.94	3.81078
1783.44	3.2519
1784.95	3.77234
1786.45	3.68679
1787.96	4.23533
1789.47	4.62049
1790.97	4.58051
1792.48	4.08847
1793.98	4.3242
1795.48	4.48323
1796.99	5.10569
1798.49	4.84105
1800	5.68605
1801.5	6.00539
1803	5.92616
1804.51	5.84311
1806.01	5.91471
1807.51	6.2554
1809.01	6.18747
1810.51	6.20134
1812.02	5.34313
1813.52	5.60069
1815.02	5.67206
1816.52	5.71735
1818.02	5.62368
1819.52	4.71711
1821.02	4.82067
1822.52	4.72119
1824.02	4.88729
1825.51	5.12039
1827.01	5.08502
1828.51	4.99093
1830.01	4.70028
1831.51	5.10151
1833	5.44841
1834.5	6.4335
1836	6.49863
1837.5	6.64956
1838.99	7.06708
1840.49	7.18132
1841.98	6.86466
1843.48	6.92525
1844.97	6.69761
1846.47	6.70962
1847.96	6.97522
1849.46	7.41712
1850.95	8.13533
1852.45	8.12881
1853.94	8.91946
1855.43	7.62033
1856.92	7.89942
1858.42	8.13459
1859.91	8.50188
1861.4	7.82607
1862.89	8.27617
1864.39	8.67901
1865.88	8.52608
1867.37	8.60401
1868.86	9.4432
1870.35	8.94198
1871.84	8.96051
1873.33	8.50023
1874.82	8.30078
1876.31	7.80684
1877.8	7.35449
1879.29	8.24438
1880.77	7.84211
1882.26	7.9857
1882.51	7.46526
1884	7.30829
1885.5	7.44087
1886.99	7.53333
1888.48	7.80739
1889.98	7.63751
1891.47	8.30398
1892.97	7.88251
1894.46	8.20803
1895.95	7.81113
1897.44	7.96123
1898.93	7.59503
1900.42	7.25946
1901.92	7.25957
1903.41	7.31903
1904.9	7.01994
1906.39	6.2916
1907.88	5.83063
1909.37	4.93024
1910.86	4.29908
1912.35	4.47988
1913.84	4.54705
1915.32	4.42544
1916.81	4.09923
1918.3	3.86685
1919.79	3.74851
1921.28	4.25458
1922.76	3.883
1924.25	3.92266
1925.74	3.62633
1927.22	3.58106
1928.71	2.92336
1930.2	3.56668
1931.68	3.56522
1933.17	3.24323
1934.65	3.16529
1936.14	2.92756
1937.62	3.06724
1939.11	3.08307
1940.59	2.99933
1942.08	2.79728
1943.56	1.578
1945.04	1.04645
1946.53	0.675619
1948.01	0.0146674
1949.49	0.22518
1950.97	0.556135
1952.45	1.31482
1953.94	1.08014
1955.42	1.2421
1956.9	1.20533
1958.38	1.41654
1959.86	1.59605
1961.34	1.81893
1962.82	1.98471
1964.3	1.91518
1965.78	1.98402
1967.26	1.50825
1968.74	1.25789
1970.22	1.79188
1971.69	2.32206
1973.17	2.22451
1974.65	2.89446
1976.13	3.14615
1977.61	3.42099
1979.08	2.92681
1980.56	4.02159
1982.03	4.71727
1983.51	4.55599
1984.99	4.48342
1986.46	5.08665
1987.94	4.89739
1989.41	4.66637
1990.89	4.88994
1992.36	5.13972
1993.84	5.48476
1995.31	6.61387
1996.78	6.84226
1998.26	7.07418
1999.73	6.57773
2001.2	6.09605
2002.68	5.39391
2004.15	4.97444
2005.62	4.81419
2007.09	4.80143
2008.56	5.55316
2010.04	5.50443
2011.51	6.34306
2012.98	6.03483
2014.45	5.341
2015.92	5.17148
2017.39	4.65334
2018.86	4.75843
2020.33	4.71954
2021.8	4.76861
2023.27	5.29423
2024.74	5.0642
2026.2	4.94961
2027.67	3.98556
2029.14	3.69139
2030.61	3.64184
2032.07	2.90162
2033.54	2.78009
2035.01	2.94744
2036.47	2.84189
2037.94	3.41712
2039.41	4.13176
2040.87	5.24742
2042.34	5.85981
2043.8	7.35749
2045.27	7.77697
2046.73	8.76322
2048.2	9.91101
2049.66	10.8086
2051.12	11.5241
2052.59	12.26
2054.05	13.5698
2055.51	14.443
2056.98	14.7054
2058.44	15.5043
2059.9	16.536
2061.36	17.4256
2062.82	19.0389
2064.29	20.2092
2065.75	21.3861
2067.21	22.8903
2068.67	23.7232
2070.13	23.6871
2071.59	24.4279
2073.05	25.0196
2074.51	26.1684
2075.97	27.3313
2077.43	28.7837
2078.88	30.1264
2080.34	31.4141
2081.8	32.5462
2083.26	33.0506
2084.72	34.2623
2086.17	35.211
2087.63	36.4009
2089.09	37.7028
2090.54	38.9429
2092	39.9584
2093.46	40.8776
2094.91	41.985
2096.37	43.4118
2097.82	44.8325
2099.28	46.3488
2100.73	48.2708
2102.19	50.352
2103.64	51.5364
2105.09	53.4818
2106.55	55.8002
2108	57.3861
2109.46	58.9882
2110.91	61.3153
2112.36	63.5308
2113.81	65.8519
2115.27	68.3225
2116.72	70.5367
2118.17	72.6034
2119.62	75.113
2121.07	76.9581
2122.52	79.3882
2123.97	82.6028
2125.42	85.6465
2126.87	87.9597
2128.32	90.3079
2129.77	92.2466
2131.22	95.1405
2132.67	97.4794
2134.12	101.039
2135.57	105.045
