#Acq. time (s)=	45
#Accumulations=	2
#Range (cm-¹)=	200...3150
#Windows=	2
#Auto scanning=	Off
#Autofocus=	Off
#Macrospot=	Off
#AutoExposure=	Off
#Spike filter=	Multiple accum.
#Delay time (s)=	0
#Binning=	1
#Readout mode=	Signal
#DeNoise=	Off
#ICS correction=	On
#Dark correction=	Off
#Inst. Process=	Off
#Detector Gain=	Best Dynamic Range
#Detector ADC=	20 kHz       
#Detector temperature (°C)=	-69.85
#Instrument=	LabRAM HR Evol
#Detector=	Synapse
#Objective=	x100
#Grating=	600 gr/mm
#ND Filter=	100%
#Laser (nm)=	532 
#Hole=	100.021
#Range=	Auto
#Laser Pol.=	No
#Raman. Pol.=	No
#Laser Pol. (°)=	-0.0007625
#Raman Pol. (°)=	89.9995
#Collection=	Microscope
#StageXY=	Marzhauser
#StageZ=	Marzhauser
#X (µm)=	19299.8
#Y (µm)=	3083.5
#Z (µm)=	1047
#Full time(mm:ss)=	3:18
#Project=	
#Sample=	
#Site=	
#Title=	Mb_50_18_11_2x_45s_532 nm_x100_100%_600 gr_mm
#Remark=	
#Date=	12.07.2022 11:04
#Acquired=	12.07.2022 11:04:51
#Base:Fit=	10.08.2022 10:49:18
#Base:Sub=	10.08.2022 10:49:30
#Filter:Polynom=	16.08.2022 10:14:59
#AxisType[0]=Intens
#AxisUnit[0]=Cnt
#AxisType[1]=Spectr
#AxisUnit[1]=1/cm
200.388	-0.854276
202.204	3.01895
204.019	5.59657
205.832	6.8343
207.646	7.96443
209.459	8.4517
211.274	9.172
213.087	9.84366
214.899	10.7544
216.711	11.0982
218.524	11.5592
220.335	12.9388
222.146	14.1768
223.956	14.2244
225.766	13.6415
227.576	12.8673
229.388	13.074
231.197	13.0487
233.005	12.0782
234.813	13.0208
236.621	12.6973
238.429	12.4389
240.236	12.5287
242.045	11.1723
243.852	10.5515
245.658	10.8369
247.464	10.3665
249.269	8.34269
251.074	6.86265
252.879	6.97437
254.683	6.18884
256.487	6.77724
258.291	6.20709
260.094	7.0078
261.897	6.21681
263.702	5.81843
265.504	6.42107
267.306	5.08586
269.108	5.13616
270.909	5.03452
272.71	4.5042
274.511	4.38736
276.311	3.74926
278.111	4.12925
279.91	3.03966
281.709	3.04751
283.508	3.21844
285.306	4.26371
287.105	4.4096
288.9	4.61503
290.698	4.26379
292.495	3.75666
294.291	3.895
296.088	5.36152
297.884	6.30391
299.679	8.39026
301.475	10.4903
303.27	11.2245
305.064	12.3948
306.858	13.2604
308.652	13.9095
310.444	14.6781
312.237	13.8476
314.03	13.9818
315.822	13.9127
317.615	14.0781
319.406	14.5407
321.198	14.6608
322.987	14.5782
324.778	15.394
326.568	15.3849
328.358	15.6033
330.148	15.5472
331.935	14.3926
333.724	15.0845
335.513	15.074
337.301	13.7772
339.089	12.4275
340.875	13.4304
342.662	13.8123
344.449	13.2892
346.236	13.7067
348.02	13.8008
349.806	13.4179
351.592	12.6083
353.375	13.3333
355.16	14.1784
356.944	14.4291
358.728	14.892
360.51	14.7536
362.294	14.1439
364.077	14.8805
365.858	15.7492
367.64	16.3842
369.422	17.3005
371.202	18.5762
372.983	19.3677
374.764	18.7811
376.543	18.521
378.324	19.6447
380.102	20.1584
381.881	21.0506
383.661	22.4597
385.438	23.9155
387.216	24.252
388.993	25.2543
390.771	23.7281
392.548	23.4959
394.324	23.24
396.101	22.8112
397.875	22.0403
399.651	21.4747
401.425	21.1333
403.201	21.3715
404.974	20.4932
406.749	20.3311
408.524	19.9408
410.296	19.8644
412.07	19.3304
413.841	18.9523
415.614	19.2568
417.385	18.2099
419.156	16.5349
420.928	15.4806
422.698	14.5392
424.469	13.9542
426.238	12.2592
428.009	11.3983
429.777	10.8109
431.548	9.86603
433.315	8.99923
435.083	8.26697
436.852	8.21294
438.618	7.87604
440.387	8.62929
442.153	8.84044
443.919	8.66181
445.686	8.58213
447.451	7.34213
449.218	7.36691
450.982	6.63996
452.746	7.43588
454.512	7.72172
456.275	7.91652
458.038	7.78508
459.803	7.27834
461.565	7.73896
463.327	7.46187
465.091	8.80859
466.852	10.187
468.613	10.5854
470.374	10.7699
472.136	11.1245
473.896	12.0098
475.655	13.2192
477.415	13.8991
479.176	13.8124
480.934	16.1588
482.692	17.0404
484.45	18.5031
486.21	19.2182
487.967	20.2569
489.724	22.2108
491.481	23.0144
493.237	24.0805
494.995	25.0562
496.75	25.9578
498.506	27.9067
500.26	28.7436
502.015	30.6464
503.771	31.526
505.525	31.4989
507.279	31.2319
509.032	32.1436
510.785	32.3973
512.537	33.1496
514.289	32.3574
516.041	32.0797
517.793	32.7617
519.546	33.0971
521.297	32.6886
523.047	32.6482
524.797	33.0692
526.547	32.4373
528.297	31.7707
530.046	31.3804
531.795	30.534
533.543	29.8008
535.291	28.2187
537.039	27.0038
538.787	26.3662
540.534	24.3164
542.281	22.8488
544.027	21.8433
545.773	20.3219
547.519	19.6394
549.264	18.5212
551.01	16.8125
552.754	16.5509
554.499	14.864
556.243	13.0769
557.987	11.396
559.73	10.996
561.474	10.713
563.216	9.62953
564.959	7.32186
566.701	6.54041
568.441	6.49525
570.182	5.47727
571.923	4.73623
573.664	4.77009
575.405	4.65485
577.145	5.25671
578.885	4.73352
580.624	5.13273
582.361	5.45907
584.1	6.0367
585.839	6.73773
587.577	5.34236
589.315	5.82168
591.052	4.20569
592.787	4.233
594.524	4.66999
596.26	4.9658
597.997	5.39154
599.732	5.98075
601.466	6.50291
603.201	7.51059
604.936	8.99675
606.67	9.03834
608.403	8.55935
610.136	9.45856
611.87	9.63925
613.603	9.90879
615.334	10.8012
617.067	11.5786
618.799	11.2769
620.529	11.5136
622.26	11.974
623.991	12.1834
625.72	12.4193
627.451	12.0069
629.181	12.9942
630.909	13.6402
632.638	12.8246
634.368	12.5522
636.095	13.2207
637.823	13.3362
639.551	13.2849
641.277	12.1719
643.005	12.7298
644.73	12.4241
646.457	12.8958
648.184	13.3339
649.908	13.6637
651.634	13.9737
653.357	15.3333
655.083	15.7406
656.806	15.8873
658.53	16.23
660.253	16.9828
661.977	16.9454
663.7	18.0735
665.422	18.7939
667.145	19.9464
668.865	19.7971
670.588	19.9481
672.308	19.332
674.027	19.2493
675.749	20.5959
677.468	20.7759
679.188	21.9742
680.907	23.6523
682.627	24.1592
684.345	24.8268
686.064	26.2006
687.781	26.7643
689.498	27.4586
691.216	27.2048
692.932	27.3031
694.65	28.7722
696.366	30.2123
698.081	30.3808
699.797	32.2354
701.512	32.6571
703.228	32.6061
704.942	33.6912
706.655	33.9682
708.371	34.4004
710.083	34.5812
711.796	34.5988
713.51	34.9123
715.222	34.4611
716.934	35.2119
718.645	35.012
720.358	36.8815
722.068	37.5958
723.779	37.4265
725.49	37.2243
727.2	37.5514
728.909	37.4931
730.618	37.6756
732.329	39.2118
734.037	39.6404
735.745	40.9382
737.453	42.6016
739.16	43.5242
740.869	45.9748
742.576	49.8577
744.282	52.3056
745.988	56.3905
747.694	59.9147
749.401	63.7101
751.107	67.3226
752.811	69.2682
754.516	71.085
756.22	74.5547
757.924	76.5512
759.627	79.1018
761.332	82.265
763.035	84.1582
764.738	86.019
766.44	88.3314
768.142	88.9708
769.843	90.6626
771.544	92.6899
773.245	93.5748
774.946	95.0521
776.646	95.4434
778.346	95.953
780.046	97.0148
781.745	96.939
783.444	97.5179
785.143	98.2866
786.841	97.762
788.539	97.4134
790.237	97.0483
791.934	96.2248
793.631	96.1091
795.328	95.719
797.024	94.2701
798.72	93.0113
800.416	91.8877
802.112	90.6233
803.807	88.3796
805.502	86.1016
807.196	81.9602
808.89	78.1575
810.584	76.5142
812.278	76.2598
813.971	75.6456
815.664	76.3885
817.354	76.6468
819.047	76.1661
820.739	77.8197
822.43	78.5376
824.122	78.8066
825.813	80.6763
827.503	81.1646
829.192	81.0719
830.882	81.4137
832.571	80.3007
834.261	80.1313
835.95	80.3656
837.637	79.0244
839.325	78.8865
841.013	78.599
842.701	76.5352
844.389	76.4863
846.074	75.6774
847.761	74.053
849.447	73.3563
851.131	72.6363
852.817	71.4631
854.503	70.5855
856.188	68.7858
857.871	68.057
859.556	66.7528
861.24	65.6237
862.922	65.2415
864.606	65.0996
866.289	64.2474
867.97	63.5151
869.653	62.5446
871.336	61.0219
873.016	59.8747
874.698	58.8676
876.379	57.8969
878.058	55.6846
879.739	54.5984
881.418	52.3431
883.098	50.3208
884.778	48.8632
886.456	46.5603
888.135	45.425
889.812	44.3703
891.49	43.8167
893.167	44.4629
894.845	46.5706
896.523	46.9666
898.198	46.7557
899.875	46.8789
901.55	46.888
903.226	46.9904
904.901	47.7799
906.576	46.3827
908.25	46.0857
909.925	45.9249
911.598	45.0014
913.271	44.7246
914.945	43.3048
916.617	44.1258
918.291	45.5521
919.962	45.5022
921.635	44.3791
923.306	44.0924
924.978	43.6573
926.648	43.5461
928.318	43.3328
929.989	42.2952
931.659	41.9191
933.328	41.9932
934.998	41.1415
936.666	40.9692
938.336	40.713
940.004	40.6855
941.671	41.4114
943.34	41.0167
945.007	40.095
946.673	38.5863
948.339	37.9265
950.007	37.0002
951.672	37.876
953.337	37.6238
955.004	37.2252
956.669	37.4133
958.333	36.8118
959.997	35.521
961.662	35.5106
963.326	35.6359
964.989	35.252
966.651	34.9114
968.315	34.3282
969.977	33.6445
971.639	33.7406
973.301	33.1076
974.962	32.8655
976.624	32.3742
978.285	32.241
979.945	31.6642
981.605	31.7251
983.264	31.3731
984.924	30.7125
986.583	29.6436
988.243	29.0244
989.901	28.2858
991.56	28.7809
993.217	28.924
994.875	29.3934
996.532	30.4682
998.188	31.8111
999.845	34.464
1001.5	35.8653
1003.16	36.0028
1004.81	38.2038
1006.47	39.8784
1008.12	41.7235
1009.78	43.7559
1011.43	43.6208
1013.09	46.5044
1014.74	48.7048
1016.39	50.9808
1018.05	52.442
1019.7	54.114
1021.35	55.3394
1023	55.579
1024.65	56.5664
1026.31	56.7759
1027.96	56.8083
1029.61	58.3798
1031.26	60.4666
1032.91	60.5339
1034.56	61.7087
1036.21	61.1358
1037.86	61.0714
1039.51	61.0989
1041.16	58.9459
1042.8	57.7606
1044.45	57.0719
1046.1	55.3241
1047.75	53.358
1049.39	50.8758
1051.04	48.7329
1052.69	47.3576
1054.33	45.1371
1055.98	43.4576
1057.62	41.7049
1059.27	40.3616
1060.91	38.8345
1062.56	37.5284
1064.2	36.2917
1065.85	34.2744
1067.49	32.4512
1069.13	31.3924
1070.77	31.3093
1072.42	31.0884
1074.06	30.2854
1075.7	30.6815
1077.34	30.4301
1078.98	30.58
1080.62	30.5301
1082.27	30.7611
1083.91	29.7644
1085.55	28.6779
1087.18	29.2082
1088.82	29.0182
1090.46	29.1617
1092.1	29.0769
1093.74	29.221
1095.38	30.6331
1097.02	29.9865
1098.65	29.5487
1100.29	29.9151
1101.93	28.9613
1103.56	29.4854
1105.2	28.5674
1106.84	29.0243
1108.47	28.6754
1110.11	27.7737
1111.74	27.1416
1113.38	26.3799
1115.01	24.8126
1116.64	24.5702
1118.28	23.3788
1119.91	22.1497
1121.54	20.9138
1123.18	19.0989
1124.81	18.7206
1126.44	16.7368
1128.07	15.6379
1129.7	14.8322
1131.33	14.0709
1132.97	13.4738
1134.6	12.621
1136.23	11.6034
1137.86	11.4746
1139.49	10.4532
1141.11	10.0514
1142.74	9.1571
1144.37	8.90843
1146	7.48793
1147.63	6.88977
1149.26	6.22865
1150.88	6.01516
1152.51	5.1975
1154.14	4.02671
1155.76	3.08245
1157.39	2.45051
1159.01	0.708377
1160.64	0.507017
1162.27	-0.344361
1163.89	-0.462413
1165.51	-0.736445
1167.14	-0.167209
1168.76	0.209183
1170.39	0.823768
1172.01	0.466125
1173.63	0.995247
1175.25	1.6956
1176.88	2.08641
1178.5	2.77619
1180.12	3.4038
1181.74	4.07283
1183.36	3.71013
1184.98	4.26883
1186.6	4.10467
1188.22	4.41647
1189.84	3.87521
1191.46	4.53851
1193.08	5.33173
1194.7	6.68767
1196.32	7.19625
1197.94	7.63241
1199.55	7.87567
1201.17	8.83578
1202.79	9.35023
1204.41	9.97909
1206.02	10.1724
1207.64	9.966
1209.25	10.7223
1210.87	11.9375
1212.48	13.245
1214.1	14.5513
1215.71	15.7185
1217.33	16.9533
1218.94	17.6597
1220.56	18.3229
1222.17	19.2032
1223.79	19.8089
1225.4	21.178
1227.01	21.5951
1228.62	22.7508
1230.23	23.7128
1231.85	25.1145
1233.46	26.0579
1235.07	26.6274
1236.68	28.1062
1238.29	28.6902
1239.9	29.9953
1241.51	32.5323
1243.12	33.7014
1244.73	34.7877
1246.34	35.7153
1247.94	35.926
1249.55	36.4718
1251.16	37.3753
1252.77	37.4463
1254.37	38.737
1255.98	39.1997
1257.59	40.0373
1259.2	40.4877
1260.8	41.0191
1262.41	41.3342
1264.01	42.0413
1265.62	43.5311
1267.22	44.358
1268.83	45.5012
1270.43	46.4362
1272.03	48.3774
1273.64	48.7883
1275.24	49.6802
1276.85	49.2086
1278.45	49.8324
1280.05	50.8297
1281.65	51.4564
1283.25	51.797
1284.85	52.2761
1286.46	52.604
1288.06	53.1662
1289.66	53.5878
1291.26	54.4976
1292.86	55.2597
1294.46	54.3577
1296.06	54.3164
1297.66	52.703
1299.25	52.0556
1300.85	51.3125
1302.45	51.361
1304.05	51.0278
1305.65	51.4767
1307.24	50.4275
1308.84	50.7269
1310.43	50.9467
1312.03	50.6075
1313.63	49.5492
1315.22	49.4766
1316.82	50.1051
1318.41	49.8506
1320.01	49.4433
1321.6	48.666
1323.2	47.2404
1324.79	45.879
1326.38	44.8441
1327.98	43.8499
1329.57	42.2714
1331.16	41.125
1332.76	39.672
1334.35	39.4465
1335.94	38.481
1337.53	37.6325
1339.12	36.336
1340.71	35.7274
1342.3	35.4841
1343.89	35.11
1345.48	34.8192
1347.07	33.6941
1348.66	33.3401
1350.25	32.23
1351.84	31.7622
1353.43	31.3364
1355.01	29.7939
1356.6	27.7988
1358.19	27.7174
1359.77	27.0618
1361.36	25.7824
1362.95	24.8433
1364.53	23.3478
1366.12	22.8654
1367.71	21.6242
1369.29	20.4265
1370.88	20.9326
1372.46	20.2495
1374.04	19.0542
1375.63	18.5357
1377.21	17.5628
1378.8	17.4134
1380.38	17.1611
1381.96	17.4373
1383.54	16.8339
1385.13	17.0071
1386.71	16.5559
1388.29	17.1536
1389.87	16.1601
1391.45	15.057
1393.03	15.1462
1394.61	14.8164
1396.19	15.0072
1397.77	14.0393
1399.35	14.1937
1400.93	15.01
1402.51	15.477
1404.09	15.6714
1405.67	16.1725
1407.24	17.2183
1408.82	17.2575
1410.4	18.8164
1411.98	20.5577
1413.55	22.8762
1415.13	24.2733
1416.71	26.329
1418.28	28.4761
1419.86	31.6788
1421.43	34.2825
1423.01	36.5569
1424.58	39.2318
1426.16	41.9205
1427.73	44.3272
1429.31	46.0463
1430.88	47.5652
1432.45	49.5393
1434.02	50.3868
1435.6	52.03
1437.17	54.0068
1438.74	55.246
1440.31	56.135
1441.88	57.7739
1443.45	59.1219
1445.03	60.514
1446.6	61.1106
1448.17	61.3787
1449.74	62.0964
1451.3	60.9574
1452.87	59.8509
1454.44	59.3177
1456.01	58.4968
1457.58	57.6914
1459.15	56.8496
1460.72	55.9789
1462.28	54.923
1463.85	53.4641
1465.42	51.4941
1466.98	49.0192
1468.55	46.9858
1470.12	45.4102
1471.68	44.7903
1473.25	42.9103
1474.81	42.2739
1476.38	39.4516
1477.94	37.6163
1479.51	35.6064
1481.07	33.8083
1482.63	32.1726
1484.2	31.5017
1485.76	30.164
1487.32	28.9437
1488.88	28.1369
1490.45	27.5107
1492.01	26.8122
1493.57	26.2205
1495.13	25.7557
1496.69	25.1821
1498.25	24.1419
1499.81	23.0776
1501.37	22.2349
1502.93	21.7882
1504.49	20.7192
1506.05	18.9864
1507.61	17.2539
1509.17	16.3244
1510.73	15.2337
1512.28	13.546
1513.84	12.2498
1515.4	11.6721
1516.96	12.1319
1518.51	11.4247
1520.07	10.7932
1521.63	9.76057
1523.18	8.48627
1524.74	7.35437
1526.29	6.67809
1527.85	6.63561
1529.4	6.21446
1530.96	5.88308
1532.51	6.26844
1534.06	6.21742
1535.62	7.21072
1537.17	7.58898
1538.72	7.8485
1540.28	8.13869
1541.83	7.50923
1543.38	8.06557
1544.93	8.56425
1546.48	9.51962
1548.03	10.8635
1549.59	11.3616
1551.14	11.9158
1552.69	12.4868
1554.24	12.5774
1555.79	13.5974
1557.34	14.2124
1558.88	14.4119
1560.43	16.0791
1561.98	16.6846
1563.53	17.3033
1565.08	18.5996
1566.62	20.0222
1568.17	21.9755
1569.72	23.826
1571.27	25.6503
1572.81	26.6364
1574.36	27.3825
1575.9	28.0838
1577.45	29.4687
1579	30.9403
1580.54	31.7307
1582.09	32.1239
1583.63	33.722
1585.17	34.6153
1586.72	36.59
1588.26	37.3301
1589.8	38.9017
1591.35	40.2659
1592.89	41.7789
1594.43	42.6189
1595.97	42.3837
1597.52	42.5136
1599.06	42.4439
1600.6	42.7064
1602.14	42.8757
1603.68	43.5816
1605.22	44.1114
1606.76	44.7313
1608.3	45.213
1609.84	46.0462
1611.38	46.4474
1612.92	46.9325
1614.46	46.5197
1615.99	46.4759
1617.53	46.9028
1619.07	47.2863
1620.61	48.7462
1622.14	49.0643
1623.68	49.6846
1625.22	50.9792
1626.75	51.549
1628.29	52.7398
1629.82	52.934
1631.36	52.6958
1632.9	53.604
1634.43	54.4337
1635.96	55.4995
1637.5	57.4685
1639.03	58.5855
1640.57	60.1569
1642.1	61.2309
1643.63	62.2688
1645.16	63.614
1646.7	65.3474
1648.23	65.7233
1649.76	65.8536
1651.29	66.4703
1652.82	66.6086
1654.36	67.4881
1655.89	68.5286
1657.42	68.2285
1658.95	69.5326
1660.48	70.6248
1662.01	69.8661
1663.53	69.6708
1665.06	68.5875
1666.59	67.5147
1668.12	66.7034
1669.65	65.0154
1671.18	62.8155
1672.7	60.1292
1674.23	58.0302
1675.76	55.6132
1677.29	53.6526
1678.81	51.4371
1680.34	49.7354
1681.86	47.9423
1683.39	45.5363
1684.91	42.5279
1686.44	40.0234
1687.96	36.8719
1689.49	33.6787
1691.01	30.8385
1692.54	29.2225
1694.06	26.6918
1695.58	24.847
1697.11	22.9356
1698.63	20.8429
1700.15	19.3147
1701.67	17.994
1703.2	16.6512
1704.72	15.2647
1706.24	13.9021
1707.76	12.9014
1709.28	11.8234
1710.8	10.6548
1712.32	9.85652
1713.84	9.38647
1715.36	8.51852
1716.88	7.15797
1718.4	6.46045
1719.91	5.60781
1721.43	6.04613
1722.95	5.44468
1724.47	4.69046
1725.99	4.85778
1727.5	4.66673
1729.02	5.03423
1730.54	5.3538
1732.05	5.35576
1733.57	5.27159
1735.09	6.4274
1736.6	6.19187
1738.12	5.49117
1739.63	5.19851
1741.15	4.86478
1742.66	4.02195
1744.18	4.1108
1745.69	2.70313
1747.2	2.56575
1748.72	2.02383
1750.23	2.54052
1751.74	2.31379
1753.25	2.36062
1754.77	2.05074
1756.28	1.94295
1757.79	1.25364
1759.3	0.410625
1760.81	0.186988
1762.32	0.272338
1763.83	-0.614105
1765.34	-0.632708
1766.85	-0.513572
1768.36	0.0178218
1769.87	-0.36731
1771.38	0.507109
1772.89	1.09457
1774.4	1.39702
1775.91	1.46438
1777.41	2.04554
1778.92	2.26819
1780.43	2.93423
1781.94	2.76329
1783.44	2.77684
1784.95	2.56961
1786.45	3.40353
1787.96	3.80804
1789.47	3.28604
1790.97	3.29113
1792.48	3.27638
1793.98	2.90546
1795.48	2.98757
1796.99	3.75832
1798.49	3.7225
1800	4.19467
1801.5	4.31773
1803	4.20735
1804.51	4.29965
1806.01	3.67462
1807.51	4.0786
1809.01	3.55904
1810.51	3.62507
1812.02	2.9675
1813.52	2.46668
1815.02	2.32668
1816.52	2.60999
1818.02	2.29793
1819.52	2.16935
1821.02	2.18645
1822.52	2.18681
1824.02	1.83452
1825.51	1.92974
1827.01	1.42826
1828.51	0.695442
1830.01	0.15119
1831.51	-0.0753736
1833	-0.526037
1834.5	0.346315
1836	1.27554
1837.5	1.92198
1838.99	2.06403
1840.49	2.10321
1841.98	2.00507
1843.48	2.60664
1844.97	2.34984
1846.47	2.14453
1847.96	1.90934
1849.46	1.7264
1850.95	1.62184
1852.45	1.71018
1853.94	2.15317
1855.43	2.16597
1856.92	1.83649
1858.42	1.90259
1859.91	1.89878
1861.4	2.14676
1862.89	1.88902
1864.39	1.57919
1865.88	1.44692
1867.37	1.57493
1868.86	2.09497
1870.35	3.00976
1871.84	3.2379
1873.33	3.74686
1874.82	4.11815
1876.31	3.94656
1877.8	3.35257
1879.29	3.53891
1880.77	3.83337
1882.26	3.96769
1882.51	3.71493
1884	4.31632
1885.5	4.25094
1886.99	4.84478
1888.48	4.79133
1889.98	5.09579
1891.47	4.64886
1892.97	4.76505
1894.46	4.96868
1895.95	4.7376
1897.44	4.89625
1898.93	4.49456
1900.42	4.55178
1901.92	4.55778
1903.41	4.98667
1904.9	5.46038
1906.39	6.1444
1907.88	7.09698
1909.37	6.95164
1910.86	6.4994
1912.35	5.70265
1913.84	5.84777
1915.32	5.37623
1916.81	5.30333
1918.3	4.64995
1919.79	4.31905
1921.28	4.43364
1922.76	3.94581
1924.25	4.29625
1925.74	4.55911
1927.22	4.65016
1928.71	3.90647
1930.2	4.01229
1931.68	4.44303
1933.17	4.27022
1934.65	3.96826
1936.14	4.28677
1937.62	5.20242
1939.11	5.44934
1940.59	5.75188
1942.08	6.14534
1943.56	5.89908
1945.04	5.0594
1946.53	4.88541
1948.01	4.9581
1949.49	4.72071
1950.97	5.43073
1952.45	5.27496
1953.94	5.47182
1955.42	5.25918
1956.9	5.37223
1958.38	5.59369
1959.86	5.76524
1961.34	6.23091
1962.82	5.2999
1964.3	6.10024
1965.78	6.17966
1967.26	6.72562
1968.74	6.72013
1970.22	6.61388
1971.69	6.1671
1973.17	6.31464
1974.65	6.72602
1976.13	6.75647
1977.61	6.99743
1979.08	6.1481
1980.56	6.21097
1982.03	5.74558
1983.51	5.35538
1984.99	4.99246
1986.46	4.67354
1987.94	4.42082
1989.41	2.62761
1990.89	2.37861
1992.36	2.12219
1993.84	2.40687
1995.31	2.60762
1996.78	2.77189
1998.26	3.05689
1999.73	3.5132
2001.2	3.48701
2002.68	3.41673
2004.15	3.40784
2005.62	3.16362
2007.09	2.72675
2008.56	2.81585
2010.04	2.99881
2011.51	2.35227
2012.98	1.81169
2014.45	1.5279
2015.92	1.97291
2017.39	2.34589
2018.86	2.45812
2020.33	2.91246
2021.8	3.43007
2023.27	3.18976
2024.74	3.89682
2026.2	3.71125
2027.67	5.03299
2029.14	4.95232
2030.61	5.39042
2032.07	6.33899
2033.54	7.60381
2035.01	8.06926
2036.47	8.86363
2037.94	10.5187
2039.41	10.8495
2040.87	11.3191
2042.34	11.2528
2043.8	11.654
2045.27	12.6927
2046.73	14.0709
2048.2	15.2955
2049.66	15.5183
2051.12	15.9054
2052.59	16.1027
2054.05	16.8864
2055.51	17.4644
2056.98	16.8249
2058.44	16.5828
2059.9	16.7147
2061.36	16.4917
2062.82	17.1617
2064.29	18.5166
2065.75	19.5245
2067.21	21.1623
2068.67	21.804
2070.13	22.3252
2071.59	22.4994
2073.05	23.373
2074.51	22.6298
2075.97	22.6013
2077.43	22.4193
2078.88	23.0196
2080.34	23.1704
2081.8	23.3903
2083.26	23.8646
2084.72	24.2112
2086.17	24.5644
2087.63	25.1692
2089.09	25.3989
2090.54	25.2546
2092	24.7565
2093.46	24.8137
2094.91	25.0574
2096.37	25.2688
2097.82	26.1475
2099.28	26.8428
2100.73	27.2989
2102.19	28.4467
2103.64	29.2981
2105.09	30.8636
2106.55	32.2759
2108	33.4215
2109.46	34.8063
2110.91	35.888
2112.36	36.9593
2113.81	38.2907
2115.27	39.7585
2116.72	41.2881
2118.17	43.0955
2119.62	44.5385
2121.07	45.5437
2122.52	45.7155
2123.97	47.4254
2125.42	48.963
2126.87	50.3024
2128.32	51.6121
2129.77	51.6552
2131.22	53.9758
2132.67	56.2511
2134.12	58.5975
