#Acq. time (s)=	45
#Accumulations=	2
#Range (cm-¹)=	200...3150
#Windows=	2
#Auto scanning=	Off
#Autofocus=	Off
#Macrospot=	Off
#AutoExposure=	Off
#Spike filter=	Multiple accum.
#Delay time (s)=	0
#Binning=	1
#Readout mode=	Signal
#DeNoise=	Off
#ICS correction=	On
#Dark correction=	Off
#Inst. Process=	Off
#Detector Gain=	Best Dynamic Range
#Detector ADC=	20 kHz       
#Detector temperature (°C)=	-69.85
#Instrument=	LabRAM HR Evol
#Detector=	Synapse
#Objective=	x100
#Grating=	600 gr/mm
#ND Filter=	100%
#Laser (nm)=	532 
#Hole=	100.021
#Range=	Auto
#Laser Pol.=	No
#Raman. Pol.=	No
#Laser Pol. (°)=	-0.0007625
#Raman Pol. (°)=	89.9995
#Collection=	Microscope
#StageXY=	Marzhauser
#StageZ=	Marzhauser
#X (µm)=	28305.8
#Y (µm)=	-3227.2
#Z (µm)=	1041.05
#Full time(mm:ss)=	3:19
#Project=	
#Sample=	
#Site=	
#Title=	Mb_50_18_34_2x_45s_532 nm_x100_100%_600 gr_mm
#Remark=	
#Date=	12.07.2022 13:28
#Acquired=	12.07.2022 13:28:24
#Base:Fit=	10.08.2022 10:49:18
#Base:Sub=	10.08.2022 10:49:30
#Filter:Polynom=	16.08.2022 10:14:59
#AxisType[0]=Intens
#AxisUnit[0]=Cnt
#AxisType[1]=Spectr
#AxisUnit[1]=1/cm
200.388	55.9107
202.204	51.7896
204.019	47.1663
205.832	43.7935
207.646	40.0259
209.459	37.1712
211.274	35.6633
213.087	33.9227
214.899	32.996
216.711	32.5942
218.524	32.0059
220.335	30.2208
222.146	27.8903
223.956	27.9682
225.766	27.0202
227.576	25.991
229.388	24.6878
231.197	24.7575
233.005	22.2349
234.813	20.2635
236.621	18.8417
238.429	17.6187
240.236	17.3893
242.045	16.9867
243.852	16.4819
245.658	16.0115
247.464	16.9354
249.269	16.1756
251.074	15.6568
252.879	14.6042
254.683	14.6884
256.487	14.325
258.291	13.7611
260.094	12.6892
261.897	11.4063
263.702	10.4885
265.504	9.21618
267.306	6.73462
269.108	4.70639
270.909	3.12077
272.71	2.6114
274.511	1.76126
276.311	2.21137
278.111	2.00189
279.91	1.49357
281.709	1.24959
283.508	2.18365
285.306	2.68366
287.105	2.83558
288.9	5.35063
290.698	6.38349
292.495	8.75734
294.291	11.7149
296.088	14.7837
297.884	19.4027
299.679	23.223
301.475	26.5155
303.27	28.5644
305.064	31.7807
306.858	33.9522
308.652	34.8151
310.444	36.1886
312.237	38.8161
314.03	42.0862
315.822	42.6128
317.615	43.7826
319.406	44.8399
321.198	46.3371
322.987	46.1834
324.778	47.0575
326.568	48.9732
328.358	49.8872
330.148	50.4041
331.935	49.8488
333.724	49.645
335.513	47.6343
337.301	45.2442
339.089	41.663
340.875	40.2969
342.662	38.7043
344.449	39.05
346.236	38.6816
348.02	39.7523
349.806	41.1624
351.592	44.2728
353.375	48.3249
355.16	53.2893
356.944	59.5081
358.728	65.7767
360.51	71.4302
362.294	76.6125
364.077	84.0546
365.858	91.7047
367.64	98.1615
369.422	104.151
371.202	110.843
372.983	118.658
374.764	122.518
376.543	127.672
378.324	132.564
380.102	136.877
381.881	140.928
383.661	143.569
385.438	146.132
387.216	147.242
388.993	147.501
390.771	148.191
392.548	146.777
394.324	144.577
396.101	142.191
397.875	138.808
399.651	134.645
401.425	130.101
403.201	124.379
404.974	117.475
406.749	110.274
408.524	103.317
410.296	95.548
412.07	87.7097
413.841	79.6207
415.614	71.4738
417.385	62.2337
419.156	53.6716
420.928	44.4434
422.698	36.4704
424.469	27.4209
426.238	20.6291
428.009	15.0472
429.777	9.98776
431.548	7.40068
433.315	6.40923
435.083	4.24134
436.852	4.23151
438.618	4.14126
440.387	5.62771
442.153	5.91588
443.919	6.42653
445.686	7.24378
447.451	6.02042
449.218	7.63636
450.982	9.23515
452.746	10.4105
454.512	10.2401
456.275	10.5494
458.038	11.2658
459.803	11.8449
461.565	11.7681
463.327	12.2561
465.091	12.8654
466.852	14.4115
468.613	14.3001
470.374	14.1183
472.136	14.9129
473.896	17.3805
475.655	19.2728
477.415	22.1024
479.176	25.7935
480.934	28.4095
482.692	33.1853
484.45	38.144
486.21	42.5132
487.967	46.8334
489.724	53.8599
491.481	59.9085
493.237	64.7718
494.995	70.5416
496.75	78.5002
498.506	84.41
500.26	92.2327
502.015	98.5065
503.771	103.031
505.525	109.515
507.279	114.023
509.032	117.795
510.785	122.571
512.537	124.871
514.289	127.631
516.041	129.724
517.793	131.865
519.546	133.296
521.297	133.166
523.047	131.861
524.797	131.423
526.547	128.991
528.297	126.659
530.046	123.523
531.795	119.149
533.543	116.033
535.291	110.397
537.039	105.528
538.787	98.5338
540.534	92.038
542.281	85.7899
544.027	79.772
545.773	72.589
547.519	65.7832
549.264	59.0277
551.01	52.6404
552.754	44.1675
554.499	37.9232
556.243	31.9369
557.987	26.5997
559.73	22.2115
561.474	19.3233
563.216	16.8899
564.959	16.0946
566.701	15.683
568.441	16.0303
570.182	16.3227
571.923	16.2634
573.664	16.2182
575.405	17.9173
577.145	19.7332
578.885	21.0754
580.624	23.0505
582.361	26.2659
584.1	29.8373
585.839	30.1077
587.577	32.8492
589.315	32.9582
591.052	33.1929
592.787	36.0952
594.524	37.3271
596.26	39.6495
597.997	39.8192
599.732	39.4763
601.466	39.7287
603.201	40.7719
604.936	40.9886
606.67	40.6635
608.403	41.2548
610.136	41.6121
611.87	41.4881
613.603	40.3013
615.334	39.1885
617.067	37.2017
618.799	35.2397
620.529	34.4356
622.26	32.0366
623.991	29.5201
625.72	27.172
627.451	26.0841
629.181	24.3441
630.909	22.1018
632.638	20.3289
634.368	19.1203
636.095	17.0457
637.823	14.8792
639.551	13.252
641.277	12.8491
643.005	12.7387
644.73	9.78088
646.457	9.58651
648.184	8.76021
649.908	9.05991
651.634	9.30032
653.357	8.06852
655.083	8.42599
656.806	7.67515
658.53	6.66645
660.253	7.21149
661.977	8.03374
663.7	6.64986
665.422	7.36414
667.145	6.70141
668.865	6.77358
670.588	7.17212
672.308	6.38192
674.027	7.18124
675.749	6.89252
677.468	7.84199
679.188	10.0378
680.907	11.1405
682.627	12.2887
684.345	12.489
686.064	14.215
687.781	14.682
689.498	16.2506
691.216	16.4201
692.932	17.2309
694.65	18.5875
696.366	18.6155
698.081	18.7001
699.797	19.3254
701.512	19.6342
703.228	21.5794
704.942	22.4822
706.655	23.3968
708.371	24.0974
710.083	24.9415
711.796	26.2614
713.51	26.9342
715.222	26.896
716.934	26.6279
718.645	26.8588
720.358	25.6009
722.068	24.776
723.779	24.2839
725.49	24.4953
727.2	23.9271
728.909	23.2185
730.618	22.4884
732.329	26.0407
734.037	29.1839
735.745	33.4538
737.453	39.8362
739.16	47.7985
740.869	57.6254
742.576	67.7046
744.282	79.4814
745.988	91.955
747.694	103.326
749.401	114.892
751.107	128.354
752.811	139.716
754.516	151.847
756.22	163.175
757.924	173.788
759.627	183.722
761.332	192.256
763.035	199.691
764.738	208.137
766.44	215.288
768.142	221.326
769.843	225.258
771.544	227.883
773.245	228.8
774.946	229.606
776.646	230.252
778.346	229.555
780.046	228.806
781.745	225.593
783.444	223.989
785.143	218.453
786.841	213.27
788.539	207.234
790.237	198.524
791.934	190.091
793.631	180.126
795.328	168.686
797.024	156.797
798.72	145.39
800.416	132.726
802.112	121.694
803.807	109.776
805.502	99.5763
807.196	89.3587
808.89	79.1839
810.584	70.2977
812.278	62.124
813.971	55.2192
815.664	50.5569
817.354	47.9523
819.047	44.6228
820.739	43.4195
822.43	44.098
824.122	45.0773
825.813	45.2553
827.503	46.0107
829.192	45.4694
830.882	45.1488
832.571	45.3669
834.261	45.3315
835.95	45.677
837.637	43.3057
839.325	44.1163
841.013	43.0557
842.701	42.4412
844.389	41.0319
846.074	39.5772
847.761	38.747
849.447	39.6373
851.131	38.9007
852.817	36.3083
854.503	34.0573
856.188	32.9201
857.871	31.1216
859.556	31.1979
861.24	31.4887
862.922	30.4694
864.606	29.6661
866.289	28.2119
867.97	27.4968
869.653	26.3625
871.336	25.5943
873.016	24.2506
874.698	22.4577
876.379	20.574
878.058	19.5368
879.739	19.1943
881.418	19.6507
883.098	19.1295
884.778	18.2934
886.456	19.2533
888.135	18.2812
889.812	16.9977
891.49	16.0506
893.167	15.2402
894.845	15.2433
896.523	14.805
898.198	15.2668
899.875	16.0504
901.55	14.8819
903.226	13.9664
904.901	14.6154
906.576	15.4765
908.25	16.4049
909.925	15.8881
911.598	15.8309
913.271	16.7049
914.945	18.785
916.617	19.1502
918.291	17.8247
919.962	17.8911
921.635	17.9894
923.306	19.1557
924.978	18.1756
926.648	18.8029
928.318	18.2136
929.989	17.6676
931.659	16.927
933.328	16.0609
934.998	15.7125
936.666	15.3402
938.336	15.9561
940.004	15.985
941.671	15.6857
943.34	15.7821
945.007	14.4571
946.673	14.7111
948.339	13.2686
950.007	13.7941
951.672	13.1713
953.337	12.2835
955.004	10.3947
956.669	9.06934
958.333	7.43913
959.997	6.52505
961.662	7.45985
963.326	6.60257
964.989	5.64544
966.651	5.66985
968.315	4.94855
969.977	3.91649
971.639	2.05231
973.301	1.42197
974.962	2.07904
976.624	0.639621
978.285	-0.129181
979.945	-2.04032
981.605	-2.95695
983.264	-6.08858
984.924	-7.29395
986.583	-7.32547
988.243	-5.74186
989.901	-3.90195
991.56	-1.37658
993.217	1.82698
994.875	6.21441
996.532	12.7599
998.188	17.9477
999.845	24.04
1001.5	30.4272
1003.16	39.2211
1004.81	46.803
1006.47	55.4042
1008.12	64.7763
1009.78	74.2917
1011.43	83.2356
1013.09	93.0343
1014.74	102.592
1016.39	110.773
1018.05	120.194
1019.7	128.584
1021.35	135.736
1023	142.17
1024.65	148.349
1026.31	152.691
1027.96	155.983
1029.61	160.126
1031.26	161.845
1032.91	163.735
1034.56	164.387
1036.21	162.874
1037.86	161.506
1039.51	158.655
1041.16	156.102
1042.8	152.072
1044.45	148.681
1046.1	144.402
1047.75	139.783
1049.39	135.222
1051.04	128.529
1052.69	124.034
1054.33	119.072
1055.98	116.168
1057.62	112.361
1059.27	108.006
1060.91	105.446
1062.56	103.114
1064.2	103.242
1065.85	102.469
1067.49	104.779
1069.13	105.88
1070.77	108.708
1072.42	111.328
1074.06	113.631
1075.7	116.996
1077.34	120.471
1078.98	123.529
1080.62	125.454
1082.27	128.575
1083.91	129.087
1085.55	131.901
1087.18	133.077
1088.82	135.52
1090.46	136.127
1092.1	136.618
1093.74	136.857
1095.38	136.472
1097.02	134.64
1098.65	131.321
1100.29	129.12
1101.93	125.367
1103.56	120.202
1105.2	115.086
1106.84	108.771
1108.47	101.779
1110.11	95.0647
1111.74	88.7343
1113.38	81.7065
1115.01	73.9744
1116.64	66.312
1118.28	57.1031
1119.91	49.9882
1121.54	42.42
1123.18	35.5584
1124.81	29.3287
1126.44	24.1869
1128.07	20.5262
1129.7	16.3114
1131.33	14.1265
1132.97	11.6857
1134.6	11.949
1136.23	11.8876
1137.86	12.1396
1139.49	10.513
1141.11	10.0897
1142.74	12.5771
1144.37	13.393
1146	14.365
1147.63	15.3012
1149.26	16.5256
1150.88	16.974
1152.51	17.7757
1154.14	17.7179
1155.76	17.0783
1157.39	17.7099
1159.01	17.9505
1160.64	18.4519
1162.27	19.7886
1163.89	20.491
1165.51	21.4291
1167.14	25.0054
1168.76	26.5767
1170.39	29.3911
1172.01	30.7557
1173.63	32.2821
1175.25	33.8194
1176.88	35.5392
1178.5	36.6569
1180.12	38.0057
1181.74	39.6781
1183.36	40.1855
1184.98	41.3129
1186.6	42.6234
1188.22	43.7594
1189.84	45.832
1191.46	48.1305
1193.08	48.5951
1194.7	49.4885
1196.32	49.8665
1197.94	49.3917
1199.55	49.7588
1201.17	49.3092
1202.79	48.4387
1204.41	47.4202
1206.02	46.4424
1207.64	46.2016
1209.25	47.3787
1210.87	47.2148
1212.48	47.0261
1214.1	46.7691
1215.71	46.6587
1217.33	46.8199
1218.94	46.061
1220.56	46.6024
1222.17	47.714
1223.79	48.7079
1225.4	48.7488
1227.01	48.9331
1228.62	50.1249
1230.23	48.8227
1231.85	48.1646
1233.46	47.3002
1235.07	46.1021
1236.68	46.6159
1238.29	47.6095
1239.9	49.305
1241.51	48.8776
1243.12	49.4887
1244.73	49.4955
1246.34	51.3564
1247.94	52.1633
1249.55	51.7479
1251.16	51.2628
1252.77	51.0019
1254.37	50.4007
1255.98	51.2883
1257.59	51.5653
1259.2	52.7576
1260.8	55.1165
1262.41	55.9194
1264.01	56.8533
1265.62	58.7998
1267.22	60.9756
1268.83	62.0879
1270.43	62.9418
1272.03	63.9152
1273.64	63.4691
1275.24	64.475
1276.85	65.2193
1278.45	65.8074
1280.05	67.5997
1281.65	68.1963
1283.25	67.9857
1284.85	69.2714
1286.46	71.3424
1288.06	73.1855
1289.66	74.7869
1291.26	74.7024
1292.86	74.9289
1294.46	75.6698
1296.06	74.8751
1297.66	75.5589
1299.25	75.2447
1300.85	76.504
1302.45	75.7219
1304.05	77.0758
1305.65	77.4282
1307.24	76.9768
1308.84	76.3532
1310.43	76.6731
1312.03	76.792
1313.63	76.6764
1315.22	76.7048
1316.82	77.1301
1318.41	76.839
1320.01	76.9579
1321.6	74.4727
1323.2	74.3237
1324.79	72.4884
1326.38	72.1128
1327.98	70.7787
1329.57	70.0837
1331.16	69.5277
1332.76	69.0397
1334.35	68.3533
1335.94	68.8181
1337.53	68.3426
1339.12	68.6731
1340.71	67.8934
1342.3	66.8334
1343.89	67.5038
1345.48	66.9939
1347.07	65.8768
1348.66	65.4118
1350.25	64.8628
1351.84	64.7266
1353.43	63.9336
1355.01	63.9636
1356.6	63.219
1358.19	63.6526
1359.77	62.4376
1361.36	60.9627
1362.95	60.1935
1364.53	59.5147
1366.12	58.4129
1367.71	56.4829
1369.29	55.5065
1370.88	53.5687
1372.46	52.7774
1374.04	51.8585
1375.63	51.0797
1377.21	50.8955
1378.8	50.7343
1380.38	50.3478
1381.96	48.701
1383.54	48.4039
1385.13	47.0325
1386.71	45.5865
1388.29	45.0998
1389.87	44.7689
1391.45	42.0098
1393.03	41.2939
1394.61	41.2298
1396.19	40.1396
1397.77	39.3635
1399.35	39.2504
1400.93	40.6648
1402.51	42.9422
1404.09	43.8195
1405.67	46.7495
1407.24	49.5798
1408.82	51.7972
1410.4	54.4307
1411.98	56.4606
1413.55	59.6941
1415.13	62.7454
1416.71	66.5946
1418.28	71.1647
1419.86	76.6984
1421.43	81.4835
1423.01	85.702
1424.58	88.7421
1426.16	93.9333
1427.73	98.6059
1429.31	102.084
1430.88	107.207
1432.45	110.827
1434.02	113.904
1435.6	116.461
1437.17	120.537
1438.74	122.037
1440.31	125.017
1441.88	126.094
1443.45	126.132
1445.03	127.67
1446.6	128.259
1448.17	130.053
1449.74	130.558
1451.3	129.751
1452.87	129.457
1454.44	127.735
1456.01	126.373
1457.58	125.976
1459.15	124.846
1460.72	123.311
1462.28	122.858
1463.85	121.969
1465.42	119.412
1466.98	118.447
1468.55	116.956
1470.12	115.067
1471.68	114.099
1473.25	112.372
1474.81	109.806
1476.38	108.617
1477.94	107.951
1479.51	106.376
1481.07	102.338
1482.63	100.209
1484.2	98.3167
1485.76	95.691
1487.32	93.8444
1488.88	92.0726
1490.45	89.0842
1492.01	86.4146
1493.57	83.8365
1495.13	82.5339
1496.69	80.4192
1498.25	79.0755
1499.81	75.7451
1501.37	73.3116
1502.93	71.1124
1504.49	69.1866
1506.05	65.6882
1507.61	62.3532
1509.17	59.611
1510.73	56.2118
1512.28	53.129
1513.84	49.7347
1515.4	47.696
1516.96	44.2516
1518.51	42.1583
1520.07	39.4718
1521.63	38.0354
1523.18	37.3169
1524.74	35.8809
1526.29	35.5213
1527.85	33.8006
1529.4	32.8734
1530.96	32.8059
1532.51	33.5593
1534.06	34.7602
1535.62	35.6295
1537.17	36.4523
1538.72	36.6243
1540.28	37.432
1541.83	38.0274
1543.38	38.3329
1544.93	39.9304
1546.48	41.1601
1548.03	41.7442
1549.59	42.3441
1551.14	42.7172
1552.69	42.6051
1554.24	43.8912
1555.79	43.8557
1557.34	43.9271
1558.88	45.169
1560.43	47.4168
1561.98	47.1647
1563.53	49.3289
1565.08	51.0181
1566.62	51.6324
1568.17	52.7914
1569.72	54.607
1571.27	57.4506
1572.81	60.3161
1574.36	61.8747
1575.9	64.0542
1577.45	65.7931
1579	69.106
1580.54	70.4927
1582.09	72.0898
1583.63	72.7396
1585.17	73.3886
1586.72	75.9456
1588.26	77.1327
1589.8	78.0315
1591.35	78.5452
1592.89	80.5741
1594.43	80.2456
1595.97	80.8822
1597.52	81.5278
1599.06	81.7805
1600.6	82.1814
1602.14	81.5988
1603.68	82.0821
1605.22	81.0471
1606.76	81.5299
1608.3	81.2407
1609.84	81.8879
1611.38	80.332
1612.92	80.0479
1614.46	79.4669
1615.99	78.6428
1617.53	78.9787
1619.07	80.0176
1620.61	79.9375
1622.14	80.1784
1623.68	80.937
1625.22	81.1732
1626.75	80.7437
1628.29	80.6297
1629.82	81.3454
1631.36	83.1159
1632.9	83.7103
1634.43	85.956
1635.96	87.8746
1637.5	90.5801
1639.03	92.3783
1640.57	95.5343
1642.1	96.6688
1643.63	98.7343
1645.16	100.708
1646.7	103.219
1648.23	103.744
1649.76	104.936
1651.29	106.086
1652.82	107.727
1654.36	109.597
1655.89	109.446
1657.42	108.515
1658.95	107.713
1660.48	107.415
1662.01	106.222
1663.53	105.735
1665.06	104.177
1666.59	102.421
1668.12	100.05
1669.65	97.6392
1671.18	94.5216
1672.7	92.474
1674.23	90.3911
1675.76	87.1408
1677.29	83.0642
1678.81	79.8888
1680.34	76.0131
1681.86	72.1569
1683.39	70.2569
1684.91	65.9822
1686.44	62.037
1687.96	58.4331
1689.49	54.7763
1691.01	50.8179
1692.54	48.069
1694.06	45.3169
1695.58	42.2
1697.11	38.2802
1698.63	35.425
1700.15	32.4763
1701.67	29.5852
1703.2	26.7454
1704.72	24.2428
1706.24	23.3223
1707.76	21.5142
1709.28	19.6143
1710.8	18.117
1712.32	16.6105
1713.84	15.3102
1715.36	13.1544
1716.88	11.8766
1718.4	11.15
1719.91	9.99002
1721.43	8.79729
1722.95	8.47852
1724.47	6.99253
1725.99	7.5976
1727.5	8.21986
1729.02	7.96774
1730.54	7.76684
1732.05	7.55821
1733.57	8.21682
1735.09	8.82505
1736.6	9.3452
1738.12	9.09397
1739.63	10.03
1741.15	9.8846
1742.66	8.84221
1744.18	8.63037
1745.69	8.73804
1747.2	9.053
1748.72	9.26925
1750.23	9.08757
1751.74	8.32097
1753.25	7.97258
1754.77	8.53556
1756.28	8.22223
1757.79	9.00407
1759.3	8.49513
1760.81	7.24441
1762.32	6.42236
1763.83	5.99947
1765.34	5.08465
1766.85	4.81368
1768.36	4.53897
1769.87	3.70435
1771.38	3.21806
1772.89	2.69943
1774.4	2.93318
1775.91	2.48211
1777.41	2.91876
1778.92	2.33716
1780.43	2.3688
1781.94	2.08917
1783.44	1.14154
1784.95	1.08342
1786.45	0.820973
1787.96	0.968858
1789.47	0.827815
1790.97	1.34216
1792.48	1.6573
1793.98	1.51968
1795.48	0.899562
1796.99	1.28486
1798.49	2.16897
1800	2.41323
1801.5	2.83269
1803	3.61795
1804.51	3.57251
1806.01	4.42752
1807.51	5.98266
1809.01	6.3906
1810.51	7.158
1812.02	6.54834
1813.52	7.05162
1815.02	6.90684
1816.52	6.32399
1818.02	6.55292
1819.52	6.8983
1821.02	7.90195
1822.52	8.16086
1824.02	8.2904
1825.51	8.43001
1827.01	8.81455
1828.51	9.22944
1830.01	9.76566
1831.51	9.63449
1833	9.41292
1834.5	9.02468
1836	10.0023
1837.5	10.0558
1838.99	10.6313
1840.49	11.0867
1841.98	11.1037
1843.48	11.5209
1844.97	11.6919
1846.47	11.8561
1847.96	11.5641
1849.46	11.2905
1850.95	10.8619
1852.45	11.0236
1853.94	11.2689
1855.43	10.4094
1856.92	9.41596
1858.42	8.93243
1859.91	9.2453
1861.4	8.54565
1862.89	8.56379
1864.39	8.01135
1865.88	8.64807
1867.37	8.94898
1868.86	8.58189
1870.35	9.07812
1871.84	9.61837
1873.33	9.21549
1874.82	8.59857
1876.31	8.27763
1877.8	8.08566
1879.29	7.17701
1880.77	7.32526
1882.26	7.08325
1882.51	6.87189
1884	6.35249
1885.5	5.68323
1886.99	6.05722
1888.48	6.67105
1889.98	6.09293
1891.47	5.91096
1892.97	5.39087
1894.46	5.42188
1895.95	4.78591
1897.44	4.93841
1898.93	4.47425
1900.42	4.13279
1901.92	4.23663
1903.41	4.58927
1904.9	3.79455
1906.39	3.63261
1907.88	3.28263
1909.37	3.89779
1910.86	3.79328
1912.35	4.22215
1913.84	3.82187
1915.32	3.87775
1916.81	3.50464
1918.3	3.6845
1919.79	3.42634
1921.28	2.33834
1922.76	1.73081
1924.25	2.33377
1925.74	2.8325
1927.22	3.17195
1928.71	2.40173
1930.2	2.85936
1931.68	3.72283
1933.17	3.42427
1934.65	2.61943
1936.14	3.19091
1937.62	3.15377
1939.11	3.68496
1940.59	2.59216
1942.08	2.36132
1943.56	2.66098
1945.04	2.83532
1946.53	3.30785
1948.01	3.43826
1949.49	2.68566
1950.97	2.20462
1952.45	2.45256
1953.94	2.82427
1955.42	3.1575
1956.9	3.63991
1958.38	3.469
1959.86	4.23365
1961.34	4.66017
1962.82	4.84084
1964.3	3.7501
1965.78	4.67289
1967.26	3.59482
1968.74	3.89243
1970.22	4.02742
1971.69	4.43158
1973.17	3.8555
1974.65	4.30739
1976.13	4.58309
1977.61	5.15733
1979.08	4.78231
1980.56	5.55082
1982.03	6.33124
1983.51	8.02031
1984.99	8.00908
1986.46	7.31535
1987.94	6.84739
1989.41	6.65803
1990.89	6.23384
1992.36	6.00517
1993.84	5.02857
1995.31	5.32295
1996.78	5.68759
1998.26	6.56783
1999.73	6.55809
2001.2	6.48327
2002.68	6.46618
2004.15	6.70532
2005.62	6.32056
2007.09	5.22341
2008.56	6.43515
2010.04	6.15195
2011.51	6.59243
2012.98	6.0957
2014.45	6.07996
2015.92	7.11036
2017.39	7.27133
2018.86	6.69775
2020.33	6.31782
2021.8	5.31647
2023.27	4.23964
2024.74	5.4319
2026.2	5.96492
2027.67	5.62892
2029.14	6.51946
2030.61	6.93986
2032.07	7.39686
2033.54	7.79116
2035.01	8.34729
2036.47	8.69291
2037.94	8.89692
2039.41	9.12166
2040.87	8.85627
2042.34	10.3652
2043.8	11.2269
2045.27	11.0881
2046.73	11.1736
2048.2	12.0088
2049.66	12.944
2051.12	13.5532
2052.59	13.9943
2054.05	14.6641
2055.51	15.1891
2056.98	15.9884
2058.44	15.3089
2059.9	15.0708
2061.36	15.8024
2062.82	16.095
2064.29	17.333
2065.75	17.8869
2067.21	19.2342
2068.67	20.4035
2070.13	20.9059
2071.59	21.5527
2073.05	21.7663
2074.51	22.9421
2075.97	24.3414
2077.43	24.8025
2078.88	25.6229
2080.34	26.6972
2081.8	27.825
2083.26	28.5926
2084.72	30.4014
2086.17	31.1133
2087.63	32.9266
2089.09	33.9512
2090.54	35.5222
2092	37.3204
2093.46	39.9801
2094.91	41.8188
2096.37	42.8555
2097.82	45.439
2099.28	46.5898
2100.73	47.8404
2102.19	49.7123
2103.64	51.2928
2105.09	53.3377
2106.55	55.4343
2108	57.8149
2109.46	59.502
2110.91	60.8975
2112.36	62.3898
2113.81	65.1906
2115.27	67.6899
2116.72	69.9769
2118.17	72.087
2119.62	75.1518
2121.07	77.2341
2122.52	79.5974
2123.97	81.4124
2125.42	83.6554
2126.87	85.9868
2128.32	88.547
2129.77	91.8892
2131.22	92.3499
2132.67	95.6895
2134.12	98.3366
