#Acq. time (s)=	45
#Accumulations=	2
#Range (cm-¹)=	200...3150
#Windows=	2
#Auto scanning=	Off
#Autofocus=	Off
#Macrospot=	Off
#AutoExposure=	Off
#Spike filter=	Multiple accum.
#Delay time (s)=	0
#Binning=	1
#Readout mode=	Signal
#DeNoise=	Off
#ICS correction=	On
#Dark correction=	Off
#Inst. Process=	Off
#Detector Gain=	Best Dynamic Range
#Detector ADC=	20 kHz       
#Detector temperature (°C)=	-69.85
#Instrument=	LabRAM HR Evol
#Detector=	Synapse
#Objective=	x100
#Grating=	600 gr/mm
#ND Filter=	100%
#Laser (nm)=	532 
#Hole=	100.021
#Range=	Auto
#Laser Pol.=	No
#Raman. Pol.=	No
#Laser Pol. (°)=	-0.0007625
#Raman Pol. (°)=	89.9995
#Collection=	Microscope
#StageXY=	Marzhauser
#StageZ=	Marzhauser
#X (µm)=	19311.3
#Y (µm)=	3091.4
#Z (µm)=	1046.85
#Full time(mm:ss)=	3:19
#Project=	
#Sample=	
#Site=	
#Title=	Mb_50_18_15_2x_45s_532 nm_x100_100%_600 gr_mm
#Remark=	
#Date=	12.07.2022 11:21
#Acquired=	12.07.2022 11:21:01
#Base:Fit=	10.08.2022 10:49:18
#Base:Sub=	10.08.2022 10:49:30
#Filter:Polynom=	16.08.2022 10:14:59
#AxisType[0]=Intens
#AxisUnit[0]=Cnt
#AxisType[1]=Spectr
#AxisUnit[1]=1/cm
200.388	29.4114
202.204	26.9976
204.019	24.962
205.832	22.8755
207.646	20.7316
209.459	18.9081
211.274	17.1539
213.087	16.1693
214.899	15.6142
216.711	15.2857
218.524	13.8357
220.335	13.097
222.146	11.8738
223.956	10.9794
225.766	10.6417
227.576	8.7765
229.388	8.83217
231.197	8.36006
233.005	7.96647
234.813	6.82526
236.621	5.76614
238.429	4.88736
240.236	5.33565
242.045	5.77647
243.852	6.30078
245.658	5.69427
247.464	5.60234
249.269	5.23327
251.074	4.88723
252.879	3.87394
254.683	4.04659
256.487	3.40028
258.291	3.6015
260.094	3.64737
261.897	4.71804
263.702	4.67264
265.504	4.83119
267.306	4.85147
269.108	5.32375
270.909	5.3762
272.71	4.98083
274.511	5.55221
276.311	6.11884
278.111	6.00023
279.91	6.36527
281.709	6.27014
283.508	7.05133
285.306	7.78865
287.105	6.7923
288.9	7.68407
290.698	8.18958
292.495	8.83068
294.291	9.65991
296.088	10.2259
297.884	11.5562
299.679	11.9489
301.475	13.8238
303.27	15.5395
305.064	16.4939
306.858	17.1146
308.652	17.6169
310.444	18.5916
312.237	18.7066
314.03	19.5688
315.822	19.8079
317.615	19.7739
319.406	21.1055
321.198	20.7441
322.987	21.6507
324.778	22.6937
326.568	22.6861
328.358	23.7816
330.148	24.9596
331.935	24.2902
333.724	23.0947
335.513	21.4332
337.301	21.1838
339.089	19.4759
340.875	18.2832
342.662	17.704
344.449	16.6744
346.236	16.7582
348.02	16.8513
349.806	17.4695
351.592	18.233
353.375	17.9102
355.16	19.2077
356.944	19.6445
358.728	19.5471
360.51	20.1718
362.294	20.891
364.077	22.4693
365.858	24.7189
367.64	24.2295
369.422	24.3554
371.202	24.8547
372.983	25.7272
374.764	25.8577
376.543	26.8643
378.324	27.8258
380.102	28.5213
381.881	29.008
383.661	29.2947
385.438	28.9221
387.216	29.7265
388.993	30.314
390.771	30.7353
392.548	30.8862
394.324	29.8694
396.101	29.8383
397.875	29.9039
399.651	28.4813
401.425	28.3478
403.201	26.7546
404.974	25.4483
406.749	24.794
408.524	23.9508
410.296	22.3704
412.07	20.7214
413.841	18.8178
415.614	16.2831
417.385	15.4095
419.156	13.856
420.928	11.4663
422.698	10.1718
424.469	7.52309
426.238	5.80323
428.009	4.04292
429.777	3.75482
431.548	2.52176
433.315	2.05492
435.083	1.71772
436.852	1.47835
438.618	2.60242
440.387	3.50238
442.153	3.76048
443.919	3.31741
445.686	2.94263
447.451	2.40036
449.218	2.7652
450.982	3.20703
452.746	3.61057
454.512	4.09379
456.275	3.70507
458.038	4.87227
459.803	6.22968
461.565	6.68662
463.327	6.68896
465.091	7.5962
466.852	8.61682
468.613	8.70804
470.374	10.0135
472.136	10.8656
473.896	11.7824
475.655	13.9183
477.415	14.8229
479.176	16.0021
480.934	17.4901
482.692	18.2223
484.45	19.4691
486.21	21.4544
487.967	23.0199
489.724	25.1853
491.481	26.2742
493.237	28.8787
494.995	30.8221
496.75	32.2858
498.506	33.8618
500.26	36.1559
502.015	38.6341
503.771	40.3687
505.525	41.7983
507.279	41.5413
509.032	40.796
510.785	40.471
512.537	39.1583
514.289	39.8975
516.041	40.4413
517.793	40.2052
519.546	39.606
521.297	40.3034
523.047	39.7426
524.797	40.0016
526.547	40.227
528.297	39.7551
530.046	38.1052
531.795	36.2
533.543	35.6867
535.291	34.0914
537.039	32.4228
538.787	31.367
540.534	29.4653
542.281	28.3407
544.027	26.2244
545.773	23.9394
547.519	22.3008
549.264	20.562
551.01	18.7511
552.754	18.3824
554.499	16.9301
556.243	15.6532
557.987	14.6837
559.73	12.4527
561.474	11.2001
563.216	11.0527
564.959	10.884
566.701	11.1119
568.441	10.2587
570.182	10.1123
571.923	10.2908
573.664	11.9338
575.405	11.0293
577.145	10.183
578.885	9.91736
580.624	10.4906
582.361	10.3565
584.1	10.1897
585.839	9.97704
587.577	9.04858
589.315	7.54597
591.052	6.9411
592.787	5.56555
594.524	4.03456
596.26	3.79813
597.997	3.58622
599.732	3.33543
601.466	3.89095
603.201	4.30972
604.936	4.40681
606.67	3.9962
608.403	4.8033
610.136	5.40668
611.87	6.27683
613.603	5.81375
615.334	5.458
617.067	4.39315
618.799	4.58172
620.529	3.9193
622.26	2.99271
623.991	4.08793
625.72	4.36433
627.451	4.74422
629.181	5.27758
630.909	5.09025
632.638	6.03105
634.368	7.07142
636.095	7.59227
637.823	7.5514
639.551	8.93814
641.277	9.19584
643.005	8.57102
644.73	8.51365
646.457	10.406
648.184	11.5679
649.908	12.7713
651.634	13.43
653.357	13.2975
655.083	14.2975
656.806	15.0294
658.53	15.1071
660.253	15.2163
661.977	15.0714
663.7	16.2535
665.422	16.8757
667.145	17.9087
668.865	17.5187
670.588	16.6556
672.308	16.2133
674.027	16.7484
675.749	17.5402
677.468	18.2105
679.188	18.5711
680.907	19.3528
682.627	19.3556
684.345	19.9692
686.064	20.5615
687.781	21.3102
689.498	22.0107
691.216	22.2908
692.932	23.3241
694.65	24.7858
696.366	25.4705
698.081	25.6716
699.797	24.5887
701.512	25.0511
703.228	25.7072
704.942	27.5219
706.655	28.6544
708.371	30.7314
710.083	32.834
711.796	33.4815
713.51	34.4373
715.222	35.858
716.934	37.7586
718.645	39.3906
720.358	39.6071
722.068	39.9763
723.779	41.044
725.49	42.0218
727.2	43.569
728.909	44.7121
730.618	47.3923
732.329	49.5027
734.037	50.1726
735.745	52.6208
737.453	54.9008
739.16	57.3885
740.869	60.5619
742.576	62.1126
744.282	65.0115
745.988	68.5499
747.694	71.8454
749.401	75.2826
751.107	77.4731
752.811	80.894
754.516	82.7346
756.22	84.917
757.924	88.5247
759.627	91.8801
761.332	94.2865
763.035	96.8701
764.738	98.6367
766.44	100.287
768.142	102.907
769.843	104.701
771.544	105.821
773.245	107.111
774.946	108.161
776.646	108.986
778.346	108.99
780.046	108.531
781.745	107.794
783.444	107.639
785.143	106.625
786.841	106.856
788.539	107.765
790.237	107.948
791.934	106.541
793.631	104.88
795.328	103.783
797.024	101.781
798.72	100.426
800.416	98.8676
802.112	95.5566
803.807	92.3749
805.502	90.2527
807.196	88.732
808.89	87.2199
810.584	85.4556
812.278	83.8161
813.971	81.9646
815.664	81.1684
817.354	80.9538
819.047	80.5983
820.739	80.0997
822.43	80.3402
824.122	79.3869
825.813	78.8225
827.503	77.8425
829.192	77.4835
830.882	77.5684
832.571	75.9803
834.261	75.6713
835.95	74.1428
837.637	74.0846
839.325	72.0414
841.013	72.082
842.701	72.3849
844.389	71.5845
846.074	70.598
847.761	69.2662
849.447	67.3773
851.131	67.1179
852.817	66.9961
854.503	65.3759
856.188	64.3557
857.871	64.7723
859.556	63.8791
861.24	63.1052
862.922	62.7222
864.606	63.0639
866.289	63.0109
867.97	63.2948
869.653	62.1298
871.336	62.9938
873.016	62.6628
874.698	62.1544
876.379	60.3409
878.058	60.6997
879.739	60.4797
881.418	59.4965
883.098	59.2815
884.778	58.4038
886.456	58.4683
888.135	59.0413
889.812	59.3339
891.49	60.2301
893.167	60.939
894.845	60.6366
896.523	60.5252
898.198	60.9459
899.875	60.6952
901.55	59.7046
903.226	59.8171
904.901	60.0037
906.576	59.4946
908.25	58.0045
909.925	57.8624
911.598	57.6415
913.271	56.488
914.945	55.2972
916.617	53.7315
918.291	53.1001
919.962	51.5293
921.635	50.9939
923.306	49.8394
924.978	49.7188
926.648	48.7427
928.318	47.2787
929.989	46.81
931.659	46.0238
933.328	46.1829
934.998	46.4127
936.666	45.7417
938.336	44.7085
940.004	43.6585
941.671	43.5771
943.34	42.5513
945.007	42.6279
946.673	42.3532
948.339	42.0986
950.007	42.0861
951.672	40.9936
953.337	40.8552
955.004	40.7991
956.669	38.8262
958.333	38.5067
959.997	37.0422
961.662	38.3808
963.326	36.8926
964.989	37.3983
966.651	37.449
968.315	37.5813
969.977	37.3853
971.639	37.2555
973.301	37.3224
974.962	38.2534
976.624	38.9758
978.285	39.2889
979.945	40.0918
981.605	40.5167
983.264	41.1781
984.924	41.9212
986.583	42.8772
988.243	42.1235
989.901	41.3103
991.56	42.0979
993.217	42.722
994.875	43.1969
996.532	44.6188
998.188	46.2465
999.845	49.5041
1001.5	51.8087
1003.16	54.6195
1004.81	57.0803
1006.47	58.5562
1008.12	60.5312
1009.78	62.1942
1011.43	64.0086
1013.09	65.0178
1014.74	66.088
1016.39	67.0887
1018.05	67.6071
1019.7	67.8439
1021.35	69.0594
1023	70.2321
1024.65	72.3493
1026.31	73.4949
1027.96	73.9389
1029.61	74.1663
1031.26	73.8339
1032.91	73.0898
1034.56	71.3119
1036.21	70.3705
1037.86	68.8557
1039.51	67.7979
1041.16	67.1775
1042.8	65.3084
1044.45	64.1276
1046.1	63.1398
1047.75	62.4172
1049.39	60.426
1051.04	59.4948
1052.69	58.0066
1054.33	57.1865
1055.98	55.838
1057.62	55.5076
1059.27	54.672
1060.91	52.3412
1062.56	50.5566
1064.2	49.2271
1065.85	48.0439
1067.49	46.7236
1069.13	45.6329
1070.77	45.353
1072.42	44.7797
1074.06	45.8591
1075.7	46.8128
1077.34	47.2976
1078.98	48.5894
1080.62	48.5531
1082.27	49.012
1083.91	48.0893
1085.55	48.1651
1087.18	47.4624
1088.82	46.9115
1090.46	47.3926
1092.1	46.685
1093.74	47.2102
1095.38	46.3248
1097.02	46.5985
1098.65	45.5785
1100.29	45.27
1101.93	45.4171
1103.56	45.4889
1105.2	45.308
1106.84	44.365
1108.47	42.9282
1110.11	42.2565
1111.74	41.7064
1113.38	40.2224
1115.01	39.0787
1116.64	37.3544
1118.28	36.16
1119.91	35.0022
1121.54	33.8525
1123.18	31.9332
1124.81	29.9876
1126.44	28.6852
1128.07	27.2977
1129.7	25.2821
1131.33	23.6261
1132.97	21.9955
1134.6	21.3027
1136.23	20.5443
1137.86	19.6548
1139.49	18.8014
1141.11	17.3446
1142.74	15.9358
1144.37	15.9429
1146	14.5738
1147.63	12.917
1149.26	12.4108
1150.88	11.7731
1152.51	11.2504
1154.14	10.7281
1155.76	11.4898
1157.39	10.8642
1159.01	10.15
1160.64	10.7385
1162.27	9.98526
1163.89	10.765
1165.51	11.7259
1167.14	13.1685
1168.76	13.604
1170.39	14.4698
1172.01	16.4098
1173.63	16.7116
1175.25	17.6885
1176.88	17.7245
1178.5	18.6422
1180.12	18.8293
1181.74	19.9819
1183.36	20.5283
1184.98	20.4597
1186.6	21.543
1188.22	22.0154
1189.84	23.6611
1191.46	24.3435
1193.08	24.5129
1194.7	23.9819
1196.32	22.6737
1197.94	22.3586
1199.55	22.5471
1201.17	22.946
1202.79	22.0412
1204.41	21.6523
1206.02	20.9731
1207.64	21.6987
1209.25	21.7556
1210.87	23.2097
1212.48	22.0084
1214.1	22.4965
1215.71	23.4243
1217.33	22.8429
1218.94	23.0183
1220.56	23.6329
1222.17	23.6958
1223.79	23.6651
1225.4	24.8691
1227.01	23.995
1228.62	25.6624
1230.23	27.6252
1231.85	27.7367
1233.46	28.4152
1235.07	29.6946
1236.68	31.2707
1238.29	33.3284
1239.9	34.9148
1241.51	36.5662
1243.12	37.0653
1244.73	38.8364
1246.34	40.1691
1247.94	41.9185
1249.55	43.0474
1251.16	44.446
1252.77	45.2854
1254.37	44.3742
1255.98	45.4225
1257.59	45.4432
1259.2	46.0543
1260.8	47.4125
1262.41	48.625
1264.01	49.4232
1265.62	50.7249
1267.22	51.8454
1268.83	52.3342
1270.43	54.231
1272.03	54.7625
1273.64	55.9771
1275.24	55.4872
1276.85	56.473
1278.45	58.7761
1280.05	59.6177
1281.65	60.4388
1283.25	60.3908
1284.85	61.8709
1286.46	62.7491
1288.06	63.6527
1289.66	63.1344
1291.26	64.2966
1292.86	63.3265
1294.46	64.4854
1296.06	65.1894
1297.66	66.0754
1299.25	66.7283
1300.85	66.7748
1302.45	66.8885
1304.05	67.6937
1305.65	68.02
1307.24	66.9346
1308.84	68.4876
1310.43	68.2812
1312.03	67.3692
1313.63	67.9711
1315.22	68.1103
1316.82	68.0105
1318.41	66.9978
1320.01	66.7763
1321.6	65.7738
1323.2	64.4039
1324.79	63.8513
1326.38	62.2646
1327.98	60.9798
1329.57	59.5367
1331.16	57.939
1332.76	56.2841
1334.35	55.7992
1335.94	55.1077
1337.53	53.8469
1339.12	53.4638
1340.71	52.7552
1342.3	51.5697
1343.89	49.7312
1345.48	49.1144
1347.07	48.4576
1348.66	48.6111
1350.25	47.876
1351.84	46.5846
1353.43	46.2211
1355.01	45.219
1356.6	45.4236
1358.19	44.0281
1359.77	43.3314
1361.36	42.8473
1362.95	42.0783
1364.53	41.9313
1366.12	40.2513
1367.71	38.7615
1369.29	37.9994
1370.88	37.2084
1372.46	35.4729
1374.04	34.3472
1375.63	33.6576
1377.21	32.6528
1378.8	31.6514
1380.38	29.9641
1381.96	29.5456
1383.54	28.5987
1385.13	27.1759
1386.71	27.2383
1388.29	27.0422
1389.87	25.1259
1391.45	25.0981
1393.03	24.5926
1394.61	23.2589
1396.19	21.8755
1397.77	21.3734
1399.35	21.7834
1400.93	21.1008
1402.51	21.2405
1404.09	21.6675
1405.67	22.2044
1407.24	24.0101
1408.82	25.5722
1410.4	27.593
1411.98	29.6085
1413.55	31.4354
1415.13	32.5159
1416.71	34.3638
1418.28	37.4223
1419.86	39.5817
1421.43	41.8879
1423.01	44.3572
1424.58	47.8818
1426.16	51.1137
1427.73	54.4608
1429.31	56.3413
1430.88	60.0037
1432.45	62.5072
1434.02	64.5851
1435.6	65.8988
1437.17	68.6536
1438.74	71.1436
1440.31	71.7172
1441.88	72.9313
1443.45	72.9582
1445.03	72.9348
1446.6	73.7756
1448.17	74.2791
1449.74	74.1467
1451.3	74.1196
1452.87	73.2865
1454.44	72.8346
1456.01	72.1324
1457.58	71.0917
1459.15	70.0556
1460.72	69.3311
1462.28	68.269
1463.85	66.5003
1465.42	65.8778
1466.98	63.8207
1468.55	62.7155
1470.12	61.5029
1471.68	58.552
1473.25	56.8692
1474.81	54.9609
1476.38	53.8663
1477.94	52.3347
1479.51	50.4376
1481.07	48.2884
1482.63	47.3585
1484.2	46.4
1485.76	45.1292
1487.32	43.1201
1488.88	41.5438
1490.45	38.8425
1492.01	36.7631
1493.57	35.7722
1495.13	34.772
1496.69	34.4862
1498.25	33.0524
1499.81	32.4611
1501.37	31.6769
1502.93	31.231
1504.49	30.1994
1506.05	29.0096
1507.61	28.044
1509.17	27.3616
1510.73	26.0276
1512.28	25.0406
1513.84	23.9429
1515.4	23.0141
1516.96	21.5397
1518.51	20.8564
1520.07	20.3579
1521.63	20.2104
1523.18	20.7073
1524.74	20.243
1526.29	19.8852
1527.85	19.6753
1529.4	19.4232
1530.96	19.2135
1532.51	19.7449
1534.06	20.0561
1535.62	20.3613
1537.17	20.1629
1538.72	21.0502
1540.28	22.5119
1541.83	23.1327
1543.38	24.8431
1544.93	23.8717
1546.48	24.7305
1548.03	23.7844
1549.59	23.8932
1551.14	23.8074
1552.69	23.3087
1554.24	23.5498
1555.79	24.0686
1557.34	24.4918
1558.88	25.3859
1560.43	25.694
1561.98	25.3729
1563.53	24.2976
1565.08	24.7386
1566.62	26.2011
1568.17	26.0053
1569.72	27.403
1571.27	28.9393
1572.81	29.1429
1574.36	30.3273
1575.9	31.5484
1577.45	32.0712
1579	33.0227
1580.54	34.3251
1582.09	34.7934
1583.63	36.1732
1585.17	36.4116
1586.72	37.1283
1588.26	38.1209
1589.8	38.4162
1591.35	39.5689
1592.89	39.8848
1594.43	41.5757
1595.97	42.6047
1597.52	43.2068
1599.06	44.0933
1600.6	44.3305
1602.14	44.6631
1603.68	45.6962
1605.22	45.3617
1606.76	45.14
1608.3	45.5765
1609.84	45.3127
1611.38	45.548
1612.92	45.7738
1614.46	45.5615
1615.99	47.1464
1617.53	46.6838
1619.07	46.3905
1620.61	46.3579
1622.14	44.9897
1623.68	45.7319
1625.22	45.2456
1626.75	45.9929
1628.29	46.1885
1629.82	46.6571
1631.36	47.6758
1632.9	48.7129
1634.43	49.4718
1635.96	49.6333
1637.5	50.1803
1639.03	51.3242
1640.57	52.1644
1642.1	53.4889
1643.63	53.5514
1645.16	54.1329
1646.7	55.427
1648.23	56.1017
1649.76	56.693
1651.29	58.0937
1652.82	58.3121
1654.36	58.3858
1655.89	57.9953
1657.42	57.8616
1658.95	56.8371
1660.48	55.8125
1662.01	55.4264
1663.53	56.1866
1665.06	55.5083
1666.59	54.2489
1668.12	53.1385
1669.65	51.116
1671.18	50.7928
1672.7	49.5011
1674.23	47.5582
1675.76	45.8307
1677.29	44.6272
1678.81	42.6462
1680.34	40.1283
1681.86	37.4591
1683.39	35.4704
1684.91	33.5419
1686.44	31.2837
1687.96	29.2882
1689.49	27.3268
1691.01	25.3571
1692.54	24.2593
1694.06	22.3577
1695.58	20.7157
1697.11	19.259
1698.63	18.7308
1700.15	18.493
1701.67	17.4154
1703.2	16.0188
1704.72	15.0049
1706.24	14.4608
1707.76	14.1906
1709.28	13.4675
1710.8	12.3172
1712.32	11.6997
1713.84	11.7638
1715.36	11.1427
1716.88	10.6901
1718.4	9.90245
1719.91	9.2784
1721.43	9.16642
1722.95	8.66027
1724.47	8.30367
1725.99	8.28289
1727.5	8.07695
1729.02	7.23297
1730.54	6.76328
1732.05	6.0787
1733.57	6.39873
1735.09	5.4295
1736.6	5.78607
1738.12	6.49357
1739.63	6.0281
1741.15	5.86215
1742.66	5.63479
1744.18	5.53758
1745.69	5.73294
1747.2	5.80512
1748.72	5.2883
1750.23	4.87659
1751.74	4.97454
1753.25	4.8545
1754.77	3.83284
1756.28	3.01404
1757.79	2.64411
1759.3	1.76531
1760.81	2.16951
1762.32	2.4491
1763.83	2.13935
1765.34	2.35289
1766.85	1.90729
1768.36	2.18521
1769.87	2.04935
1771.38	1.94311
1772.89	2.09544
1774.4	2.47059
1775.91	1.70435
1777.41	0.97946
1778.92	1.05207
1780.43	1.59004
1781.94	1.66785
1783.44	1.70734
1784.95	2.04531
1786.45	1.6862
1787.96	1.99227
1789.47	1.53724
1790.97	1.14366
1792.48	1.12764
1793.98	0.820246
1795.48	0.912882
1796.99	0.724689
1798.49	0.702085
1800	0.462202
1801.5	0.927216
1803	0.472583
1804.51	0.212096
1806.01	0.174339
1807.51	0.246897
1809.01	0.438845
1810.51	-0.0620125
1812.02	0.43561
1813.52	0.39507
1815.02	0.63968
1816.52	1.41606
1818.02	1.55549
1819.52	1.61499
1821.02	1.47322
1822.52	1.75249
1824.02	2.18937
1825.51	2.20889
1827.01	1.89369
1828.51	1.80254
1830.01	1.88059
1831.51	1.64683
1833	2.1064
1834.5	2.88914
1836	4.00133
1837.5	3.86557
1838.99	3.98802
1840.49	4.38987
1841.98	4.41223
1843.48	4.56707
1844.97	4.24058
1846.47	3.986
1847.96	3.56791
1849.46	3.8153
1850.95	3.09969
1852.45	3.48005
1853.94	3.40162
1855.43	3.97771
1856.92	3.78112
1858.42	3.43479
1859.91	3.44264
1861.4	3.50981
1862.89	4.1784
1864.39	3.78161
1865.88	4.31779
1867.37	4.38746
1868.86	3.56673
1870.35	3.21464
1871.84	3.51321
1873.33	3.75314
1874.82	4.3585
1876.31	4.36904
1877.8	4.63829
1879.29	4.69857
1880.77	3.95021
1882.26	3.81598
1882.51	4.00401
1884	4.09528
1885.5	4.78584
1886.99	5.35893
1888.48	6.37665
1889.98	6.994
1891.47	6.9157
1892.97	6.97891
1894.46	6.72464
1895.95	7.33217
1897.44	6.68331
1898.93	6.9884
1900.42	6.8182
1901.92	7.06581
1903.41	7.80218
1904.9	7.78997
1906.39	8.05804
1907.88	7.55038
1909.37	7.36119
1910.86	6.40705
1912.35	6.15684
1913.84	5.75114
1915.32	5.16655
1916.81	4.42806
1918.3	3.99944
1919.79	4.13718
1921.28	3.57752
1922.76	3.77774
1924.25	3.69523
1925.74	4.39046
1927.22	3.83856
1928.71	4.40262
1930.2	4.20118
1931.68	4.4045
1933.17	5.85814
1934.65	6.54794
1936.14	6.26662
1937.62	5.54911
1939.11	5.52017
1940.59	5.38606
1942.08	4.77301
1943.56	5.21851
1945.04	5.41088
1946.53	4.12001
1948.01	4.05749
1949.49	3.66918
1950.97	3.53824
1952.45	3.40634
1953.94	4.15561
1955.42	4.75763
1956.9	5.04802
1958.38	5.5173
1959.86	6.00438
1961.34	6.1248
1962.82	6.20042
1964.3	6.0614
1965.78	5.97551
1967.26	6.39929
1968.74	5.92512
1970.22	6.35322
1971.69	5.82663
1973.17	6.21392
1974.65	6.09005
1976.13	6.64131
1977.61	7.04279
1979.08	6.65335
1980.56	6.5767
1982.03	6.62666
1983.51	6.81937
1984.99	6.30459
1986.46	6.725
1987.94	7.13928
1989.41	6.82246
1990.89	7.56058
1992.36	7.94747
1993.84	8.03147
1995.31	7.86849
1996.78	8.73237
1998.26	9.22351
1999.73	9.27626
2001.2	9.56269
2002.68	11.0067
2004.15	11.5549
2005.62	12.5641
2007.09	12.544
2008.56	11.7114
2010.04	10.4334
2011.51	10.1817
2012.98	9.84708
2014.45	9.43573
2015.92	8.20769
2017.39	8.93967
2018.86	8.54135
2020.33	8.46608
2021.8	9.18488
2023.27	8.98109
2024.74	9.18554
2026.2	10.2264
2027.67	10.5553
2029.14	9.94428
2030.61	9.9943
2032.07	10.8377
2033.54	11.3259
2035.01	12.191
2036.47	13.1955
2037.94	13.0402
2039.41	13.2982
2040.87	13.7168
2042.34	14.1557
2043.8	14.5098
2045.27	14.2259
2046.73	14.6434
2048.2	15.6383
2049.66	15.7168
2051.12	15.7837
2052.59	16.3037
2054.05	16.9498
2055.51	17.4133
2056.98	17.2282
2058.44	17.8356
2059.9	18.9627
2061.36	19.2896
2062.82	20.2611
2064.29	21.3384
2065.75	21.702
2067.21	23.1144
2068.67	24.6343
2070.13	25.3819
2071.59	26.0097
2073.05	26.6207
2074.51	27.0902
2075.97	27.8692
2077.43	27.8013
2078.88	28.2906
2080.34	28.2056
2081.8	28.7706
2083.26	29.7999
2084.72	31.0313
2086.17	31.273
2087.63	31.8248
2089.09	33.2461
2090.54	34.4218
2092	35.0667
2093.46	36.7538
2094.91	37.469
2096.37	38.703
2097.82	39.804
2099.28	41.3535
2100.73	41.8943
2102.19	42.3978
2103.64	43.8621
2105.09	45.711
2106.55	47.4949
2108	49.1717
2109.46	50.2274
2110.91	50.8581
2112.36	53.3543
2113.81	54.8939
2115.27	55.9052
2116.72	57.4682
2118.17	58.5096
2119.62	60.7913
2121.07	62.9134
2122.52	64.1974
2123.97	65.5956
2125.42	67.5973
2126.87	68.9536
2128.32	70.1487
2129.77	71.1916
2131.22	73.4558
2132.67	75.1801
2134.12	76.8432
2135.57	78.761
2137.01	80.3974
