#Acq. time (s)=	45
#Accumulations=	2
#Range (cm-¹)=	200...3150
#Windows=	2
#Auto scanning=	Off
#Autofocus=	Off
#Macrospot=	Off
#AutoExposure=	Off
#Spike filter=	Multiple accum.
#Delay time (s)=	0
#Binning=	1
#Readout mode=	Signal
#DeNoise=	Off
#ICS correction=	On
#Dark correction=	Off
#Inst. Process=	Off
#Detector Gain=	Best Dynamic Range
#Detector ADC=	20 kHz       
#Detector temperature (°C)=	-69.85
#Instrument=	LabRAM HR Evol
#Detector=	Synapse
#Objective=	x100
#Grating=	600 gr/mm
#ND Filter=	100%
#Laser (nm)=	532 
#Hole=	100.021
#Range=	Auto
#Laser Pol.=	No
#Raman. Pol.=	No
#Laser Pol. (°)=	-0.0007625
#Raman Pol. (°)=	89.9995
#Collection=	Microscope
#StageXY=	Marzhauser
#StageZ=	Marzhauser
#X (µm)=	19306.5
#Y (µm)=	3028
#Z (µm)=	1047.7
#Full time(mm:ss)=	3:18
#Project=	
#Sample=	
#Site=	
#Title=	Mb_50_18_19_2x_45s_532 nm_x100_100%_600 gr_mm
#Remark=	
#Date=	12.07.2022 11:40
#Acquired=	12.07.2022 11:40:10
#Base:Fit=	10.08.2022 10:49:18
#Base:Sub=	10.08.2022 10:49:30
#Filter:Polynom=	16.08.2022 10:14:59
#AxisType[0]=Intens
#AxisUnit[0]=Cnt
#AxisType[1]=Spectr
#AxisUnit[1]=1/cm
200.388	19.6768
202.204	23.0055
204.019	22.9596
205.832	23.6497
207.646	23.618
209.459	22.9276
211.274	21.4474
213.087	19.6934
214.899	18.3757
216.711	16.9786
218.524	15.7806
220.335	13.8394
222.146	14.3903
223.956	13.7219
225.766	13.05
227.576	12.5621
229.388	13.543
231.197	12.1172
233.005	11.0969
234.813	10.009
236.621	9.89759
238.429	10.6278
240.236	11.1609
242.045	10.9829
243.852	10.7425
245.658	10.9379
247.464	11.444
249.269	12.1322
251.074	11.1542
252.879	10.9401
254.683	10.9908
256.487	12.2461
258.291	12.0564
260.094	12.6957
261.897	12.695
263.702	12.8336
265.504	12.1854
267.306	12.3686
269.108	12.4488
270.909	13.0341
272.71	14.4924
274.511	14.3785
276.311	15.003
278.111	14.4709
279.91	13.7613
281.709	14.8115
283.508	13.9799
285.306	13.9608
287.105	12.659
288.9	13.4547
290.698	14.4316
292.495	14.8748
294.291	15.4748
296.088	15.4429
297.884	15.213
299.679	15.2278
301.475	15.4112
303.27	16.5267
305.064	17.72
306.858	17.7579
308.652	17.8455
310.444	18.4893
312.237	20.2704
314.03	19.9581
315.822	21.0108
317.615	21.6724
319.406	21.341
321.198	20.4151
322.987	21.4294
324.778	22.2967
326.568	22.0696
328.358	21.9486
330.148	21.5864
331.935	21.3971
333.724	20.3027
335.513	20.4989
337.301	19.4068
339.089	17.9714
340.875	15.5596
342.662	14.3484
344.449	13.4852
346.236	13.0091
348.02	11.7975
349.806	11.3185
351.592	11.3687
353.375	11.5608
355.16	10.7913
356.944	11.8015
358.728	12.384
360.51	12.7344
362.294	13.7395
364.077	13.3793
365.858	14.9532
367.64	15.5786
369.422	16.5951
371.202	19.0022
372.983	18.9416
374.764	20.7933
376.543	22.6217
378.324	25.2231
380.102	26.4374
381.881	26.8216
383.661	26.7553
385.438	28.1097
387.216	28.5492
388.993	30.4278
390.771	30.5244
392.548	31.1629
394.324	30.9843
396.101	31.2577
397.875	31.8523
399.651	32.0861
401.425	33.1942
403.201	32.7218
404.974	31.7817
406.749	30.4601
408.524	29.0606
410.296	28.4002
412.07	26.7115
413.841	25.1437
415.614	23.0767
417.385	21.5059
419.156	19.5949
420.928	17.8122
422.698	14.8337
424.469	13.0221
426.238	11.2157
428.009	10.0957
429.777	8.52338
431.548	8.29982
433.315	8.27244
435.083	7.18852
436.852	6.86398
438.618	5.82051
440.387	6.25593
442.153	5.96683
443.919	5.90184
445.686	7.81463
447.451	7.1291
449.218	7.04298
450.982	8.12449
452.746	8.57293
454.512	9.56023
456.275	10.0844
458.038	9.88334
459.803	10.079
461.565	10.4296
463.327	11.4265
465.091	10.8779
466.852	11.5154
468.613	11.8905
470.374	12.3587
472.136	13.5251
473.896	15.1221
475.655	15.7529
477.415	16.7948
479.176	16.7059
480.934	18.3816
482.692	20.0004
484.45	21.9296
486.21	23.2775
487.967	25.0945
489.724	27.4904
491.481	29.179
493.237	32.0577
494.995	33.9289
496.75	35.9221
498.506	37.4523
500.26	38.6568
502.015	39.3742
503.771	39.3182
505.525	40.4538
507.279	40.9029
509.032	42.4177
510.785	42.646
512.537	43.4343
514.289	44.2476
516.041	43.9748
517.793	43.8114
519.546	43.6033
521.297	41.6713
523.047	41.9937
524.797	42.1462
526.547	40.6315
528.297	40.4392
530.046	38.5767
531.795	37.4127
533.543	35.6325
535.291	33.0038
537.039	32.2394
538.787	30.3116
540.534	28.2328
542.281	25.1495
544.027	23.2074
545.773	20.3764
547.519	18.034
549.264	16.401
551.01	14.6014
552.754	11.7131
554.499	9.87122
556.243	7.67603
557.987	6.74432
559.73	5.46064
561.474	3.88022
563.216	1.8629
564.959	0.477621
566.701	-0.164243
568.441	-0.234354
570.182	-0.608065
571.923	0.247091
573.664	0.374362
575.405	1.20916
577.145	2.14093
578.885	3.18867
580.624	3.23503
582.361	1.72852
584.1	2.52719
585.839	1.94257
587.577	1.6154
589.315	1.71325
591.052	2.86709
592.787	3.90924
594.524	3.98491
596.26	5.06954
597.997	4.9489
599.732	5.20007
601.466	4.7877
603.201	4.96359
604.936	5.8444
606.67	6.37362
608.403	7.16419
610.136	8.60465
611.87	7.27454
613.603	7.00989
615.334	8.13589
617.067	7.78006
618.799	8.56864
620.529	8.8575
622.26	9.83485
623.991	10.1582
625.72	9.1402
627.451	8.90316
629.181	9.3107
630.909	10.8574
632.638	10.8076
634.368	11.1167
636.095	10.9897
637.823	10.1173
639.551	10.1191
641.277	10.87
643.005	10.8624
644.73	10.7848
646.457	9.77549
648.184	7.92744
649.908	7.38567
651.634	7.74285
653.357	8.51644
655.083	8.44627
656.806	7.10622
658.53	7.505
660.253	6.60375
661.977	6.24638
663.7	5.89734
665.422	4.75583
667.145	4.55091
668.865	4.35507
670.588	4.66668
672.308	3.95197
674.027	4.19212
675.749	4.86283
677.468	5.47144
679.188	5.47651
680.907	6.14523
682.627	6.47223
684.345	7.94437
686.064	8.01386
687.781	7.97508
689.498	9.37296
691.216	10.2774
692.932	10.8146
694.65	11.1877
696.366	11.1374
698.081	10.6993
699.797	12.5627
701.512	14.2902
703.228	15.0175
704.942	16.8177
706.655	18.0248
708.371	18.4635
710.083	19.5414
711.796	20.6736
713.51	22.4336
715.222	24.1943
716.934	25.2447
718.645	25.6102
720.358	26.4433
722.068	26.5736
723.779	26.574
725.49	27.6039
727.2	27.2115
728.909	27.7452
730.618	29.004
732.329	29.2743
734.037	29.5969
735.745	31.9604
737.453	33.9384
739.16	35.5084
740.869	37.3855
742.576	38.9387
744.282	42.8713
745.988	45.3066
747.694	48.1674
749.401	51.2557
751.107	54.5073
752.811	57.9529
754.516	60.8573
756.22	63.0991
757.924	66.1937
759.627	69.357
761.332	72.023
763.035	73.7009
764.738	75.4024
766.44	77.497
768.142	79.5186
769.843	80.6334
771.544	80.7781
773.245	82.1841
774.946	83.0576
776.646	83.3409
778.346	83.8907
780.046	84.1043
781.745	84.5673
783.444	85.0174
785.143	86.3924
786.841	86.1056
788.539	85.2656
790.237	84.5055
791.934	83.4741
793.631	82.8797
795.328	82.5415
797.024	81.037
798.72	79.0701
800.416	77.7945
802.112	76.39
803.807	75.2342
805.502	73.2154
807.196	71.2591
808.89	69.6406
810.584	68.79
812.278	68.3056
813.971	67.35
815.664	66.5969
817.354	65.339
819.047	65.7577
820.739	65.7856
822.43	66.1812
824.122	66.1221
825.813	66.0989
827.503	66.0508
829.192	66.6211
830.882	66.1966
832.571	66.424
834.261	65.7768
835.95	66.174
837.637	66.4456
839.325	65.9677
841.013	66.3569
842.701	65.7347
844.389	63.474
846.074	61.8038
847.761	61.2895
849.447	61.782
851.131	60.712
852.817	59.817
854.503	57.8698
856.188	56.751
857.871	54.7037
859.556	53.2929
861.24	53.3631
862.922	52.4467
864.606	50.9905
866.289	50.0983
867.97	49.292
869.653	47.3222
871.336	46.0162
873.016	45.1824
874.698	44.6104
876.379	44.3272
878.058	43.5373
879.739	42.2833
881.418	41.3158
883.098	41.5471
884.778	41.5854
886.456	40.4994
888.135	39.3495
889.812	38.0417
891.49	37.3801
893.167	35.5002
894.845	35.286
896.523	34.6846
898.198	34.2559
899.875	33.6778
901.55	32.5847
903.226	32.1799
904.901	32.0205
906.576	32.7683
908.25	32.7134
909.925	32.1269
911.598	32.453
913.271	32.6682
914.945	33.7484
916.617	33.9304
918.291	33.9658
919.962	33.8101
921.635	33.9925
923.306	33.253
924.978	33.6998
926.648	32.1997
928.318	31.3724
929.989	31.5145
931.659	32.6447
933.328	31.1176
934.998	29.6407
936.666	30.0865
938.336	29.5584
940.004	28.8818
941.671	28.1921
943.34	28.2125
945.007	27.1317
946.673	25.4732
948.339	25.6024
950.007	26.5395
951.672	26.3243
953.337	25.7397
955.004	26.3879
956.669	25.7632
958.333	25.1127
959.997	24.692
961.662	24.6011
963.326	24.7926
964.989	25.0812
966.651	25.3352
968.315	25.0196
969.977	24.5033
971.639	25.1505
973.301	24.7942
974.962	24.7491
976.624	23.5262
978.285	24.1327
979.945	23.1726
981.605	22.5897
983.264	20.9564
984.924	21.7101
986.583	21.7658
988.243	22.4406
989.901	22.1502
991.56	22.0337
993.217	22.9338
994.875	24.8881
996.532	25.9553
998.188	27.3472
999.845	28.645
1001.5	30.8658
1003.16	33.5231
1004.81	36.7593
1006.47	39.1237
1008.12	40.8823
1009.78	42.8637
1011.43	44.1788
1013.09	46.4293
1014.74	49.5782
1016.39	50.7836
1018.05	52.9972
1019.7	54.8805
1021.35	55.6225
1023	57.0318
1024.65	59.7203
1026.31	61.7168
1027.96	63.1673
1029.61	65.7184
1031.26	67.2449
1032.91	67.4372
1034.56	67.2716
1036.21	67.8555
1037.86	67.8162
1039.51	67.5339
1041.16	67.8289
1042.8	67.8619
1044.45	68.0431
1046.1	67.4733
1047.75	67.2043
1049.39	66.0551
1051.04	64.4909
1052.69	62.9202
1054.33	60.7264
1055.98	57.4658
1057.62	55.4757
1059.27	52.3522
1060.91	50.8544
1062.56	47.9837
1064.2	45.351
1065.85	43.0482
1067.49	42.3044
1069.13	40.1037
1070.77	39.5223
1072.42	37.404
1074.06	36.6775
1075.7	35.9296
1077.34	35.654
1078.98	35.3652
1080.62	35.456
1082.27	35.7162
1083.91	35.1726
1085.55	35.5622
1087.18	35.5272
1088.82	35.538
1090.46	34.125
1092.1	33.6334
1093.74	34.2673
1095.38	35.8871
1097.02	36.8514
1098.65	37.4208
1100.29	38.4619
1101.93	39.2178
1103.56	39.299
1105.2	40.2207
1106.84	39.9283
1108.47	39.1695
1110.11	38.3798
1111.74	38.1379
1113.38	37.5526
1115.01	37.8788
1116.64	37.7571
1118.28	37.9032
1119.91	36.9886
1121.54	36.8565
1123.18	36.5795
1124.81	35.0834
1126.44	34.2588
1128.07	32.7339
1129.7	31.9878
1131.33	30.2191
1132.97	28.9427
1134.6	27.7348
1136.23	25.7147
1137.86	24.1015
1139.49	23.8223
1141.11	21.558
1142.74	20.7167
1144.37	18.2007
1146	16.1788
1147.63	14.5226
1149.26	13.2769
1150.88	10.7863
1152.51	9.51071
1154.14	7.00849
1155.76	6.09654
1157.39	4.85269
1159.01	3.39891
1160.64	2.57696
1162.27	1.43712
1163.89	1.6797
1165.51	1.84636
1167.14	2.89859
1168.76	3.96043
1170.39	3.79563
1172.01	3.66324
1173.63	5.36357
1175.25	7.299
1176.88	6.52733
1178.5	5.92781
1180.12	6.22539
1181.74	6.44858
1183.36	5.56258
1184.98	6.29782
1186.6	6.26675
1188.22	6.63506
1189.84	7.30616
1191.46	7.33002
1193.08	7.91634
1194.7	8.56438
1196.32	8.81386
1197.94	8.93971
1199.55	9.74282
1201.17	10.3623
1202.79	11.4276
1204.41	11.2595
1206.02	11.2786
1207.64	12.4064
1209.25	13.4615
1210.87	13.6707
1212.48	14.2414
1214.1	16.0348
1215.71	16.4665
1217.33	17.7706
1218.94	19.305
1220.56	21.4344
1222.17	21.7452
1223.79	23.7258
1225.4	24.1415
1227.01	25.458
1228.62	27.3237
1230.23	29.057
1231.85	30.5564
1233.46	32.36
1235.07	33.122
1236.68	34.803
1238.29	34.9655
1239.9	36.6481
1241.51	39.8059
1243.12	41.6312
1244.73	44.2676
1246.34	45.743
1247.94	47.5805
1249.55	49.4486
1251.16	50.213
1252.77	51.7012
1254.37	53.1107
1255.98	53.001
1257.59	53.0586
1259.2	55.554
1260.8	57.9677
1262.41	59.8667
1264.01	61.1861
1265.62	62.6118
1267.22	63.9949
1268.83	66.7208
1270.43	67.5119
1272.03	68.946
1273.64	71.3176
1275.24	73.4887
1276.85	74.8162
1278.45	75.9828
1280.05	76.3586
1281.65	77.7177
1283.25	78.8124
1284.85	79.4935
1286.46	80.7182
1288.06	81.3542
1289.66	82.2517
1291.26	82.4096
1292.86	84.3219
1294.46	85.2614
1296.06	85.3471
1297.66	86.7822
1299.25	87.7365
1300.85	88.5049
1302.45	88.338
1304.05	88.7265
1305.65	88.193
1307.24	88.4345
1308.84	88.5491
1310.43	87.5407
1312.03	86.5028
1313.63	84.3958
1315.22	81.8862
1316.82	81.2772
1318.41	79.8532
1320.01	79.5677
1321.6	78.6636
1323.2	76.5796
1324.79	75.2028
1326.38	73.7516
1327.98	72.4346
1329.57	71.2902
1331.16	69.1053
1332.76	66.9336
1334.35	65.2967
1335.94	62.7308
1337.53	61.728
1339.12	61.3684
1340.71	60.7019
1342.3	59.6979
1343.89	57.8915
1345.48	55.9771
1347.07	54.7816
1348.66	52.4037
1350.25	49.9131
1351.84	48.9494
1353.43	47.5474
1355.01	45.4929
1356.6	43.6164
1358.19	41.6104
1359.77	40.2531
1361.36	39.8805
1362.95	38.2991
1364.53	36.4177
1366.12	35.5299
1367.71	34.2961
1369.29	33.7251
1370.88	33.0425
1372.46	33.5535
1374.04	32.7759
1375.63	32.101
1377.21	31.1581
1378.8	30.8381
1380.38	30.0791
1381.96	28.9065
1383.54	28.7291
1385.13	27.5704
1386.71	27.0263
1388.29	25.8769
1389.87	24.9507
1391.45	24.9205
1393.03	23.1077
1394.61	23.4093
1396.19	22.9757
1397.77	21.9813
1399.35	20.8414
1400.93	21.814
1402.51	22.2118
1404.09	23.6274
1405.67	25.3748
1407.24	26.5859
1408.82	28.5977
1410.4	30.575
1411.98	32.3623
1413.55	35.653
1415.13	38.5762
1416.71	42.5791
1418.28	47.0957
1419.86	50.8372
1421.43	53.8885
1423.01	57.9525
1424.58	61.9719
1426.16	66.3352
1427.73	71.382
1429.31	76.4561
1430.88	81.3513
1432.45	85.9714
1434.02	89.7683
1435.6	94.9676
1437.17	98.4824
1438.74	102.107
1440.31	105.248
1441.88	106.926
1443.45	109.065
1445.03	111.228
1446.6	112.374
1448.17	114.677
1449.74	115.306
1451.3	115.124
1452.87	113.61
1454.44	113.351
1456.01	112.475
1457.58	111.792
1459.15	110.085
1460.72	108.042
1462.28	105.813
1463.85	103.649
1465.42	101.82
1466.98	99.5613
1468.55	96.8216
1470.12	93.0932
1471.68	88.1571
1473.25	85.2048
1474.81	81.4083
1476.38	78.8065
1477.94	74.0273
1479.51	71.7134
1481.07	68.1779
1482.63	64.9452
1484.2	62.5471
1485.76	59.5236
1487.32	58.0273
1488.88	55.5297
1490.45	52.3256
1492.01	51.0395
1493.57	49.9286
1495.13	47.9312
1496.69	46.9447
1498.25	45.6671
1499.81	45.0882
1501.37	44.3374
1502.93	41.9932
1504.49	40.4789
1506.05	39.3471
1507.61	37.2668
1509.17	35.5234
1510.73	34.1688
1512.28	31.3195
1513.84	29.7097
1515.4	26.5427
1516.96	23.8121
1518.51	21.8882
1520.07	19.6519
1521.63	18.8469
1523.18	18.0567
1524.74	17.0383
1526.29	15.7023
1527.85	13.6452
1529.4	13.2988
1530.96	12.8467
1532.51	13.3489
1534.06	13.7435
1535.62	13.9148
1537.17	14.2719
1538.72	14.9957
1540.28	15.4851
1541.83	16.5981
1543.38	16.9496
1544.93	16.2306
1546.48	16.4181
1548.03	16.5881
1549.59	16.9134
1551.14	17.9983
1552.69	18.5357
1554.24	18.389
1555.79	18.5273
1557.34	20.4303
1558.88	21.7911
1560.43	23.2402
1561.98	25.2518
1563.53	25.9627
1565.08	28.7058
1566.62	29.4586
1568.17	32.0511
1569.72	35.6155
1571.27	38.094
1572.81	40.2738
1574.36	44.0071
1575.9	45.659
1577.45	47.3066
1579	48.6982
1580.54	50.0299
1582.09	52.5637
1583.63	54.6271
1585.17	56.3796
1586.72	57.9349
1588.26	58.6181
1589.8	59.0765
1591.35	60.6564
1592.89	62.3079
1594.43	63.3451
1595.97	65.1102
1597.52	66.1181
1599.06	67.2386
1600.6	67.598
1602.14	66.7137
1603.68	66.4173
1605.22	66.5516
1606.76	67.0879
1608.3	68.1005
1609.84	68.3073
1611.38	68.7496
1612.92	67.5608
1614.46	67.6488
1615.99	68.1236
1617.53	67.5824
1619.07	66.8069
1620.61	66.7666
1622.14	66.018
1623.68	66.5567
1625.22	67.6312
1626.75	67.2343
1628.29	68.0238
1629.82	68.9027
1631.36	70.0288
1632.9	71.1893
1634.43	73.2207
1635.96	74.3814
1637.5	75.8691
1639.03	77.2957
1640.57	78.6428
1642.1	82.3721
1643.63	83.2835
1645.16	85.4084
1646.7	86.6982
1648.23	88.1496
1649.76	90.5962
1651.29	91.908
1652.82	92.0481
1654.36	93.4024
1655.89	94.4312
1657.42	95.1572
1658.95	95.1897
1660.48	94.4635
1662.01	93.6207
1663.53	92.413
1665.06	90.7411
1666.59	89.5899
1668.12	87.8638
1669.65	85.7636
1671.18	83.5223
1672.7	81.915
1674.23	78.5101
1675.76	75.6049
1677.29	72.3877
1678.81	68.927
1680.34	65.8856
1681.86	62.3865
1683.39	59.8638
1684.91	56.5429
1686.44	52.2389
1687.96	49.6524
1689.49	45.8216
1691.01	42.6134
1692.54	40.1888
1694.06	36.2986
1695.58	33.2399
1697.11	31.0898
1698.63	28.573
1700.15	26.9651
1701.67	25.2051
1703.2	22.838
1704.72	22.2241
1706.24	21.1076
1707.76	19.2527
1709.28	17.5535
1710.8	17.173
1712.32	15.0409
1713.84	14.4313
1715.36	13.5587
1716.88	13.1103
1718.4	12.7826
1719.91	10.617
1721.43	10.325
1722.95	10.1382
1724.47	9.72488
1725.99	9.29647
1727.5	8.39328
1729.02	8.02229
1730.54	7.83914
1732.05	7.09058
1733.57	6.48022
1735.09	5.71668
1736.6	5.63152
1738.12	5.5263
1739.63	5.65822
1741.15	5.40338
1742.66	5.22072
1744.18	4.99738
1745.69	5.51714
1747.2	5.51457
1748.72	5.50055
1750.23	5.14092
1751.74	5.8111
1753.25	5.36043
1754.77	4.61267
1756.28	4.67249
1757.79	4.89537
1759.3	5.52079
1760.81	4.70938
1762.32	4.33271
1763.83	4.72361
1765.34	4.08635
1766.85	4.29724
1768.36	4.4017
1769.87	3.77467
1771.38	3.57264
1772.89	3.53284
1774.4	3.77258
1775.91	3.9114
1777.41	3.74687
1778.92	4.50584
1780.43	4.80487
1781.94	5.05088
1783.44	5.24767
1784.95	5.60449
1786.45	5.61915
1787.96	4.73415
1789.47	4.63928
1790.97	4.26461
1792.48	3.53534
1793.98	3.12064
1795.48	2.68009
1796.99	2.55158
1798.49	2.19024
1800	1.32592
1801.5	1.44915
1803	1.48449
1804.51	1.88321
1806.01	2.04647
1807.51	1.64203
1809.01	1.95937
1810.51	1.82541
1812.02	1.75169
1813.52	1.83344
1815.02	1.98899
1816.52	1.94857
1818.02	1.2095
1819.52	1.56487
1821.02	1.83818
1822.52	1.75053
1824.02	1.79147
1825.51	1.63896
1827.01	1.4691
1828.51	1.369
1830.01	1.66803
1831.51	1.9127
1833	1.14933
1834.5	0.776203
1836	0.362536
1837.5	0.6042
1838.99	1.2533
1840.49	0.615224
1841.98	0.649725
1843.48	1.0062
1844.97	1.02118
1846.47	0.272247
1847.96	0.499754
1849.46	0.515212
1850.95	1.1846
1852.45	1.97948
1853.94	2.37602
1855.43	2.00703
1856.92	2.44175
1858.42	2.5282
1859.91	2.90213
1861.4	3.00406
1862.89	2.82543
1864.39	2.53101
1865.88	2.56028
1867.37	2.90855
1868.86	3.22826
1870.35	3.1986
1871.84	2.824
1873.33	3.86018
1874.82	4.35715
1876.31	4.61856
1877.8	5.6465
1879.29	6.12837
1880.77	6.32111
1882.26	6.93016
1882.51	6.92573
1884	7.66219
1885.5	7.76705
1886.99	8.15286
1888.48	8.59036
1889.98	8.7297
1891.47	8.56492
1892.97	9.54707
1894.46	9.26507
1895.95	9.62827
1897.44	10.1144
1898.93	10.3076
1900.42	10.81
1901.92	11.593
1903.41	11.3897
1904.9	11.064
1906.39	11.0835
1907.88	11.0755
1909.37	10.7882
1910.86	10.5854
1912.35	10.7624
1913.84	10.3886
1915.32	11.0093
1916.81	10.687
1918.3	10.2526
1919.79	9.40975
1921.28	9.32462
1922.76	8.93449
1924.25	9.27426
1925.74	8.66818
1927.22	7.73526
1928.71	7.12385
1930.2	6.57523
1931.68	5.93587
1933.17	5.37296
1934.65	4.00838
1936.14	3.43002
1937.62	2.40697
1939.11	2.32253
1940.59	1.57689
1942.08	1.13566
1943.56	0.546878
1945.04	0.0365181
1946.53	0.904453
1948.01	0.407616
1949.49	0.195742
1950.97	0.945673
1952.45	0.109377
1953.94	-0.0147085
1955.42	0.0599583
1956.9	0.226014
1958.38	0.365079
1959.86	0.0897062
1961.34	0.0701506
1962.82	0.76866
1964.3	1.43156
1965.78	1.77436
1967.26	2.65547
1968.74	3.04757
1970.22	3.93108
1971.69	4.77912
1973.17	4.80976
1974.65	5.71042
1976.13	5.58513
1977.61	5.09545
1979.08	5.14791
1980.56	5.65115
1982.03	6.0343
1983.51	6.7361
1984.99	6.87462
1986.46	6.58429
1987.94	7.01107
1989.41	7.07796
1990.89	6.65699
1992.36	6.67864
1993.84	6.07683
1995.31	6.59939
1996.78	6.56251
1998.26	6.85086
1999.73	5.9591
2001.2	5.50148
2002.68	4.70295
2004.15	4.38135
2005.62	5.32976
2007.09	5.30349
2008.56	5.27166
2010.04	5.26668
2011.51	3.92311
2012.98	4.91081
2014.45	4.13517
2015.92	4.34763
2017.39	4.07212
2018.86	4.87023
2020.33	5.13801
2021.8	4.13082
2023.27	4.36859
2024.74	4.62203
2026.2	5.0197
2027.67	5.63674
2029.14	6.40082
2030.61	6.77619
2032.07	7.02995
2033.54	7.33753
2035.01	8.75427
2036.47	10.0912
2037.94	11.1077
2039.41	11.2318
2040.87	12.5512
2042.34	13.5742
2043.8	14.1054
2045.27	15.2702
2046.73	15.4544
2048.2	16.1509
2049.66	16.5287
2051.12	17.1285
2052.59	18.1971
2054.05	19.3424
2055.51	19.8131
2056.98	19.8741
2058.44	20.7165
2059.9	20.9952
2061.36	21.8111
2062.82	22.16
2064.29	22.4007
2065.75	22.348
2067.21	22.5681
2068.67	23.2221
2070.13	23.5644
2071.59	24.3433
2073.05	24.4255
2074.51	25.4337
2075.97	26.1201
2077.43	26.9275
2078.88	27.9181
2080.34	27.9804
2081.8	28.3722
2083.26	28.89
2084.72	29.1492
2086.17	30.725
2087.63	31.4423
2089.09	32.2551
2090.54	33.4275
2092	34.5796
2093.46	35.3538
2094.91	36.8111
2096.37	39.3624
2097.82	40.5161
2099.28	41.9634
2100.73	43.1233
2102.19	44.992
2103.64	46.6082
2105.09	48.7055
2106.55	50.4788
2108	53.1484
2109.46	53.868
2110.91	55.2136
2112.36	57.0408
2113.81	58.934
2115.27	60.5306
2116.72	62.1024
2118.17	63.5507
2119.62	64.7222
2121.07	66.6306
2122.52	69.2302
2123.97	72.1033
2125.42	74.5869
2126.87	77.0389
2128.32	79.2773
2129.77	81.7343
2131.22	83.8402
2132.67	85.2507
2134.12	87.7446
2135.57	91.0461
