#Acq. time (s)=	45
#Accumulations=	2
#Range (cm-¹)=	200...3150
#Windows=	2
#Auto scanning=	Off
#Autofocus=	Off
#Macrospot=	Off
#AutoExposure=	Off
#Spike filter=	Multiple accum.
#Delay time (s)=	0
#Binning=	1
#Readout mode=	Signal
#DeNoise=	Off
#ICS correction=	On
#Dark correction=	Off
#Inst. Process=	Off
#Detector Gain=	Best Dynamic Range
#Detector ADC=	20 kHz       
#Detector temperature (°C)=	-69.85
#Instrument=	LabRAM HR Evol
#Detector=	Synapse
#Objective=	x100
#Grating=	600 gr/mm
#ND Filter=	100%
#Laser (nm)=	532 
#Hole=	100.021
#Range=	Auto
#Laser Pol.=	No
#Raman. Pol.=	No
#Laser Pol. (°)=	-0.0007625
#Raman Pol. (°)=	89.9995
#Collection=	Microscope
#StageXY=	Marzhauser
#StageZ=	Marzhauser
#X (µm)=	19304
#Y (µm)=	3091.4
#Z (µm)=	1046.85
#Full time(mm:ss)=	3:18
#Project=	
#Sample=	
#Site=	
#Title=	Mb_50_18_14_2x_45s_532 nm_x100_100%_600 gr_mm
#Remark=	
#Date=	12.07.2022 11:17
#Acquired=	12.07.2022 11:17:02
#Base:Fit=	10.08.2022 10:49:18
#Base:Sub=	10.08.2022 10:49:30
#Filter:Polynom=	16.08.2022 10:14:59
#AxisType[0]=Intens
#AxisUnit[0]=Cnt
#AxisType[1]=Spectr
#AxisUnit[1]=1/cm
200.388	2.68525
202.204	1.55028
204.019	1.70302
205.832	2.40499
207.646	3.08113
209.459	3.54952
211.274	3.86317
213.087	4.34726
214.899	4.19
216.711	4.43096
218.524	4.99871
220.335	4.49382
222.146	4.69015
223.956	4.61345
225.766	5.62413
227.576	5.8682
229.388	5.15996
231.197	4.786
233.005	5.63294
234.813	6.92525
236.621	7.80146
238.429	7.17287
240.236	8.00981
242.045	8.49103
243.852	8.19479
245.658	8.88118
247.464	8.8994
249.269	8.84897
251.074	9.90984
252.879	10.892
254.683	10.1046
256.487	10.676
258.291	11.2528
260.094	12.605
261.897	14.2054
263.702	13.6313
265.504	14.3056
267.306	14.1339
269.108	15.3259
270.909	16.0285
272.71	15.8414
274.511	15.5185
276.311	15.1013
278.111	14.3889
279.91	13.4642
281.709	13.6542
283.508	13.868
285.306	12.9707
287.105	13.8059
288.9	14.0828
290.698	13.7744
292.495	14.8913
294.291	13.9891
296.088	13.07
297.884	13.1675
299.679	14.1741
301.475	15.1334
303.27	15.592
305.064	15.801
306.858	16.1937
308.652	16.5062
310.444	17.1469
312.237	17.5281
314.03	17.8219
315.822	17.1984
317.615	16.3823
319.406	16.6471
321.198	16.9139
322.987	18.3349
324.778	19.0874
326.568	18.8907
328.358	18.6253
330.148	19.2824
331.935	19.6104
333.724	19.5077
335.513	19.9552
337.301	19.9068
339.089	20.3191
340.875	20.8883
342.662	21.121
344.449	21.2509
346.236	22.2404
348.02	22.2735
349.806	22.2497
351.592	22.0661
353.375	21.9814
355.16	22.3543
356.944	21.7364
358.728	22.2013
360.51	21.6914
362.294	20.925
364.077	21.3627
365.858	21.4536
367.64	21.794
369.422	22.2254
371.202	22.57
372.983	24.0448
374.764	25.0676
376.543	26.9759
378.324	27.5383
380.102	27.7266
381.881	28.3568
383.661	28.7733
385.438	29.7316
387.216	32.024
388.993	32.6708
390.771	32.6871
392.548	32.6564
394.324	32.4678
396.101	32.1953
397.875	31.7043
399.651	31.3876
401.425	29.8307
403.201	29.3555
404.974	28.3819
406.749	28.8618
408.524	28.5506
410.296	26.2775
412.07	26.4295
413.841	25.066
415.614	23.5727
417.385	22.0424
419.156	19.344
420.928	17.907
422.698	15.7897
424.469	14.1885
426.238	12.1457
428.009	9.87914
429.777	8.99561
431.548	8.2983
433.315	6.87907
435.083	5.68747
436.852	4.5351
438.618	4.64143
440.387	3.55014
442.153	2.10483
443.919	1.85512
445.686	1.88828
447.451	2.49916
449.218	1.4964
450.982	1.20083
452.746	2.56035
454.512	2.49154
456.275	3.74694
458.038	4.47725
459.803	5.50397
461.565	7.76484
463.327	9.94249
465.091	11.212
466.852	12.5612
468.613	13.441
470.374	15.9666
472.136	17.175
473.896	17.7923
475.655	20.0053
477.415	20.9925
479.176	23.114
480.934	24.2336
482.692	25.5052
484.45	27.4188
486.21	28.573
487.967	30.3593
489.724	31.7542
491.481	33.4222
493.237	34.6137
494.995	34.8964
496.75	34.8551
498.506	34.7315
500.26	36.6936
502.015	36.947
503.771	36.3433
505.525	35.3582
507.279	35.0695
509.032	36.4289
510.785	36.3657
512.537	35.6672
514.289	34.8622
516.041	35.0637
517.793	36.2808
519.546	35.1956
521.297	34.337
523.047	33.3831
524.797	32.2002
526.547	31.5092
528.297	29.5124
530.046	29.161
531.795	29.3854
533.543	27.8075
535.291	26.059
537.039	24.5447
538.787	23.3503
540.534	22.5858
542.281	20.9881
544.027	20.477
545.773	19.2497
547.519	19.1279
549.264	18.556
551.01	17.1983
552.754	15.284
554.499	13.6142
556.243	11.9974
557.987	10.9604
559.73	8.08841
561.474	6.57421
563.216	6.5399
564.959	5.56596
566.701	5.13074
568.441	5.11757
570.182	5.31272
571.923	5.3767
573.664	5.14046
575.405	5.27843
577.145	5.23122
578.885	4.83514
580.624	4.57469
582.361	3.92281
584.1	4.54734
585.839	5.5229
587.577	5.52145
589.315	5.39115
591.052	4.29144
592.787	4.77194
594.524	5.76992
596.26	5.51638
597.997	5.26401
599.732	5.10151
601.466	6.02448
603.201	6.86583
604.936	7.2307
606.67	6.73994
608.403	7.21826
610.136	6.74901
611.87	7.23744
613.603	6.74696
615.334	6.82648
617.067	7.54952
618.799	7.0433
620.529	6.95227
622.26	7.27954
623.991	8.13881
625.72	8.4043
627.451	8.74227
629.181	9.28418
630.909	10.3012
632.638	11.0804
634.368	11.2246
636.095	10.9516
637.823	10.9847
639.551	10.7376
641.277	10.4911
643.005	10.287
644.73	10.0408
646.457	9.63215
648.184	10.716
649.908	12.0695
651.634	13.2654
653.357	13.7038
655.083	14.6161
656.806	14.3812
658.53	13.6613
660.253	13.7486
661.977	13.6947
663.7	13.9073
665.422	14.3484
667.145	14.2013
668.865	13.7125
670.588	15.1612
672.308	14.8827
674.027	13.9377
675.749	13.8957
677.468	14.148
679.188	14.6747
680.907	15.4672
682.627	15.8249
684.345	16.3892
686.064	17.1198
687.781	17.7364
689.498	17.3737
691.216	17.4818
692.932	17.2679
694.65	17.7121
696.366	18.6453
698.081	20.8295
699.797	21.5129
701.512	23.5307
703.228	25.3669
704.942	26.8476
706.655	28.2472
708.371	29.255
710.083	30.3952
711.796	31.5708
713.51	32.2354
715.222	33.5777
716.934	35.116
718.645	35.8219
720.358	35.9486
722.068	36.8195
723.779	36.9874
725.49	37.2883
727.2	38.3885
728.909	39.4629
730.618	40.7779
732.329	41.3044
734.037	43.0933
735.745	43.9844
737.453	44.8772
739.16	45.3198
740.869	47.7607
742.576	48.9242
744.282	50.7127
745.988	53.6869
747.694	56.0518
749.401	57.855
751.107	58.9352
752.811	60.5178
754.516	63.1424
756.22	65.5651
757.924	65.4721
759.627	67.3952
761.332	67.9133
763.035	69.6006
764.738	71.0993
766.44	72.5389
768.142	73.2638
769.843	73.6814
771.544	74.9492
773.245	75.2552
774.946	75.8276
776.646	77.1295
778.346	77.7497
780.046	80.3991
781.745	81.3918
783.444	81.9217
785.143	81.9068
786.841	82.8649
788.539	82.1679
790.237	81.6503
791.934	81.9107
793.631	82.281
795.328	82.1922
797.024	82.0928
798.72	81.3244
800.416	80.9741
802.112	80.9448
803.807	80.0857
805.502	79.4007
807.196	78.7556
808.89	78.0881
810.584	77.9033
812.278	78.1247
813.971	77.8589
815.664	76.8126
817.354	76.7793
819.047	77.7293
820.739	77.2902
822.43	77.4106
824.122	78.0248
825.813	77.9512
827.503	77.6316
829.192	77.4349
830.882	77.234
832.571	76.5622
834.261	74.9153
835.95	73.5216
837.637	72.6056
839.325	70.397
841.013	68.1962
842.701	66.5374
844.389	65.9946
846.074	64.7189
847.761	63.9836
849.447	63.1273
851.131	61.6698
852.817	60.746
854.503	60.0596
856.188	59.905
857.871	58.7015
859.556	58.2177
861.24	58.6703
862.922	57.9805
864.606	58.0126
866.289	56.3496
867.97	56.0477
869.653	55.2218
871.336	54.154
873.016	53.2754
874.698	53.9333
876.379	54.0505
878.058	53.0948
879.739	53.305
881.418	53.5063
883.098	53.3709
884.778	53.8243
886.456	54.0328
888.135	53.7975
889.812	54.1402
891.49	53.2998
893.167	53.8164
894.845	53.6493
896.523	53.4455
898.198	54.2016
899.875	53.9592
901.55	53.8936
903.226	54.1173
904.901	53.3619
906.576	53.99
908.25	54.478
909.925	53.9395
911.598	53.763
913.271	52.9317
914.945	52.959
916.617	51.7388
918.291	49.9609
919.962	49.2311
921.635	48.923
923.306	48.166
924.978	48.0878
926.648	48.0461
928.318	48.3967
929.989	46.8804
931.659	46.3965
933.328	46.6442
934.998	46.3725
936.666	45.632
938.336	44.7603
940.004	43.5357
941.671	42.6961
943.34	42.3957
945.007	40.3289
946.673	38.75
948.339	38.1717
950.007	37.2826
951.672	37.5821
953.337	36.4456
955.004	35.9746
956.669	35.105
958.333	34.9269
959.997	35.1819
961.662	33.8509
963.326	33.675
964.989	32.7256
966.651	31.8867
968.315	31.7774
969.977	31.2563
971.639	30.8922
973.301	32.0473
974.962	30.745
976.624	30.8593
978.285	30.0179
979.945	30.4205
981.605	30.5719
983.264	30.101
984.924	28.8359
986.583	29.2427
988.243	28.5927
989.901	28.0456
991.56	26.4742
993.217	25.41
994.875	25.721
996.532	26.1801
998.188	26.8585
999.845	26.7795
1001.5	26.7369
1003.16	28.0966
1004.81	28.5385
1006.47	29.7537
1008.12	31.3874
1009.78	31.9941
1011.43	33.4712
1013.09	33.9034
1014.74	36.5072
1016.39	35.8123
1018.05	35.7943
1019.7	36.4445
1021.35	36.9722
1023	37.6042
1024.65	38.4023
1026.31	39.0063
1027.96	39.0029
1029.61	40.1607
1031.26	40.5194
1032.91	41.265
1034.56	42.2408
1036.21	41.3887
1037.86	41.8872
1039.51	41.283
1041.16	41.2597
1042.8	41.1356
1044.45	39.8388
1046.1	40.2591
1047.75	40.4423
1049.39	40.052
1051.04	39.7004
1052.69	39.4112
1054.33	38.93
1055.98	38.5336
1057.62	36.6232
1059.27	35.8529
1060.91	35.672
1062.56	34.6855
1064.2	33.1562
1065.85	32.5757
1067.49	31.0641
1069.13	30.5386
1070.77	29.9405
1072.42	29.9083
1074.06	30.5974
1075.7	31.6434
1077.34	32.3318
1078.98	32.0059
1080.62	31.5624
1082.27	32.0576
1083.91	31.7297
1085.55	32.8841
1087.18	32.876
1088.82	33.503
1090.46	32.9671
1092.1	32.4421
1093.74	32.0204
1095.38	31.3723
1097.02	31.5306
1098.65	30.0433
1100.29	31.0203
1101.93	31.2174
1103.56	30.7329
1105.2	30.6567
1106.84	30.2827
1108.47	30.1805
1110.11	29.349
1111.74	29.4195
1113.38	29.0028
1115.01	28.2823
1116.64	27.9516
1118.28	26.3873
1119.91	25.7091
1121.54	24.1946
1123.18	23.2568
1124.81	22.5729
1126.44	21.404
1128.07	20.5489
1129.7	19.7835
1131.33	18.4938
1132.97	17.4528
1134.6	16.031
1136.23	15.1354
1137.86	14.1739
1139.49	13.4149
1141.11	12.0075
1142.74	11.3386
1144.37	9.02492
1146	8.33816
1147.63	8.53691
1149.26	7.97585
1150.88	7.89715
1152.51	7.7171
1154.14	7.78835
1155.76	5.99314
1157.39	5.72577
1159.01	5.05865
1160.64	5.49712
1162.27	5.15865
1163.89	6.05304
1165.51	5.05846
1167.14	5.47539
1168.76	5.80459
1170.39	6.40405
1172.01	7.23752
1173.63	7.46534
1175.25	8.13081
1176.88	10.1093
1178.5	11.6331
1180.12	11.912
1181.74	13.152
1183.36	13.6776
1184.98	15.022
1186.6	16.1259
1188.22	17.1348
1189.84	17.5058
1191.46	18.0249
1193.08	19.406
1194.7	18.2111
1196.32	19.2937
1197.94	20.3037
1199.55	19.9858
1201.17	20.2387
1202.79	20.7718
1204.41	20.2324
1206.02	20.8406
1207.64	21.5937
1209.25	21.3322
1210.87	21.1176
1212.48	20.8397
1214.1	21.252
1215.71	20.3143
1217.33	20.9973
1218.94	21.1263
1220.56	21.056
1222.17	20.9471
1223.79	22.0118
1225.4	22.5084
1227.01	24.0719
1228.62	25.0132
1230.23	25.0346
1231.85	25.8934
1233.46	26.6674
1235.07	27.2624
1236.68	27.8485
1238.29	30.0908
1239.9	30.6878
1241.51	32.3059
1243.12	32.2049
1244.73	34.1538
1246.34	35.1305
1247.94	37.9061
1249.55	39.3645
1251.16	41.0322
1252.77	42.5114
1254.37	43.3291
1255.98	45.6832
1257.59	47.8871
1259.2	49.6088
1260.8	50.5892
1262.41	51.7687
1264.01	53.4586
1265.62	54.7049
1267.22	55.2089
1268.83	56.0517
1270.43	56.427
1272.03	57.4973
1273.64	58.5695
1275.24	58.2231
1276.85	59.6939
1278.45	59.949
1280.05	59.989
1281.65	60.7057
1283.25	60.9685
1284.85	60.2182
1286.46	60.7411
1288.06	60.3887
1289.66	59.5312
1291.26	58.9054
1292.86	58.6173
1294.46	58.4366
1296.06	56.7227
1297.66	57.4148
1299.25	57.4797
1300.85	57.0783
1302.45	57.204
1304.05	56.7495
1305.65	55.8626
1307.24	54.6675
1308.84	53.6642
1310.43	53.8349
1312.03	54.065
1313.63	54.4499
1315.22	53.841
1316.82	53.4978
1318.41	53.0686
1320.01	52.3263
1321.6	52.4335
1323.2	51.6618
1324.79	52.3283
1326.38	52.396
1327.98	53.0168
1329.57	52.6088
1331.16	52.7773
1332.76	53.1683
1334.35	52.5588
1335.94	52.8292
1337.53	52.2953
1339.12	51.1423
1340.71	50.6504
1342.3	49.8924
1343.89	49.9802
1345.48	49.443
1347.07	49.0759
1348.66	48.1249
1350.25	47.7407
1351.84	46.5267
1353.43	45.4781
1355.01	44.2952
1356.6	43.6745
1358.19	42.86
1359.77	41.6105
1361.36	40.6854
1362.95	39.2988
1364.53	38.3763
1366.12	39.0717
1367.71	38.0382
1369.29	36.735
1370.88	35.8513
1372.46	35.646
1374.04	34.8171
1375.63	33.808
1377.21	34.2984
1378.8	33.8527
1380.38	32.8872
1381.96	32.4537
1383.54	31.7331
1385.13	32.2396
1386.71	31.8767
1388.29	32.5167
1389.87	32.5331
1391.45	32.3469
1393.03	32.2592
1394.61	31.508
1396.19	31.1644
1397.77	31.0839
1399.35	31.4636
1400.93	32.4573
1402.51	33.3292
1404.09	33.8748
1405.67	34.5629
1407.24	35.194
1408.82	35.2749
1410.4	36.3531
1411.98	36.9115
1413.55	37.5488
1415.13	39.2382
1416.71	40.6905
1418.28	42.0364
1419.86	44.146
1421.43	45.3225
1423.01	48.2806
1424.58	50.3404
1426.16	51.2725
1427.73	52.0414
1429.31	54.6442
1430.88	56.3126
1432.45	58.0887
1434.02	59.7042
1435.6	61.0881
1437.17	62.2838
1438.74	63.859
1440.31	66.0287
1441.88	67.7477
1443.45	69.1269
1445.03	70.3491
1446.6	69.31
1448.17	69.7512
1449.74	69.8742
1451.3	69.0162
1452.87	69.294
1454.44	69.3403
1456.01	68.6601
1457.58	67.9036
1459.15	66.6791
1460.72	65.5805
1462.28	64.541
1463.85	63.5496
1465.42	61.5254
1466.98	60.2819
1468.55	58.1161
1470.12	56.7276
1471.68	55.4623
1473.25	54.2323
1474.81	53.0923
1476.38	51.527
1477.94	50.0194
1479.51	48.0015
1481.07	45.5605
1482.63	43.9482
1484.2	43.5349
1485.76	42.3458
1487.32	41.4059
1488.88	40.4551
1490.45	38.7687
1492.01	38.3139
1493.57	37.0192
1495.13	35.7443
1496.69	34.591
1498.25	34.1293
1499.81	33.5774
1501.37	33.6367
1502.93	31.9625
1504.49	30.6422
1506.05	30.526
1507.61	30.8498
1509.17	29.4041
1510.73	27.9055
1512.28	27.0852
1513.84	26.4545
1515.4	26.6191
1516.96	26.4213
1518.51	26.082
1520.07	24.6587
1521.63	23.4906
1523.18	23.2851
1524.74	22.4502
1526.29	21.7462
1527.85	21.4913
1529.4	21.97
1530.96	23.104
1532.51	22.7404
1534.06	22.2253
1535.62	23.1504
1537.17	22.8961
1538.72	23.3024
1540.28	23.8897
1541.83	24.8134
1543.38	25.4669
1544.93	25.9338
1546.48	26.277
1548.03	27.1491
1549.59	27.9484
1551.14	28.2569
1552.69	28.4038
1554.24	28.5975
1555.79	29.3241
1557.34	29.8402
1558.88	30.4938
1560.43	31.7711
1561.98	32.527
1563.53	32.5038
1565.08	33.4819
1566.62	34.0264
1568.17	34.9814
1569.72	36.1159
1571.27	36.9558
1572.81	38.8604
1574.36	39.8052
1575.9	40.6948
1577.45	41.5756
1579	42.0808
1580.54	42.7895
1582.09	43.1247
1583.63	43.4619
1585.17	44.2568
1586.72	43.5189
1588.26	43.6343
1589.8	44.3942
1591.35	45.1624
1592.89	45.2922
1594.43	45.5024
1595.97	45.264
1597.52	45.2455
1599.06	46.3566
1600.6	46.5722
1602.14	46.4242
1603.68	47.0939
1605.22	48.4122
1606.76	48.2384
1608.3	47.7823
1609.84	47.2129
1611.38	47.3498
1612.92	47.8564
1614.46	46.9116
1615.99	46.7801
1617.53	46.6932
1619.07	46.6921
1620.61	45.8773
1622.14	45.25
1623.68	45.4944
1625.22	45.6162
1626.75	45.4907
1628.29	45.9063
1629.82	45.7859
1631.36	46.4479
1632.9	47.4603
1634.43	47.5657
1635.96	47.8391
1637.5	48.4779
1639.03	49.8137
1640.57	50.4322
1642.1	52.15
1643.63	52.9129
1645.16	53.8091
1646.7	55.0281
1648.23	56.0777
1649.76	57.1389
1651.29	56.8532
1652.82	56.7273
1654.36	57.1528
1655.89	57.2152
1657.42	56.7747
1658.95	56.2307
1660.48	56.5134
1662.01	56.3096
1663.53	55.2649
1665.06	55.1025
1666.59	55.0817
1668.12	53.8212
1669.65	52.5247
1671.18	51.9358
1672.7	50.895
1674.23	50.6792
1675.76	50.0108
1677.29	48.4349
1678.81	47.7509
1680.34	46.6452
1681.86	44.4935
1683.39	41.6431
1684.91	40.9667
1686.44	39.1641
1687.96	38.4585
1689.49	36.7037
1691.01	34.6379
1692.54	33.1122
1694.06	31.772
1695.58	29.5628
1697.11	28.2736
1698.63	27.041
1700.15	26.4009
1701.67	24.9831
1703.2	24.4617
1704.72	24.204
1706.24	23.1684
1707.76	22.0638
1709.28	21.1861
1710.8	19.7359
1712.32	18.5795
1713.84	18.7999
1715.36	18.463
1716.88	16.5894
1718.4	15.798
1719.91	15.1471
1721.43	14.6466
1722.95	13.8791
1724.47	13.9948
1725.99	13.1998
1727.5	12.1359
1729.02	11.9419
1730.54	11.8921
1732.05	11.8268
1733.57	11.354
1735.09	10.7269
1736.6	10.2716
1738.12	9.6969
1739.63	9.50315
1741.15	8.82184
1742.66	8.5802
1744.18	8.29397
1745.69	8.27197
1747.2	8.51186
1748.72	8.60429
1750.23	8.41499
1751.74	8.31244
1753.25	8.18503
1754.77	7.67471
1756.28	7.48996
1757.79	6.72875
1759.3	6.84523
1760.81	7.25981
1762.32	6.721
1763.83	6.83101
1765.34	5.81618
1766.85	5.23446
1768.36	4.86266
1769.87	4.56228
1771.38	4.06773
1772.89	4.3526
1774.4	4.56056
1775.91	4.62024
1777.41	4.65779
1778.92	5.24253
1780.43	4.7657
1781.94	4.02388
1783.44	3.73042
1784.95	4.13913
1786.45	4.26139
1787.96	4.07137
1789.47	3.75405
1790.97	2.77939
1792.48	2.80623
1793.98	3.69256
1795.48	4.05216
1796.99	3.55397
1798.49	3.65318
1800	3.98104
1801.5	3.2895
1803	3.35574
1804.51	3.88947
1806.01	3.66995
1807.51	3.63919
1809.01	2.914
1810.51	2.50734
1812.02	3.08428
1813.52	3.51737
1815.02	4.10146
1816.52	4.21691
1818.02	4.85587
1819.52	5.56717
1821.02	5.80179
1822.52	6.1179
1824.02	6.22257
1825.51	6.97599
1827.01	7.76867
1828.51	7.76927
1830.01	7.32926
1831.51	7.29337
1833	7.26769
1834.5	7.30057
1836	6.94022
1837.5	7.04108
1838.99	7.0671
1840.49	7.61113
1841.98	8.48802
1843.48	8.86327
1844.97	8.48042
1846.47	8.30716
1847.96	8.58341
1849.46	9.38218
1850.95	9.06587
1852.45	9.4341
1853.94	8.5499
1855.43	7.83787
1856.92	7.41651
1858.42	7.47994
1859.91	7.53694
1861.4	7.75033
1862.89	7.51973
1864.39	6.96243
1865.88	6.70139
1867.37	6.19035
1868.86	5.63344
1870.35	4.48334
1871.84	3.84218
1873.33	3.89399
1874.82	3.26904
1876.31	3.21014
1877.8	3.27021
1879.29	3.45907
1880.77	2.98652
1882.26	2.88126
1882.51	2.93497
1884	2.72232
1885.5	3.05741
1886.99	3.46056
1888.48	3.06302
1889.98	3.12906
1891.47	3.6548
1892.97	4.25733
1894.46	4.40152
1895.95	4.93289
1897.44	5.24306
1898.93	4.96911
1900.42	5.17994
1901.92	4.47241
1903.41	4.30127
1904.9	4.4429
1906.39	4.73397
1907.88	4.31105
1909.37	4.7373
1910.86	5.43116
1912.35	6.13706
1913.84	6.26738
1915.32	6.46355
1916.81	6.19066
1918.3	5.09233
1919.79	5.3015
1921.28	5.92403
1922.76	5.91881
1924.25	5.03076
1925.74	4.7277
1927.22	4.32879
1928.71	4.68498
1930.2	4.80404
1931.68	5.31749
1933.17	5.01861
1934.65	4.67032
1936.14	3.61466
1937.62	2.64929
1939.11	2.16381
1940.59	2.47133
1942.08	2.34379
1943.56	2.25458
1945.04	2.41902
1946.53	2.51357
1948.01	2.56004
1949.49	2.50089
1950.97	2.25188
1952.45	1.84496
1953.94	1.96947
1955.42	2.09122
1956.9	2.003
1958.38	1.56922
1959.86	2.28216
1961.34	2.8205
1962.82	2.79512
1964.3	3.41367
1965.78	3.48534
1967.26	3.37444
1968.74	2.33921
1970.22	1.71374
1971.69	1.51314
1973.17	0.686797
1974.65	1.0365
1976.13	0.828639
1977.61	1.00467
1979.08	1.03519
1980.56	1.95966
1982.03	2.17554
1983.51	2.78256
1984.99	2.76083
1986.46	2.38637
1987.94	2.20684
1989.41	3.14323
1990.89	2.93242
1992.36	2.20815
1993.84	2.2378
1995.31	1.98625
1996.78	1.25719
1998.26	0.700523
1999.73	0.793468
2001.2	0.856513
2002.68	0.955553
2004.15	1.11015
2005.62	0.748188
2007.09	0.00235934
2008.56	0.0705357
2010.04	-0.458946
2011.51	-0.10498
2012.98	0.670715
2014.45	0.679226
2015.92	0.62382
2017.39	1.40122
2018.86	0.882577
2020.33	0.582863
2021.8	0.345023
2023.27	-0.408606
2024.74	-0.350463
2026.2	-0.411361
2027.67	-0.337916
2029.14	-0.187372
2030.61	0.164925
2032.07	0.704212
2033.54	1.32703
2035.01	1.41308
2036.47	1.31197
2037.94	1.56598
2039.41	1.83217
2040.87	2.26818
2042.34	3.1588
2043.8	3.66034
2045.27	4.11101
2046.73	4.29336
2048.2	5.39077
2049.66	6.75324
2051.12	7.76177
2052.59	8.79838
2054.05	9.82277
2055.51	9.93062
2056.98	10.5145
2058.44	10.7074
2059.9	11.1134
2061.36	12.0043
2062.82	13.0454
2064.29	12.7019
2065.75	13.0651
2067.21	13.6184
2068.67	14.2812
2070.13	14.981
2071.59	15.8776
2073.05	16.6737
2074.51	16.6909
2075.97	17.1846
2077.43	17.3644
2078.88	17.5318
2080.34	18.7965
2081.8	19.5008
2083.26	19.9788
2084.72	20.8611
2086.17	22.0892
2087.63	22.3388
2089.09	23.7236
2090.54	24.7605
2092	25.0998
2093.46	25.9314
2094.91	27.2244
2096.37	28.1042
2097.82	29.2551
2099.28	30.1238
2100.73	31.6478
2102.19	33.8777
2103.64	34.8522
2105.09	35.6745
2106.55	36.1284
2108	37.2919
2109.46	38.5529
2110.91	39.5943
2112.36	41.4588
2113.81	43.2378
2115.27	44.7111
2116.72	45.4134
2118.17	46.2006
2119.62	47.8512
2121.07	48.5001
2122.52	49.6603
2123.97	50.3139
2125.42	51.1865
2126.87	52.0978
2128.32	53.2159
2129.77	54.4912
2131.22	55.4861
2132.67	56.7089
2134.12	58.396
2135.57	59.6579
2137.01	60.3123
