#Acq. time (s)=	45
#Accumulations=	2
#Range (cm-¹)=	200...3150
#Windows=	2
#Auto scanning=	Off
#Autofocus=	Off
#Macrospot=	Off
#AutoExposure=	Off
#Spike filter=	Multiple accum.
#Delay time (s)=	0
#Binning=	1
#Readout mode=	Signal
#DeNoise=	Off
#ICS correction=	On
#Dark correction=	Off
#Inst. Process=	Off
#Detector Gain=	Best Dynamic Range
#Detector ADC=	20 kHz       
#Detector temperature (°C)=	-69.85
#Instrument=	LabRAM HR Evol
#Detector=	Synapse
#Objective=	x100
#Grating=	600 gr/mm
#ND Filter=	100%
#Laser (nm)=	532 
#Hole=	100.021
#Range=	Auto
#Laser Pol.=	No
#Raman. Pol.=	No
#Laser Pol. (°)=	-0.0007625
#Raman Pol. (°)=	89.9995
#Collection=	Microscope
#StageXY=	Marzhauser
#StageZ=	Marzhauser
#X (µm)=	28316
#Y (µm)=	-3288.7
#Z (µm)=	1040.45
#Full time(mm:ss)=	3:19
#Project=	
#Sample=	
#Site=	
#Title=	Mb_50_18_26_2x_45s_532 nm_x100_100%_600 gr_mm
#Remark=	
#Date=	12.07.2022 12:47
#Acquired=	12.07.2022 12:47:34
#Base:Fit=	10.08.2022 10:49:18
#Base:Sub=	10.08.2022 10:49:30
#Filter:Polynom=	16.08.2022 10:14:59
#AxisType[0]=Intens
#AxisUnit[0]=Cnt
#AxisType[1]=Spectr
#AxisUnit[1]=1/cm
200.388	119.257
202.204	115.406
204.019	113.194
205.832	109.768
207.646	106.937
209.459	104.541
211.274	102.867
213.087	100.825
214.899	98.2884
216.711	95.0766
218.524	91.7064
220.335	87.3225
222.146	85.1103
223.956	82.0178
225.766	79.2447
227.576	75.9871
229.388	71.6307
231.197	68.5542
233.005	66.492
234.813	64.5307
236.621	62.895
238.429	61.1932
240.236	59.3615
242.045	58.1377
243.852	57.3111
245.658	55.8682
247.464	54.2532
249.269	53.6376
251.074	52.2395
252.879	50.4541
254.683	50.3294
256.487	50.3276
258.291	49.1392
260.094	46.1569
261.897	42.9906
263.702	41.165
265.504	38.898
267.306	36.6003
269.108	35.235
270.909	33.7914
272.71	31.8878
274.511	30.413
276.311	28.4554
278.111	25.9062
279.91	25.012
281.709	22.9235
283.508	23.6672
285.306	23.5205
287.105	23.9622
288.9	23.4276
290.698	24.7607
292.495	26.9288
294.291	29.5258
296.088	31.568
297.884	34.5973
299.679	36.6963
301.475	38.5379
303.27	39.2272
305.064	40.7414
306.858	42.0004
308.652	43.6925
310.444	45.0199
312.237	47.8303
314.03	48.8095
315.822	50.6195
317.615	50.162
319.406	51.5099
321.198	52.9141
322.987	53.4803
324.778	53.8054
326.568	53.0087
328.358	52.2157
330.148	50.7681
331.935	48.1044
333.724	45.9394
335.513	42.2729
337.301	39.046
339.089	37.1893
340.875	34.5885
342.662	32.8336
344.449	32.9854
346.236	32.1031
348.02	33.6512
349.806	36.6199
351.592	40.4917
353.375	47.3864
355.16	52.6865
356.944	59.6212
358.728	69.3003
360.51	77.963
362.294	86.8237
364.077	94.8705
365.858	102.09
367.64	110.494
369.422	118.987
371.202	127.113
372.983	136.89
374.764	143.981
376.543	151.521
378.324	158.653
380.102	165.739
381.881	170.664
383.661	175.675
385.438	178.859
387.216	182.744
388.993	184.479
390.771	184.36
392.548	182.74
394.324	181.841
396.101	179.074
397.875	175.758
399.651	171.791
401.425	166.768
403.201	158.238
404.974	150.331
406.749	140.112
408.524	130.746
410.296	120.345
412.07	109.103
413.841	97.9193
415.614	85.2188
417.385	73.8069
419.156	59.8091
420.928	48.038
422.698	38.5892
424.469	28.1853
426.238	20.1095
428.009	12.7313
429.777	6.55872
431.548	0.866488
433.315	-1.04497
435.083	-4.06511
436.852	-4.59828
438.618	-6.45864
440.387	-5.47074
442.153	-4.16058
443.919	-3.94676
445.686	-1.43347
447.451	-0.672441
449.218	-1.06413
450.982	-0.68836
452.746	-1.10053
454.512	-0.421826
456.275	0.942187
458.038	1.23161
459.803	3.42158
461.565	5.31348
463.327	5.57415
465.091	6.75084
466.852	7.59287
468.613	8.11078
470.374	9.32853
472.136	11.0185
473.896	12.7583
475.655	16.1396
477.415	20.0085
479.176	23.9936
480.934	30.1174
482.692	37.6787
484.45	44.3395
486.21	51.3054
487.967	60.2705
489.724	67.7547
491.481	76.7158
493.237	86.7006
494.995	97.2141
496.75	106.847
498.506	117.333
500.26	125.19
502.015	133.735
503.771	141.302
505.525	148.726
507.279	154.529
509.032	161.483
510.785	168.105
512.537	171.594
514.289	174.585
516.041	177.946
517.793	181.313
519.546	181.654
521.297	184.531
523.047	183.839
524.797	182.949
526.547	183.556
528.297	182.133
530.046	179.289
531.795	175.023
533.543	168.74
535.291	161.639
537.039	154.855
538.787	147.905
540.534	139.261
542.281	130.831
544.027	122.794
545.773	113.167
547.519	104.648
549.264	93.0675
551.01	82.5558
552.754	73.2645
554.499	64.2137
556.243	55.9509
557.987	47.9349
559.73	42.2091
561.474	37.0172
563.216	33.2351
564.959	30.2292
566.701	29.0664
568.441	27.9227
570.182	26.8996
571.923	27.1864
573.664	29.5998
575.405	32.7232
577.145	34.2903
578.885	35.4305
580.624	36.2843
582.361	38.458
584.1	38.7139
585.839	40.135
587.577	41.3012
589.315	43.3219
591.052	44.442
592.787	44.8328
594.524	46.2194
596.26	47.5987
597.997	49.6775
599.732	49.6433
601.466	50.844
603.201	51.1101
604.936	50.5964
606.67	51.4723
608.403	52.6196
610.136	51.8332
611.87	51.8651
613.603	52.5522
615.334	50.7563
617.067	50.1129
618.799	47.2317
620.529	44.6536
622.26	42.7446
623.991	41.5906
625.72	39.5191
627.451	36.6671
629.181	34.4753
630.909	33.1823
632.638	29.0068
634.368	26.8009
636.095	22.9216
637.823	21.9343
639.551	19.8216
641.277	17.9064
643.005	15.1398
644.73	11.6926
646.457	11.0829
648.184	8.82615
649.908	9.28109
651.634	8.60923
653.357	7.93091
655.083	6.27906
656.806	5.39267
658.53	5.40151
660.253	5.80562
661.977	3.2151
663.7	2.03174
665.422	0.202754
667.145	1.96071
668.865	2.27907
670.588	2.68959
672.308	2.4586
674.027	3.65709
675.749	3.65519
677.468	5.13202
679.188	6.35779
680.907	10.2356
682.627	12.8412
684.345	13.8932
686.064	14.7641
687.781	16.4406
689.498	18.2347
691.216	20.8286
692.932	24.2076
694.65	24.6223
696.366	26.793
698.081	29.9089
699.797	31.8883
701.512	33.7995
703.228	35.2813
704.942	36.0544
706.655	36.7148
708.371	39.0282
710.083	41.3597
711.796	40.7495
713.51	42.1354
715.222	42.8526
716.934	42.6217
718.645	42.0424
720.358	43.0137
722.068	42.2088
723.779	41.0608
725.49	39.268
727.2	39.2745
728.909	38.1509
730.618	39.5362
732.329	41.7262
734.037	44.1302
735.745	50.2157
737.453	56.8808
739.16	66.5683
740.869	77.69
742.576	91.299
744.282	105.341
745.988	122.039
747.694	138.023
749.401	155.665
751.107	171.621
752.811	188.737
754.516	201.516
756.22	214.706
757.924	227.026
759.627	240.058
761.332	251.644
763.035	261.649
764.738	270.676
766.44	278.55
768.142	283.27
769.843	286.623
771.544	289.97
773.245	292.436
774.946	292.194
776.646	291.833
778.346	290.5
780.046	288.118
781.745	284.926
783.444	279.938
785.143	272.525
786.841	265.386
788.539	257.311
790.237	246.97
791.934	235.055
793.631	224.626
795.328	210.726
797.024	195.835
798.72	182.627
800.416	168.601
802.112	153.548
803.807	140.567
805.502	126.154
807.196	111.415
808.89	97.8526
810.584	87.0672
812.278	77.5229
813.971	68.0827
815.664	62.2455
817.354	57.7392
819.047	55.6782
820.739	55.0975
822.43	54.7094
824.122	56.91
825.813	58.8512
827.503	61.9675
829.192	62.9558
830.882	64.8664
832.571	65.7633
834.261	65.7901
835.95	64.572
837.637	63.7483
839.325	61.3291
841.013	61.6559
842.701	61.6758
844.389	61.2798
846.074	59.5048
847.761	57.7769
849.447	57.7408
851.131	55.1414
852.817	53.8233
854.503	53.627
856.188	53.0416
857.871	52.1751
859.556	51.5694
861.24	51.3048
862.922	50.3246
864.606	49.8653
866.289	47.8255
867.97	47.5666
869.653	47.1665
871.336	45.1507
873.016	43.9676
874.698	41.3437
876.379	40.391
878.058	39.4256
879.739	37.7275
881.418	36.7079
883.098	37.3747
884.778	37.581
886.456	36.0724
888.135	35.8003
889.812	32.2136
891.49	32.1274
893.167	30.4654
894.845	28.2227
896.523	26.0116
898.198	25.9057
899.875	26.8575
901.55	26.3534
903.226	25.5596
904.901	26.1562
906.576	26.7517
908.25	28.729
909.925	28.2194
911.598	29.1079
913.271	27.8253
914.945	28.1459
916.617	28.3148
918.291	27.9797
919.962	27.8707
921.635	29.1775
923.306	29.5778
924.978	30.7276
926.648	30.9034
928.318	30.264
929.989	29.4194
931.659	30.3881
933.328	30.2392
934.998	29.9438
936.666	30.789
938.336	31.0344
940.004	29.9451
941.671	27.561
943.34	25.2843
945.007	23.6779
946.673	21.7645
948.339	21.9634
950.007	20.8051
951.672	20.1587
953.337	18.0816
955.004	16.1965
956.669	15.5805
958.333	11.9603
959.997	10.8442
961.662	9.29485
963.326	9.06764
964.989	8.3789
966.651	8.87537
968.315	6.85813
969.977	5.72726
971.639	6.43309
973.301	4.59585
974.962	5.66154
976.624	4.71507
978.285	4.75049
979.945	6.09112
981.605	7.8347
983.264	8.30542
984.924	7.0749
986.583	8.40004
988.243	9.06753
989.901	10.9862
991.56	13.0345
993.217	16.7948
994.875	21.9434
996.532	27.7956
998.188	36.598
999.845	46.715
1001.5	59.1991
1003.16	71.5427
1004.81	84.8338
1006.47	98.8109
1008.12	113.576
1009.78	126.458
1011.43	139.463
1013.09	152.389
1014.74	166.833
1016.39	179.533
1018.05	191.831
1019.7	202.518
1021.35	211.849
1023	221.12
1024.65	228.217
1026.31	236.945
1027.96	244.616
1029.61	250.29
1031.26	256.87
1032.91	257.854
1034.56	260.01
1036.21	259.796
1037.86	257.252
1039.51	254.014
1041.16	249.827
1042.8	246.112
1044.45	241.472
1046.1	235.597
1047.75	229.054
1049.39	222.631
1051.04	217.876
1052.69	213.113
1054.33	207.02
1055.98	200.004
1057.62	194.595
1059.27	189.65
1060.91	185.106
1062.56	180.879
1064.2	177.001
1065.85	173.794
1067.49	170.335
1069.13	171.013
1070.77	169.478
1072.42	171.477
1074.06	173.316
1075.7	175.914
1077.34	178.633
1078.98	182.964
1080.62	187.307
1082.27	191.092
1083.91	194.284
1085.55	196.95
1087.18	199.717
1088.82	202.238
1090.46	202.115
1092.1	202.347
1093.74	202.582
1095.38	202.33
1097.02	203.385
1098.65	200.967
1100.29	198.557
1101.93	194.441
1103.56	190.06
1105.2	184.653
1106.84	177.766
1108.47	171.857
1110.11	163.584
1111.74	155.551
1113.38	146.985
1115.01	137.252
1116.64	128.11
1118.28	117.764
1119.91	107.217
1121.54	98.1666
1123.18	89.4924
1124.81	80.7199
1126.44	75.4248
1128.07	69.8223
1129.7	66.8669
1131.33	63.7514
1132.97	62.5464
1134.6	59.6324
1136.23	57.9805
1137.86	56.3201
1139.49	54.464
1141.11	55.4395
1142.74	55.1239
1144.37	53.1042
1146	52.1121
1147.63	51.7271
1149.26	50.2641
1150.88	50.86
1152.51	48.5462
1154.14	48.0765
1155.76	47.6237
1157.39	45.7674
1159.01	46.7891
1160.64	46.8623
1162.27	46.8343
1163.89	46.5856
1165.51	47.7483
1167.14	48.3544
1168.76	50.4121
1170.39	49.7431
1172.01	49.9527
1173.63	51.3006
1175.25	52.9381
1176.88	55.1786
1178.5	57.1395
1180.12	56.4076
1181.74	58.1267
1183.36	57.8232
1184.98	58.8407
1186.6	59.8342
1188.22	61.7834
1189.84	62.0306
1191.46	62.7551
1193.08	62.7328
1194.7	63.5959
1196.32	64.5404
1197.94	64.7986
1199.55	65.9696
1201.17	67.0076
1202.79	67.8239
1204.41	68.3475
1206.02	69.8337
1207.64	72.3028
1209.25	74.3966
1210.87	76.4318
1212.48	76.9234
1214.1	80.4936
1215.71	82.3918
1217.33	83.8251
1218.94	85.0673
1220.56	86.2815
1222.17	88.5343
1223.79	88.2709
1225.4	90.4222
1227.01	93.331
1228.62	96.9517
1230.23	98.297
1231.85	99.1201
1233.46	99.8252
1235.07	101.961
1236.68	104.894
1238.29	106.409
1239.9	107.731
1241.51	108.283
1243.12	109.269
1244.73	110.062
1246.34	111.665
1247.94	110.982
1249.55	111.777
1251.16	112.347
1252.77	114.786
1254.37	117.29
1255.98	119.3
1257.59	120.637
1259.2	122.701
1260.8	123.832
1262.41	126.349
1264.01	126.467
1265.62	128.809
1267.22	130.97
1268.83	133.2
1270.43	136.113
1272.03	138.855
1273.64	141.746
1275.24	145.997
1276.85	148.696
1278.45	151.316
1280.05	154.881
1281.65	157.874
1283.25	159.344
1284.85	162.145
1286.46	166.066
1288.06	168.275
1289.66	171.043
1291.26	172.061
1292.86	173.736
1294.46	175.904
1296.06	176.362
1297.66	177.798
1299.25	179.092
1300.85	179.826
1302.45	180.502
1304.05	182.58
1305.65	184.367
1307.24	184.293
1308.84	184.556
1310.43	183.181
1312.03	181.557
1313.63	182.04
1315.22	180.407
1316.82	177.825
1318.41	174.201
1320.01	170.196
1321.6	168.249
1323.2	165.725
1324.79	162.343
1326.38	159.37
1327.98	155.685
1329.57	153.219
1331.16	152.269
1332.76	149.649
1334.35	147.365
1335.94	144.064
1337.53	141.934
1339.12	140.475
1340.71	138.024
1342.3	134.879
1343.89	133.484
1345.48	132.672
1347.07	131.436
1348.66	130.14
1350.25	128.863
1351.84	125.845
1353.43	124.888
1355.01	122.822
1356.6	121.21
1358.19	119.332
1359.77	118.732
1361.36	117.512
1362.95	114.858
1364.53	114.3
1366.12	112.348
1367.71	109.512
1369.29	108.57
1370.88	106.165
1372.46	106.223
1374.04	104.701
1375.63	102.896
1377.21	102.313
1378.8	100.521
1380.38	99.4063
1381.96	98.1376
1383.54	97.4117
1385.13	96.0788
1386.71	93.8992
1388.29	92.2021
1389.87	89.6636
1391.45	85.7871
1393.03	83.4203
1394.61	80.918
1396.19	78.7624
1397.77	78.9892
1399.35	79.3865
1400.93	80.8194
1402.51	82.4644
1404.09	84.6135
1405.67	87.7677
1407.24	91.4507
1408.82	95.4348
1410.4	101.225
1411.98	106.948
1413.55	113.471
1415.13	120.353
1416.71	128.255
1418.28	136.872
1419.86	145.498
1421.43	153.411
1423.01	165.323
1424.58	174.546
1426.16	183.308
1427.73	192.178
1429.31	201.783
1430.88	210.013
1432.45	218.239
1434.02	226.282
1435.6	235.465
1437.17	242.329
1438.74	248.708
1440.31	253.637
1441.88	256.111
1443.45	259.1
1445.03	260.587
1446.6	261.487
1448.17	262.897
1449.74	261.899
1451.3	260.97
1452.87	257.424
1454.44	255.573
1456.01	253.293
1457.58	249.611
1459.15	244.546
1460.72	239.83
1462.28	234.538
1463.85	230.183
1465.42	222.765
1466.98	215.209
1468.55	207.757
1470.12	200.871
1471.68	195.294
1473.25	190.225
1474.81	183.007
1476.38	177.723
1477.94	170.367
1479.51	164.532
1481.07	159.621
1482.63	154.886
1484.2	149.861
1485.76	146.584
1487.32	142.114
1488.88	138.416
1490.45	135.308
1492.01	131.514
1493.57	127.205
1495.13	124.026
1496.69	121.645
1498.25	117.595
1499.81	114.528
1501.37	112.006
1502.93	107.759
1504.49	104.318
1506.05	100.697
1507.61	98.0812
1509.17	94.7933
1510.73	92.553
1512.28	90.0136
1513.84	87.5894
1515.4	84.1481
1516.96	80.199
1518.51	77.4734
1520.07	74.3986
1521.63	72.4766
1523.18	70.5912
1524.74	68.3972
1526.29	67.3432
1527.85	65.6409
1529.4	63.6775
1530.96	64.6629
1532.51	65.1319
1534.06	65.1843
1535.62	65.4227
1537.17	65.4253
1538.72	66.51
1540.28	66.5043
1541.83	67.0393
1543.38	65.8098
1544.93	66.636
1546.48	70.4694
1548.03	72.5153
1549.59	73.9894
1551.14	75.3798
1552.69	74.3796
1554.24	76.5404
1555.79	78.2753
1557.34	80.028
1558.88	80.6149
1560.43	82.2768
1561.98	83.6308
1563.53	85.8583
1565.08	86.7533
1566.62	89.1811
1568.17	92.6808
1569.72	96.6668
1571.27	100.146
1572.81	104.619
1574.36	109.363
1575.9	113.03
1577.45	119.737
1579	123.646
1580.54	128.887
1582.09	134.436
1583.63	138.316
1585.17	145.015
1586.72	150.791
1588.26	153.438
1589.8	156.333
1591.35	159.275
1592.89	162.164
1594.43	163.846
1595.97	166.058
1597.52	167.229
1599.06	168.37
1600.6	168.825
1602.14	169.461
1603.68	170.554
1605.22	169.603
1606.76	169.361
1608.3	169.338
1609.84	167.969
1611.38	167.763
1612.92	167.31
1614.46	166.815
1615.99	165.524
1617.53	165.982
1619.07	166.383
1620.61	166.495
1622.14	167.874
1623.68	169.122
1625.22	167.586
1626.75	166.939
1628.29	166.092
1629.82	165.439
1631.36	166.46
1632.9	166.749
1634.43	168.369
1635.96	169.744
1637.5	172.161
1639.03	174.705
1640.57	177.561
1642.1	179.813
1643.63	183.477
1645.16	185.689
1646.7	188.661
1648.23	190.184
1649.76	192.521
1651.29	193.456
1652.82	194.706
1654.36	195.858
1655.89	195.397
1657.42	195.567
1658.95	194.855
1660.48	192.326
1662.01	190.394
1663.53	186.652
1665.06	181.567
1666.59	177.25
1668.12	171.839
1669.65	166.203
1671.18	159.124
1672.7	151.828
1674.23	145.034
1675.76	138.68
1677.29	131.695
1678.81	124.588
1680.34	116.321
1681.86	108.262
1683.39	101.282
1684.91	94.8287
1686.44	89.6276
1687.96	82.4696
1689.49	76.6245
1691.01	70.2828
1692.54	63.7526
1694.06	57.9679
1695.58	52.1591
1697.11	46.9553
1698.63	43.9113
1700.15	39.4335
1701.67	34.0046
1703.2	30.3928
1704.72	28.0633
1706.24	25.2005
1707.76	22.4938
1709.28	20.6601
1710.8	17.9844
1712.32	13.8555
1713.84	12.9525
1715.36	11.5754
1716.88	10.426
1718.4	9.2437
1719.91	8.25687
1721.43	7.69829
1722.95	8.23953
1724.47	8.1165
1725.99	7.75192
1727.5	7.96946
1729.02	9.2637
1730.54	9.19764
1732.05	9.05073
1733.57	8.80853
1735.09	8.58045
1736.6	8.60689
1738.12	8.69242
1739.63	7.9095
1741.15	6.92213
1742.66	6.36169
1744.18	6.65887
1745.69	6.3094
1747.2	5.96869
1748.72	5.9977
1750.23	6.2801
1751.74	6.0817
1753.25	4.8131
1754.77	4.34004
1756.28	3.1232
1757.79	3.08465
1759.3	2.58791
1760.81	2.81447
1762.32	2.12076
1763.83	0.665371
1765.34	1.10532
1766.85	0.0815743
1768.36	-0.2734
1769.87	0.23672
1771.38	0.294139
1772.89	1.01522
1774.4	0.917159
1775.91	-1.23227
1777.41	-1.84583
1778.92	-0.603784
1780.43	0.0844172
1781.94	-0.615714
1783.44	-0.388824
1784.95	-0.347824
1786.45	-0.929812
1787.96	-1.04937
1789.47	0.111564
1790.97	0.369979
1792.48	1.60314
1793.98	2.48676
1795.48	3.14086
1796.99	3.85619
1798.49	3.86786
1800	4.37246
1801.5	3.99824
1803	4.23116
1804.51	4.27889
1806.01	4.29231
1807.51	4.20507
1809.01	4.67135
1810.51	4.79504
1812.02	5.08993
1813.52	5.17035
1815.02	5.48997
1816.52	6.4048
1818.02	6.89063
1819.52	6.65411
1821.02	5.92319
1822.52	5.68679
1824.02	5.44913
1825.51	5.78111
1827.01	5.12712
1828.51	4.1438
1830.01	4.70342
1831.51	4.38126
1833	4.82548
1834.5	5.44901
1836	5.83132
1837.5	6.25438
1838.99	6.57614
1840.49	7.00566
1841.98	7.11476
1843.48	7.11798
1844.97	7.28536
1846.47	7.00842
1847.96	6.70372
1849.46	5.85099
1850.95	5.3841
1852.45	5.72744
1853.94	6.45173
1855.43	6.34311
1856.92	4.97202
1858.42	5.33763
1859.91	5.51392
1861.4	5.59117
1862.89	5.45561
1864.39	5.92122
1865.88	6.27614
1867.37	7.1494
1868.86	7.10394
1870.35	6.79434
1871.84	6.08651
1873.33	5.70828
1874.82	5.40457
1876.31	5.54808
1877.8	5.8081
1879.29	6.61438
1880.77	7.01591
1882.26	6.55487
1882.51	6.95195
1884	7.63045
1885.5	7.27913
1886.99	7.3545
1888.48	6.75378
1889.98	6.25393
1891.47	5.79042
1892.97	6.78235
1894.46	7.44976
1895.95	7.35427
1897.44	6.96794
1898.93	7.14245
1900.42	6.99083
1901.92	6.81014
1903.41	7.91304
1904.9	7.83995
1906.39	7.7477
1907.88	8.41024
1909.37	8.47449
1910.86	7.83065
1912.35	7.569
1913.84	7.07976
1915.32	7.13968
1916.81	6.76714
1918.3	7.27176
1919.79	6.98649
1921.28	6.17462
1922.76	6.67593
1924.25	6.24421
1925.74	6.83257
1927.22	7.5838
1928.71	7.11646
1930.2	5.95836
1931.68	6.71925
1933.17	6.05869
1934.65	5.68296
1936.14	5.63775
1937.62	5.87994
1939.11	6.30005
1940.59	7.16962
1942.08	6.77543
1943.56	6.7839
1945.04	6.95088
1946.53	7.46679
1948.01	7.98701
1949.49	8.4793
1950.97	8.56519
1952.45	9.26571
1953.94	9.66232
1955.42	9.05892
1956.9	10.1046
1958.38	10.3727
1959.86	9.33801
1961.34	9.68838
1962.82	10.1865
1964.3	10.5663
1965.78	11.3317
1967.26	11.9002
1968.74	11.4586
1970.22	10.7154
1971.69	10.6399
1973.17	11.7059
1974.65	11.6888
1976.13	12.5005
1977.61	12.9405
1979.08	12.29
1980.56	12.7857
1982.03	13.1822
1983.51	12.9413
1984.99	12.2244
1986.46	11.942
1987.94	12.7718
1989.41	13.4686
1990.89	14.0912
1992.36	14.2563
1993.84	14.0283
1995.31	13.4001
1996.78	13.8726
1998.26	12.9435
1999.73	12.6957
2001.2	11.5297
2002.68	10.6827
2004.15	11.3144
2005.62	11.7595
2007.09	11.6356
2008.56	11.4493
2010.04	11.665
2011.51	11.4964
2012.98	12.4544
2014.45	12.5689
2015.92	12.2711
2017.39	11.9084
2018.86	11.874
2020.33	11.7678
2021.8	12.1936
2023.27	12.6955
2024.74	12.9324
2026.2	12.9392
2027.67	12.9565
2029.14	12.8365
2030.61	13.4001
2032.07	13.0907
2033.54	13.791
2035.01	14.8666
2036.47	16.6879
2037.94	17.9752
2039.41	19.72
2040.87	21.0996
2042.34	23.2609
2043.8	24.1373
2045.27	26.0385
2046.73	27.9719
2048.2	29.3924
2049.66	31.2948
2051.12	31.7599
2052.59	33.6765
2054.05	36.6854
2055.51	38.1364
2056.98	39.6294
2058.44	41.4994
2059.9	43.4411
2061.36	45.8779
2062.82	47.2901
2064.29	49.1808
2065.75	49.926
2067.21	51.8612
2068.67	53.2799
2070.13	54.5659
2071.59	55.606
2073.05	56.8216
2074.51	58.111
2075.97	60.0817
2077.43	62.2549
2078.88	62.4353
2080.34	64.4372
2081.8	65.5645
2083.26	66.7905
2084.72	68.5837
2086.17	70.5083
2087.63	71.4233
2089.09	73.1167
2090.54	75.1223
2092	77.1426
2093.46	78.8251
2094.91	81.5289
2096.37	83.3094
2097.82	85.272
2099.28	87.8338
2100.73	90.9199
2102.19	93.8204
2103.64	97.2881
2105.09	101.181
2106.55	105.618
2108	109.995
2109.46	114.677
2110.91	118.794
2112.36	122.537
2113.81	126.465
2115.27	130.775
2116.72	134.917
2118.17	139.794
2119.62	144.585
2121.07	149.888
2122.52	154.251
2123.97	159.923
2125.42	166.133
2126.87	171.399
2128.32	176.931
2129.77	182.51
2131.22	187.235
2132.67	192.343
2134.12	197.915
