#Acq. time (s)=	45
#Accumulations=	2
#Range (cm-¹)=	200...3150
#Windows=	2
#Auto scanning=	Off
#Autofocus=	Off
#Macrospot=	Off
#AutoExposure=	Off
#Spike filter=	Multiple accum.
#Delay time (s)=	0
#Binning=	1
#Readout mode=	Signal
#DeNoise=	Off
#ICS correction=	On
#Dark correction=	Off
#Inst. Process=	Off
#Detector Gain=	Best Dynamic Range
#Detector ADC=	20 kHz       
#Detector temperature (°C)=	-70.08
#Instrument=	LabRAM HR Evol
#Detector=	Synapse
#Objective=	x100
#Grating=	600 gr/mm
#ND Filter=	100%
#Laser (nm)=	532 
#Hole=	100.021
#Range=	Auto
#Laser Pol.=	No
#Raman. Pol.=	No
#Laser Pol. (°)=	-0.0007625
#Raman Pol. (°)=	89.9995
#Collection=	Microscope
#StageXY=	Marzhauser
#StageZ=	Marzhauser
#X (µm)=	28300.2
#Y (µm)=	-3322
#Z (µm)=	1040.6
#Full time(mm:ss)=	3:18
#Project=	
#Sample=	
#Site=	
#Title=	Mb_50_18_21_2x_45s_532 nm_x100_100%_600 gr_mm
#Remark=	
#Date=	12.07.2022 12:24
#Acquired=	12.07.2022 12:24:58
#Base:Fit=	10.08.2022 10:49:18
#Base:Sub=	10.08.2022 10:49:30
#Filter:Polynom=	16.08.2022 10:14:59
#AxisType[0]=Intens
#AxisUnit[0]=Cnt
#AxisType[1]=Spectr
#AxisUnit[1]=1/cm
200.388	121.757
202.204	114.623
204.019	110.628
205.832	106.182
207.646	101.54
209.459	97.2584
211.274	93.0179
213.087	89.9173
214.899	87.1967
216.711	84.0689
218.524	78.2276
220.335	75.3751
222.146	73.8198
223.956	72.6407
225.766	70.9058
227.576	67.4048
229.388	65.1301
231.197	60.8335
233.005	56.814
234.813	53.0019
236.621	49.0856
238.429	45.9309
240.236	43.6969
242.045	41.3354
243.852	39.0078
245.658	36.6475
247.464	35.3314
249.269	33.4023
251.074	30.584
252.879	28.0405
254.683	25.9797
256.487	22.6059
258.291	22.5009
260.094	22.2618
261.897	22.1587
263.702	20.9469
265.504	19.7552
267.306	19.0589
269.108	17.6866
270.909	16.3445
272.71	15.2931
274.511	14.566
276.311	12.5586
278.111	10.1886
279.91	7.49965
281.709	5.40352
283.508	4.46504
285.306	4.39009
287.105	3.7948
288.9	5.11275
290.698	6.50325
292.495	7.88594
294.291	8.04984
296.088	9.40162
297.884	11.9286
299.679	14.1025
301.475	16.7288
303.27	19.2175
305.064	20.9813
306.858	22.7334
308.652	24.3779
310.444	28.4118
312.237	30.9369
314.03	31.6962
315.822	31.4704
317.615	31.6241
319.406	32.3576
321.198	30.4087
322.987	32.4528
324.778	32.67
326.568	34.067
328.358	34.1244
330.148	34.3117
331.935	33.0352
333.724	31.7715
335.513	30.036
337.301	27.0736
339.089	23.3562
340.875	20.6567
342.662	20.0179
344.449	19.7588
346.236	21.0971
348.02	24.2822
349.806	26.3827
351.592	28.8241
353.375	32.2858
355.16	35.6079
356.944	42.1052
358.728	48.5456
360.51	55.3839
362.294	61.9409
364.077	69.3681
365.858	75.5965
367.64	83.0293
369.422	91.0199
371.202	99.2997
372.983	106.185
374.764	112.048
376.543	117.747
378.324	124.674
380.102	128.479
381.881	133.065
383.661	136.975
385.438	140.933
387.216	144.474
388.993	146.736
390.771	146.57
392.548	147.016
394.324	146.694
396.101	143.461
397.875	140.529
399.651	137.133
401.425	132.977
403.201	127.677
404.974	121.985
406.749	115.536
408.524	108.717
410.296	100.611
412.07	94.1573
413.841	83.6602
415.614	74.2539
417.385	63.182
419.156	53.3939
420.928	43.1484
422.698	33.7416
424.469	25.0647
426.238	16.6765
428.009	10.9761
429.777	6.1732
431.548	2.35813
433.315	-0.233245
435.083	-3.02903
436.852	-5.08686
438.618	-7.0626
440.387	-7.16141
442.153	-6.59951
443.919	-6.156
445.686	-3.9216
447.451	-3.90569
449.218	-3.59065
450.982	-3.6183
452.746	-3.06564
454.512	-2.69274
456.275	-0.856087
458.038	-1.15991
459.803	-1.09186
461.565	-0.830433
463.327	0.670215
465.091	1.1971
466.852	2.36113
468.613	2.05221
470.374	2.52662
472.136	4.58652
473.896	6.34324
475.655	9.24707
477.415	12.1262
479.176	15.7131
480.934	20.4413
482.692	24.5568
484.45	29.4548
486.21	36.6676
487.967	44.273
489.724	52.716
491.481	60.713
493.237	68.3332
494.995	76.8054
496.75	85.8098
498.506	93.8477
500.26	102.169
502.015	109.991
503.771	117.332
505.525	124.186
507.279	130.301
509.032	136.204
510.785	142.23
512.537	146.458
514.289	149.787
516.041	152.61
517.793	154.991
519.546	156.46
521.297	155.734
523.047	156.237
524.797	156.637
526.547	156.128
528.297	154.412
530.046	150.783
531.795	146.803
533.543	141.676
535.291	135.522
537.039	130.476
538.787	123.946
540.534	118.32
542.281	111.694
544.027	103.482
545.773	94.3273
547.519	86.7975
549.264	78.3265
551.01	69.8721
552.754	61.1806
554.499	53.6623
556.243	47.2091
557.987	40.1724
559.73	36.0726
561.474	32.6811
563.216	30.226
564.959	27.9017
566.701	26.1232
568.441	23.9396
570.182	23.8057
571.923	24.9415
573.664	26.2169
575.405	27.5252
577.145	29.8517
578.885	31.5689
580.624	32.4658
582.361	33.0851
584.1	34.2308
585.839	34.9747
587.577	35.249
589.315	35.5618
591.052	35.2598
592.787	35.8294
594.524	36.8867
596.26	38.2544
597.997	39.7502
599.732	39.8845
601.466	41.7961
603.201	42.721
604.936	43.6649
606.67	43.6601
608.403	44.0808
610.136	46.1284
611.87	45.3706
613.603	45.18
615.334	43.8937
617.067	42.7204
618.799	41.2237
620.529	39.7249
622.26	38.9106
623.991	37.6023
625.72	36.2948
627.451	35.2787
629.181	32.7724
630.909	30.4895
632.638	29.6977
634.368	28.2578
636.095	26.1508
637.823	24.7186
639.551	22.9535
641.277	21.9781
643.005	21.2304
644.73	19.7566
646.457	20.5933
648.184	20.5104
649.908	20.6545
651.634	19.3631
653.357	19.3989
655.083	19.9973
656.806	21.3525
658.53	21.8438
660.253	22.3714
661.977	22.8016
663.7	23.0326
665.422	22.4209
667.145	21.0321
668.865	20.6977
670.588	21.1889
672.308	20.2265
674.027	19.4504
675.749	20.3795
677.468	20.7013
679.188	22.2676
680.907	24.4943
682.627	25.7109
684.345	26.8721
686.064	27.7024
687.781	29.7661
689.498	30.5673
691.216	31.2286
692.932	32.0771
694.65	33.7396
696.366	33.5717
698.081	34.1957
699.797	34.4071
701.512	34.5509
703.228	35.5743
704.942	35.7119
706.655	37.1594
708.371	37.9459
710.083	37.4452
711.796	38.2509
713.51	37.5983
715.222	36.5608
716.934	35.8824
718.645	34.6373
720.358	33.3635
722.068	31.1771
723.779	29.7206
725.49	28.6582
727.2	27.7408
728.909	28.0352
730.618	29.0034
732.329	30.6824
734.037	34.0127
735.745	40.9819
737.453	47.7293
739.16	58.9059
740.869	70.3331
742.576	81.8744
744.282	94.7691
745.988	108.073
747.694	121.134
749.401	134.523
751.107	148.576
752.811	160.649
754.516	173.045
756.22	184.817
757.924	196.257
759.627	208.416
761.332	219.811
763.035	228.688
764.738	237.321
766.44	244.435
768.142	249.453
769.843	253.848
771.544	256.904
773.245	260.029
774.946	260.037
776.646	259.673
778.346	258.379
780.046	255.101
781.745	252.681
783.444	248.989
785.143	243.924
786.841	238.641
788.539	231.089
790.237	222.33
791.934	211.983
793.631	201.425
795.328	190.455
797.024	179.18
798.72	165.599
800.416	153.213
802.112	140.26
803.807	126.919
805.502	114.19
807.196	100.909
808.89	90.8938
810.584	81.0281
812.278	72.1719
813.971	66.8739
815.664	61.0582
817.354	57.4051
819.047	57.1937
820.739	56.3379
822.43	56.9417
824.122	57.8574
825.813	58.2295
827.503	58.8319
829.192	58.8171
830.882	59.3183
832.571	59.3831
834.261	59.8015
835.95	59.6463
837.637	59.1401
839.325	59.5835
841.013	57.5074
842.701	58.0006
844.389	57.242
846.074	55.2215
847.761	54.0096
849.447	50.9294
851.131	49.088
852.817	47.5904
854.503	44.9309
856.188	43.6085
857.871	42.1214
859.556	40.0076
861.24	39.2022
862.922	38.6999
864.606	38.5814
866.289	40.6801
867.97	39.0029
869.653	37.354
871.336	36.5754
873.016	35.6842
874.698	34.2944
876.379	31.659
878.058	31.9616
879.739	30.4773
881.418	28.2783
883.098	26.8534
884.778	26.0513
886.456	25.2691
888.135	23.1378
889.812	23.8732
891.49	23.2363
893.167	23.6548
894.845	23.4368
896.523	25.1578
898.198	24.9335
899.875	25.7865
901.55	25.8039
903.226	25.2469
904.901	24.5782
906.576	25.213
908.25	25.2697
909.925	25.3321
911.598	25.2458
913.271	25.3355
914.945	26.658
916.617	25.548
918.291	24.2028
919.962	23.6208
921.635	22.635
923.306	22.8999
924.978	22.382
926.648	23.2862
928.318	23.518
929.989	22.3013
931.659	21.7847
933.328	19.8565
934.998	20.1891
936.666	20.5387
938.336	19.4652
940.004	19.2468
941.671	18.7955
943.34	18.7733
945.007	17.7196
946.673	17.4794
948.339	16.1197
950.007	15.3146
951.672	12.9168
953.337	11.4964
955.004	9.68376
956.669	8.88574
958.333	7.07223
959.997	5.2165
961.662	4.02464
963.326	1.64742
964.989	1.11322
966.651	0.623188
968.315	1.25893
969.977	0.0313537
971.639	-0.732754
973.301	1.03323
974.962	0.347753
976.624	1.00272
978.285	0.342498
979.945	-0.316962
981.605	-2.97386
983.264	-4.36808
984.924	-8.39274
986.583	-10.0517
988.243	-10.0323
989.901	-9.76553
991.56	-8.85102
993.217	-6.48612
994.875	-1.92625
996.532	2.77418
998.188	8.41827
999.845	15.7115
1001.5	24.2212
1003.16	35.5942
1004.81	45.5872
1006.47	58.0458
1008.12	68.0739
1009.78	78.9724
1011.43	90.1607
1013.09	99.8347
1014.74	111.067
1016.39	120.523
1018.05	131.058
1019.7	141.836
1021.35	151.218
1023	159.989
1024.65	167.361
1026.31	173.893
1027.96	179.348
1029.61	186.256
1031.26	189.227
1032.91	192.224
1034.56	193.616
1036.21	194.751
1037.86	192.736
1039.51	191.788
1041.16	188.004
1042.8	183.15
1044.45	178.036
1046.1	171.535
1047.75	165.887
1049.39	159.766
1051.04	153.388
1052.69	147.011
1054.33	142.617
1055.98	137.011
1057.62	131.517
1059.27	125.731
1060.91	120.669
1062.56	115.705
1064.2	111.528
1065.85	108.388
1067.49	107.341
1069.13	108.167
1070.77	110.043
1072.42	111.148
1074.06	113.55
1075.7	117.784
1077.34	121.134
1078.98	124.027
1080.62	127.983
1082.27	130.497
1083.91	132.477
1085.55	135.441
1087.18	137.179
1088.82	139.479
1090.46	139.827
1092.1	141.209
1093.74	141.499
1095.38	141.48
1097.02	140.919
1098.65	139.259
1100.29	137.497
1101.93	134.344
1103.56	129.538
1105.2	124.422
1106.84	118.197
1108.47	112.221
1110.11	104.965
1111.74	98.2175
1113.38	89.3498
1115.01	81.8042
1116.64	73.7955
1118.28	64.7981
1119.91	54.6847
1121.54	47.2985
1123.18	38.9665
1124.81	31.0656
1126.44	23.2467
1128.07	18.6233
1129.7	15.9823
1131.33	12.754
1132.97	10.1519
1134.6	10.3311
1136.23	8.93155
1137.86	8.79425
1139.49	8.97786
1141.11	9.79564
1142.74	10.9933
1144.37	10.8161
1146	11.8017
1147.63	11.8356
1149.26	12.3222
1150.88	10.8583
1152.51	11.1523
1154.14	10.9936
1155.76	11.7855
1157.39	11.5206
1159.01	10.6595
1160.64	10.9828
1162.27	11.1782
1163.89	10.8506
1165.51	10.1945
1167.14	10.2541
1168.76	10.2657
1170.39	10.2642
1172.01	10.5433
1173.63	10.1126
1175.25	10.5136
1176.88	10.304
1178.5	10.5948
1180.12	8.19471
1181.74	6.89962
1183.36	7.07656
1184.98	7.06166
1186.6	6.46752
1188.22	5.31125
1189.84	4.77767
1191.46	5.40981
1193.08	6.83862
1194.7	7.72571
1196.32	7.35545
1197.94	7.94095
1199.55	8.75833
1201.17	8.64214
1202.79	9.64271
1204.41	8.94815
1206.02	10.2028
1207.64	11.5495
1209.25	14.4134
1210.87	15.5463
1212.48	16.0995
1214.1	18.1924
1215.71	20.0779
1217.33	21.3495
1218.94	23.9499
1220.56	25.6199
1222.17	27.4356
1223.79	28.4265
1225.4	29.8876
1227.01	31.9735
1228.62	33.3322
1230.23	36.1138
1231.85	38.5615
1233.46	41.5279
1235.07	42.6297
1236.68	43.401
1238.29	44.3392
1239.9	45.9108
1241.51	46.698
1243.12	46.5758
1244.73	46.6543
1246.34	46.6864
1247.94	47.71
1249.55	48.775
1251.16	49.8761
1252.77	51.347
1254.37	51.6431
1255.98	52.9663
1257.59	53.4295
1259.2	53.7049
1260.8	53.7956
1262.41	56.3865
1264.01	57.4608
1265.62	57.806
1267.22	58.0695
1268.83	60.7716
1270.43	64.1218
1272.03	67.5076
1273.64	68.8412
1275.24	70.671
1276.85	71.8912
1278.45	73.4818
1280.05	75.3076
1281.65	74.9052
1283.25	75.7159
1284.85	75.6869
1286.46	77.269
1288.06	78.6113
1289.66	78.438
1291.26	78.0906
1292.86	78.7194
1294.46	80.3553
1296.06	80.6706
1297.66	81.519
1299.25	82.177
1300.85	82.0865
1302.45	83.5052
1304.05	83.0182
1305.65	82.4153
1307.24	81.8566
1308.84	81.662
1310.43	81.4798
1312.03	80.2965
1313.63	79.0229
1315.22	78.4683
1316.82	76.9503
1318.41	76.3656
1320.01	74.5537
1321.6	72.8137
1323.2	71.3808
1324.79	69.9001
1326.38	68.6371
1327.98	67.9491
1329.57	67.3882
1331.16	66.1438
1332.76	65.0379
1334.35	63.6117
1335.94	63.241
1337.53	62.5971
1339.12	61.4895
1340.71	60.8105
1342.3	59.5607
1343.89	58.1588
1345.48	57.9056
1347.07	56.6888
1348.66	57.1038
1350.25	56.3091
1351.84	55.8776
1353.43	53.2777
1355.01	53.3345
1356.6	53.0234
1358.19	51.0691
1359.77	48.8762
1361.36	45.6206
1362.95	43.8648
1364.53	42.1346
1366.12	41.7365
1367.71	40.8375
1369.29	39.7068
1370.88	39.2929
1372.46	37.9304
1374.04	35.1457
1375.63	31.7346
1377.21	29.9022
1378.8	28.5753
1380.38	26.8125
1381.96	24.2283
1383.54	21.4293
1385.13	20.5463
1386.71	19.7189
1388.29	17.9461
1389.87	15.8087
1391.45	15.0254
1393.03	13.0922
1394.61	12.5458
1396.19	10.5471
1397.77	11.0536
1399.35	10.4553
1400.93	10.5678
1402.51	12.291
1404.09	14.2156
1405.67	17.6842
1407.24	21.3341
1408.82	25.1494
1410.4	28.8533
1411.98	33.0561
1413.55	37.8485
1415.13	43.0699
1416.71	48.9097
1418.28	54.7487
1419.86	61.1718
1421.43	67.8272
1423.01	74.3018
1424.58	81.6787
1426.16	89.861
1427.73	97.5033
1429.31	104.129
1430.88	111.065
1432.45	116.948
1434.02	123.252
1435.6	128.98
1437.17	132.625
1438.74	136.256
1440.31	141.083
1441.88	143.941
1443.45	147.154
1445.03	149.647
1446.6	150.006
1448.17	150.014
1449.74	148.98
1451.3	147.053
1452.87	146.553
1454.44	145.876
1456.01	144.808
1457.58	143.795
1459.15	141.042
1460.72	138.313
1462.28	136.443
1463.85	133.935
1465.42	129.725
1466.98	126.851
1468.55	123.956
1470.12	120.6
1471.68	115.968
1473.25	111.597
1474.81	107.469
1476.38	103.682
1477.94	100.016
1479.51	97.1434
1481.07	94.3653
1482.63	90.2848
1484.2	88.1383
1485.76	84.1724
1487.32	80.5542
1488.88	75.6836
1490.45	72.1951
1492.01	70.3681
1493.57	67.3749
1495.13	65.2983
1496.69	61.952
1498.25	58.618
1499.81	55.7063
1501.37	52.5516
1502.93	50.92
1504.49	47.2815
1506.05	42.1631
1507.61	39.1621
1509.17	36.284
1510.73	33.629
1512.28	29.9756
1513.84	27.5263
1515.4	24.1877
1516.96	21.599
1518.51	19.545
1520.07	16.4596
1521.63	14.7238
1523.18	12.801
1524.74	12.0315
1526.29	10.8995
1527.85	9.92189
1529.4	9.93615
1530.96	10.559
1532.51	10.8081
1534.06	11.2602
1535.62	11.5953
1537.17	11.5015
1538.72	13.1755
1540.28	14.7902
1541.83	16.6494
1543.38	16.8427
1544.93	18.8168
1546.48	18.2066
1548.03	18.9436
1549.59	19.5869
1551.14	20.571
1552.69	22.3375
1554.24	24.1847
1555.79	27.0658
1557.34	28.3136
1558.88	29.462
1560.43	30.8659
1561.98	32.1874
1563.53	33.2929
1565.08	36.2513
1566.62	37.2426
1568.17	40.3296
1569.72	43.4597
1571.27	44.8481
1572.81	47.7489
1574.36	49.0533
1575.9	52.0525
1577.45	54.6782
1579	56.3404
1580.54	58.7008
1582.09	59.5318
1583.63	62.185
1585.17	64.9028
1586.72	67.1869
1588.26	68.4549
1589.8	69.0954
1591.35	70.5777
1592.89	72.0966
1594.43	74.0941
1595.97	75.427
1597.52	76.6449
1599.06	78.0976
1600.6	79.3026
1602.14	79.6513
1603.68	78.686
1605.22	79.8697
1606.76	79.5073
1608.3	80.4664
1609.84	80.3459
1611.38	79.8027
1612.92	79.3854
1614.46	81.1009
1615.99	83.0758
1617.53	83.4859
1619.07	83.4646
1620.61	82.9631
1622.14	83.8331
1623.68	84.2295
1625.22	86.635
1626.75	87.0947
1628.29	88.9194
1629.82	91.5071
1631.36	94.4931
1632.9	95.2435
1634.43	95.9918
1635.96	97.9946
1637.5	101.157
1639.03	103.524
1640.57	106.382
1642.1	109.585
1643.63	110.191
1645.16	112.949
1646.7	113.525
1648.23	115.834
1649.76	117.005
1651.29	118.657
1652.82	119.366
1654.36	119.122
1655.89	118.561
1657.42	118.052
1658.95	117.247
1660.48	116.706
1662.01	113.659
1663.53	111.665
1665.06	109.177
1666.59	107.661
1668.12	105.856
1669.65	104.165
1671.18	101.958
1672.7	98.2635
1674.23	93.7233
1675.76	90.1115
1677.29	85.1739
1678.81	80.9091
1680.34	76.5163
1681.86	72.7756
1683.39	67.3385
1684.91	63.3046
1686.44	58.672
1687.96	54.9937
1689.49	50.9565
1691.01	47.678
1692.54	43.7785
1694.06	40.3556
1695.58	37.7512
1697.11	35.5249
1698.63	33.153
1700.15	30.5591
1701.67	28.8352
1703.2	26.3161
1704.72	25.3557
1706.24	23.532
1707.76	21.0149
1709.28	19.1159
1710.8	18.4052
1712.32	17.8725
1713.84	17.6691
1715.36	16.5865
1716.88	16.1241
1718.4	14.5943
1719.91	13.4046
1721.43	13.4378
1722.95	12.6536
1724.47	13.0939
1725.99	11.9935
1727.5	10.7386
1729.02	8.6614
1730.54	8.4375
1732.05	7.13292
1733.57	6.62466
1735.09	6.13648
1736.6	5.82887
1738.12	5.12315
1739.63	5.99679
1741.15	5.88063
1742.66	5.77409
1744.18	5.65645
1745.69	5.64738
1747.2	4.52439
1748.72	3.1005
1750.23	2.85136
1751.74	2.78479
1753.25	2.44238
1754.77	2.59802
1756.28	1.60153
1757.79	0.344578
1759.3	-0.719819
1760.81	-0.39798
1762.32	0.280888
1763.83	-0.548188
1765.34	-0.943851
1766.85	-0.0166392
1768.36	0.870837
1769.87	1.67085
1771.38	1.5936
1772.89	1.65457
1774.4	1.32082
1775.91	1.25581
1777.41	1.72381
1778.92	1.0398
1780.43	2.07434
1781.94	2.23653
1783.44	2.92191
1784.95	3.43992
1786.45	3.51328
1787.96	3.3851
1789.47	4.63267
1790.97	4.20197
1792.48	3.71429
1793.98	3.16181
1795.48	3.99234
1796.99	3.38362
1798.49	3.08376
1800	2.49579
1801.5	1.9079
1803	1.06985
1804.51	1.02279
1806.01	1.26862
1807.51	1.27587
1809.01	2.23321
1810.51	2.59665
1812.02	3.00735
1813.52	2.54932
1815.02	2.97394
1816.52	3.10934
1818.02	2.85413
1819.52	2.87424
1821.02	2.42411
1822.52	1.92777
1824.02	1.65366
1825.51	2.0937
1827.01	2.68806
1828.51	2.76428
1830.01	2.34455
1831.51	1.78968
1833	2.44345
1834.5	3.0414
1836	3.0839
1837.5	2.80807
1838.99	2.88639
1840.49	3.43899
1841.98	5.116
1843.48	5.94168
1844.97	6.10028
1846.47	6.17822
1847.96	6.825
1849.46	6.66528
1850.95	6.24592
1852.45	6.68898
1853.94	6.9947
1855.43	7.39724
1856.92	6.99253
1858.42	6.80234
1859.91	7.02085
1861.4	6.479
1862.89	6.9005
1864.39	7.29567
1865.88	6.41941
1867.37	7.00656
1868.86	6.83095
1870.35	6.74204
1871.84	6.55874
1873.33	6.45495
1874.82	6.60397
1876.31	6.76533
1877.8	7.46941
1879.29	7.29055
1880.77	8.30483
1882.26	9.02459
1882.51	8.79604
1884	9.36945
1885.5	9.64536
1886.99	10.1692
1888.48	10.0613
1889.98	9.69724
1891.47	9.70292
1892.97	10.2951
1894.46	10.659
1895.95	11.7687
1897.44	12.3827
1898.93	13.6168
1900.42	15.2544
1901.92	14.9137
1903.41	15.4459
1904.9	15.9423
1906.39	16.4158
1907.88	16.5242
1909.37	17.0153
1910.86	18.0104
1912.35	18.2384
1913.84	18.3267
1915.32	19.3766
1916.81	19.4561
1918.3	19.5962
1919.79	20.1314
1921.28	20.621
1922.76	19.7096
1924.25	18.8875
1925.74	18.8238
1927.22	17.9398
1928.71	16.5683
1930.2	16.2776
1931.68	15.7988
1933.17	16.0736
1934.65	14.4813
1936.14	15.0572
1937.62	14.6416
1939.11	13.9193
1940.59	13.491
1942.08	13.2485
1943.56	11.7331
1945.04	11.904
1946.53	11.2545
1948.01	11.4006
1949.49	10.8063
1950.97	10.1552
1952.45	9.82344
1953.94	9.94416
1955.42	9.22533
1956.9	8.52968
1958.38	8.72722
1959.86	8.28543
1961.34	7.75243
1962.82	7.05402
1964.3	7.52861
1965.78	7.73377
1967.26	8.29781
1968.74	7.93768
1970.22	9.18621
1971.69	9.27134
1973.17	10.0859
1974.65	10.9452
1976.13	10.0135
1977.61	11.3532
1979.08	12.9169
1980.56	13.7861
1982.03	14.736
1983.51	15.4785
1984.99	15.8145
1986.46	15.5389
1987.94	17.5803
1989.41	18.2079
1990.89	19.7969
1992.36	20.6052
1993.84	20.8769
1995.31	21.1362
1996.78	21.2389
1998.26	21.5547
1999.73	22.3243
2001.2	22.4738
2002.68	22.7448
2004.15	23.3771
2005.62	23.5319
2007.09	24.1355
2008.56	24.2103
2010.04	25.1561
2011.51	24.8283
2012.98	25.0107
2014.45	25.2636
2015.92	25.1786
2017.39	23.7034
2018.86	24.6006
2020.33	23.931
2021.8	23.0047
2023.27	22.7496
2024.74	22.541
2026.2	22.2541
2027.67	21.1812
2029.14	20.8777
2030.61	20.7385
2032.07	20.4691
2033.54	19.8712
2035.01	19.8656
2036.47	19.8803
2037.94	20.7834
2039.41	20.553
2040.87	21.4864
2042.34	21.8472
2043.8	23.1983
2045.27	23.5967
2046.73	24.7986
2048.2	25.5911
2049.66	26.3782
2051.12	28.7011
2052.59	28.304
2054.05	28.9475
2055.51	30.3793
2056.98	31.1188
2058.44	31.6415
2059.9	32.868
2061.36	34.4066
2062.82	34.7299
2064.29	37.0369
2065.75	37.7642
2067.21	39.6247
2068.67	41.1248
2070.13	42.2849
2071.59	43.9587
2073.05	45.604
2074.51	46.0869
2075.97	47.8016
2077.43	49.5019
2078.88	50.8316
2080.34	53.1414
2081.8	54.541
2083.26	55.3961
2084.72	56.9487
2086.17	58.6025
2087.63	59.7381
2089.09	60.6162
2090.54	61.5965
2092	64.5531
2093.46	66.8127
2094.91	68.9823
2096.37	72.6528
2097.82	75.2147
2099.28	77.5397
2100.73	80.4638
2102.19	83.1862
2103.64	85.9624
2105.09	88.4366
2106.55	92.0576
2108	95.1667
2109.46	98.6901
2110.91	102.659
2112.36	104.605
2113.81	107.735
2115.27	110.992
2116.72	114.39
2118.17	118.168
2119.62	121.762
2121.07	124.834
2122.52	128.991
2123.97	131.725
2125.42	134.602
2126.87	139.305
2128.32	143.262
2129.77	146.559
2131.22	150.401
