#Acq. time (s)=	45
#Accumulations=	2
#Range (cm-¹)=	200...3150
#Windows=	2
#Auto scanning=	Off
#Autofocus=	Off
#Macrospot=	Off
#AutoExposure=	Off
#Spike filter=	Multiple accum.
#Delay time (s)=	0
#Binning=	1
#Readout mode=	Signal
#DeNoise=	Off
#ICS correction=	On
#Dark correction=	Off
#Inst. Process=	Off
#Detector Gain=	Best Dynamic Range
#Detector ADC=	20 kHz       
#Detector temperature (°C)=	-69.85
#Instrument=	LabRAM HR Evol
#Detector=	Synapse
#Objective=	x100
#Grating=	600 gr/mm
#ND Filter=	100%
#Laser (nm)=	532 
#Hole=	100.021
#Range=	Auto
#Laser Pol.=	No
#Raman. Pol.=	No
#Laser Pol. (°)=	-0.0007625
#Raman Pol. (°)=	89.9995
#Collection=	Microscope
#StageXY=	Marzhauser
#StageZ=	Marzhauser
#X (µm)=	28228.3
#Y (µm)=	-3255.6
#Z (µm)=	1040.65
#Full time(mm:ss)=	3:18
#Project=	
#Sample=	
#Site=	
#Title=	Mb_50_18_42_2x_45s_532 nm_x100_100%_600 gr_mm
#Remark=	
#Date=	12.07.2022 14:14
#Acquired=	12.07.2022 14:14:36
#Base:Fit=	10.08.2022 10:49:18
#Base:Sub=	10.08.2022 10:49:30
#Filter:Polynom=	16.08.2022 10:14:59
#AxisType[0]=Intens
#AxisUnit[0]=Cnt
#AxisType[1]=Spectr
#AxisUnit[1]=1/cm
200.388	21.5552
202.204	20.0773
204.019	19.4632
205.832	18.8704
207.646	17.236
209.459	15.8352
211.274	14.5638
213.087	13.4291
214.899	12.5915
216.711	12.548
218.524	12.8455
220.335	11.9258
222.146	11.5431
223.956	10.5242
225.766	9.74562
227.576	5.81523
229.388	7.45748
231.197	8.77833
233.005	9.57774
234.813	10.7866
236.621	13.5345
238.429	12.8926
240.236	14.0086
242.045	14.3544
243.852	15.6713
245.658	16.6574
247.464	17.7469
249.269	18.459
251.074	18.772
252.879	18.5735
254.683	18.8209
256.487	18.9297
258.291	19.6692
260.094	20.4174
261.897	20.4247
263.702	19.6439
265.504	18.5516
267.306	18.5244
269.108	18.043
270.909	17.8022
272.71	18.0119
274.511	18.5168
276.311	18.4742
278.111	17.4289
279.91	16.8886
281.709	16.4604
283.508	15.9618
285.306	14.9511
287.105	14.1439
288.9	13.5752
290.698	13.1024
292.495	13.2015
294.291	12.6097
296.088	11.635
297.884	13.0728
299.679	12.2093
301.475	12.3519
303.27	12.2556
305.064	12.7762
306.858	12.4813
308.652	12.2302
310.444	11.4557
312.237	11.6026
314.03	11.7429
315.822	11.692
317.615	12.3945
319.406	16.302
321.198	16.6066
322.987	17.1154
324.778	17.8791
326.568	17.8166
328.358	15.6244
330.148	16.8107
331.935	15.1993
333.724	15.1537
335.513	15.1409
337.301	14.0745
339.089	12.7885
340.875	11.861
342.662	11.2988
344.449	10.5137
346.236	10.7045
348.02	11.3764
349.806	11.6896
351.592	12.072
353.375	13.3653
355.16	13.2207
356.944	14.9904
358.728	17.3409
360.51	19.2954
362.294	20.4679
364.077	21.8473
365.858	22.5521
367.64	24.0236
369.422	26.2679
371.202	28.5361
372.983	30.0578
374.764	31.451
376.543	32.9528
378.324	34.346
380.102	36.2509
381.881	36.4709
383.661	37.34
385.438	37.182
387.216	38.0727
388.993	37.5554
390.771	37.9278
392.548	38.2338
394.324	38.4439
396.101	37.482
397.875	37.2803
399.651	36.2788
401.425	35.3791
403.201	34.2697
404.974	32.238
406.749	30.9928
408.524	28.9874
410.296	26.9336
412.07	24.6582
413.841	21.9824
415.614	18.1166
417.385	15.6587
419.156	13.031
420.928	10.9096
422.698	9.74096
424.469	7.90966
426.238	4.76425
428.009	3.22665
429.777	1.60572
431.548	1.14116
433.315	0.933915
435.083	1.18559
436.852	0.458477
438.618	-0.658204
440.387	0.00366716
442.153	-0.671044
443.919	-0.385241
445.686	-0.463002
447.451	-0.419981
449.218	-0.833063
450.982	-0.16111
452.746	0.945697
454.512	1.41056
456.275	2.58941
458.038	2.62208
459.803	3.49997
461.565	3.57598
463.327	4.58945
465.091	6.00027
466.852	6.26922
468.613	6.74324
470.374	8.13108
472.136	8.8121
473.896	9.09218
475.655	11.2027
477.415	12.799
479.176	14.078
480.934	15.749
482.692	17.7566
484.45	20.6609
486.21	22.8258
487.967	24.9815
489.724	27.1062
491.481	28.8783
493.237	30.1437
494.995	32.255
496.75	34.4392
498.506	36.3308
500.26	38.3546
502.015	40.3621
503.771	41.9
505.525	44.3062
507.279	44.6672
509.032	46.3421
510.785	46.1009
512.537	45.8775
514.289	45.914
516.041	46.9293
517.793	47.1736
519.546	46.6073
521.297	45.2619
523.047	43.9047
524.797	42.0412
526.547	41.0562
528.297	39.9892
530.046	37.3011
531.795	36.3425
533.543	33.8773
535.291	32.6047
537.039	30.4291
538.787	28.9384
540.534	26.5952
542.281	23.6532
544.027	21.1603
545.773	18.516
547.519	17.3903
549.264	15.3979
551.01	13.5437
552.754	11.6822
554.499	9.13614
556.243	8.20821
557.987	7.0485
559.73	5.35902
561.474	3.49852
563.216	2.81821
564.959	1.8899
566.701	1.76683
568.441	2.26145
570.182	3.14258
571.923	3.31188
573.664	2.62819
575.405	2.7832
577.145	2.96334
578.885	3.01834
580.624	3.74137
582.361	4.80294
584.1	5.98225
585.839	6.5007
587.577	7.29234
589.315	6.64163
591.052	6.95433
592.787	6.63224
594.524	6.82763
596.26	7.01064
597.997	6.84714
599.732	6.67513
601.466	7.66042
603.201	8.09186
604.936	8.24565
606.67	7.57048
608.403	7.27771
610.136	7.26553
611.87	6.19329
613.603	5.56642
615.334	5.51092
617.067	5.51484
618.799	5.63147
620.529	5.43045
622.26	4.98069
623.991	4.81191
625.72	5.80075
627.451	4.20917
629.181	3.93733
630.909	3.89903
632.638	4.37669
634.368	3.4158
636.095	3.35983
637.823	3.18697
639.551	3.87928
641.277	3.33427
643.005	2.99208
644.73	2.0241
646.457	1.6638
648.184	0.581015
649.908	1.10617
651.634	1.71753
653.357	2.22548
655.083	2.75024
656.806	3.70655
658.53	4.15193
660.253	4.59985
661.977	4.40623
663.7	5.14911
665.422	5.69439
667.145	6.05155
668.865	6.36795
670.588	7.1677
672.308	7.75574
674.027	8.247
675.749	8.09292
677.468	9.81553
679.188	10.1414
680.907	11.3596
682.627	12.3151
684.345	13.598
686.064	14.8148
687.781	16.3047
689.498	17.262
691.216	18.3612
692.932	18.8882
694.65	18.4156
696.366	19.1533
698.081	19.6369
699.797	20.5069
701.512	21.5159
703.228	21.36
704.942	21.8936
706.655	22.7131
708.371	24.2904
710.083	24.8447
711.796	26.2014
713.51	26.1928
715.222	27.1956
716.934	26.7622
718.645	27.0223
720.358	26.0529
722.068	26.8974
723.779	27.0137
725.49	27.9132
727.2	27.3775
728.909	28.6376
730.618	29.9047
732.329	31.8468
734.037	34.1599
735.745	36.6345
737.453	39.5356
739.16	42.3943
740.869	45.6838
742.576	49.1454
744.282	52.0194
745.988	55.8112
747.694	59.9489
749.401	64.2341
751.107	68.4262
752.811	71.4947
754.516	74.9325
756.22	78.8478
757.924	81.809
759.627	84.7402
761.332	88.044
763.035	91.8026
764.738	94.2189
766.44	97.1836
768.142	99.5926
769.843	101.061
771.544	103.35
773.245	104.024
774.946	104.98
776.646	105.436
778.346	105.003
780.046	104.416
781.745	103.984
783.444	103.275
785.143	102.618
786.841	101.366
788.539	99.8252
790.237	97.8592
791.934	96.1901
793.631	94.0657
795.328	90.7533
797.024	88.6272
798.72	85.1012
800.416	80.9622
802.112	78.2176
803.807	75.4579
805.502	72.9044
807.196	70.8353
808.89	69.3127
810.584	67.7452
812.278	65.8898
813.971	65.5222
815.664	63.5364
817.354	63.0444
819.047	62.4779
820.739	62.1133
822.43	61.9454
824.122	62.0323
825.813	62.6725
827.503	62.9306
829.192	63.3015
830.882	64.2742
832.571	63.7514
834.261	62.551
835.95	61.1964
837.637	59.9224
839.325	59.4686
841.013	59.9446
842.701	58.7941
844.389	58.085
846.074	56.4848
847.761	56.3915
849.447	56.0833
851.131	56.0816
852.817	55.22
854.503	54.6985
856.188	54.0315
857.871	52.4805
859.556	52.5155
861.24	51.5712
862.922	50.806
864.606	50.5046
866.289	49.0105
867.97	48.0969
869.653	47.7513
871.336	46.1744
873.016	44.7261
874.698	43.1576
876.379	43.6507
878.058	43.1673
879.739	42.0456
881.418	41.9344
883.098	40.4681
884.778	40.0722
886.456	40.1936
888.135	39.8351
889.812	39.5326
891.49	39.5908
893.167	39.69
894.845	39.9958
896.523	39.2726
898.198	37.3642
899.875	36.8215
901.55	37.8042
903.226	37.5665
904.901	37.7887
906.576	37.835
908.25	37.8229
909.925	36.9602
911.598	36.8074
913.271	36.7011
914.945	35.9449
916.617	35.1711
918.291	33.858
919.962	33.5826
921.635	33.5746
923.306	33.2426
924.978	33.327
926.648	31.0759
928.318	29.8222
929.989	29.8751
931.659	29.5453
933.328	28.6973
934.998	28.0042
936.666	26.0735
938.336	24.8219
940.004	23.5084
941.671	23.0492
943.34	22.1128
945.007	22.0606
946.673	20.8981
948.339	18.8033
950.007	18.4007
951.672	17.6676
953.337	16.9012
955.004	15.7734
956.669	14.1836
958.333	13.8424
959.997	14.2796
961.662	12.9893
963.326	12.5313
964.989	13.1126
966.651	12.5906
968.315	13.0496
969.977	13.2309
971.639	13.2352
973.301	12.073
974.962	13.0289
976.624	11.8522
978.285	10.9645
979.945	10.4252
981.605	9.92026
983.264	11.4716
984.924	10.8976
986.583	10.7683
988.243	11.5382
989.901	11.7843
991.56	12.2408
993.217	13.6223
994.875	16.6468
996.532	18.4649
998.188	20.3121
999.845	22.4021
1001.5	24.9707
1003.16	27.8248
1004.81	29.7663
1006.47	32.0498
1008.12	33.705
1009.78	35.8522
1011.43	39.0377
1013.09	42.3418
1014.74	44.3044
1016.39	47.5851
1018.05	49.1167
1019.7	50.8045
1021.35	53.203
1023	55.0021
1024.65	57.8743
1026.31	58.2421
1027.96	60.4923
1029.61	59.8248
1031.26	60.4067
1032.91	62.6392
1034.56	61.1684
1036.21	61.1895
1037.86	60.9006
1039.51	59.9077
1041.16	59.4559
1042.8	58.5029
1044.45	56.9035
1046.1	55.6258
1047.75	53.6899
1049.39	52.1434
1051.04	50.4655
1052.69	48.5101
1054.33	45.9576
1055.98	44.3057
1057.62	44.4366
1059.27	43.0844
1060.91	41.9465
1062.56	41.48
1064.2	40.4306
1065.85	39.9105
1067.49	39.5012
1069.13	39.6554
1070.77	40.8508
1072.42	41.1099
1074.06	42.2776
1075.7	43.7323
1077.34	44.7454
1078.98	45.6967
1080.62	46.2069
1082.27	46.7287
1083.91	46.7347
1085.55	46.8818
1087.18	46.628
1088.82	47.5292
1090.46	47.7809
1092.1	49.5855
1093.74	49.0739
1095.38	49.6435
1097.02	49.4044
1098.65	48.9435
1100.29	48.1783
1101.93	48.4647
1103.56	48.0672
1105.2	47.9872
1106.84	47.2736
1108.47	44.707
1110.11	43.7436
1111.74	41.3192
1113.38	39.1595
1115.01	37.3014
1116.64	34.3078
1118.28	32.2485
1119.91	29.1377
1121.54	26.1773
1123.18	23.872
1124.81	21.6199
1126.44	20.1214
1128.07	18.3104
1129.7	16.1176
1131.33	15.8971
1132.97	15.2446
1134.6	14.6522
1136.23	14.9143
1137.86	14.7206
1139.49	14.2806
1141.11	12.8022
1142.74	11.8773
1144.37	11.4593
1146	11.2416
1147.63	11.0749
1149.26	11.4168
1150.88	10.3685
1152.51	10.7202
1154.14	9.20646
1155.76	9.54973
1157.39	8.63765
1159.01	8.18093
1160.64	7.69265
1162.27	6.71938
1163.89	6.4545
1165.51	6.65917
1167.14	7.77632
1168.76	7.82332
1170.39	8.49814
1172.01	9.13674
1173.63	10.1953
1175.25	10.0722
1176.88	10.6637
1178.5	11.5683
1180.12	12.475
1181.74	13.8719
1183.36	14.9141
1184.98	14.6389
1186.6	15.1448
1188.22	14.165
1189.84	14.8488
1191.46	15.7823
1193.08	16.149
1194.7	16.0031
1196.32	16.5001
1197.94	15.4492
1199.55	14.3096
1201.17	15.1288
1202.79	15.2813
1204.41	15.5223
1206.02	16.7557
1207.64	17.7618
1209.25	17.7664
1210.87	17.9723
1212.48	19.7757
1214.1	20.2427
1215.71	21.7081
1217.33	22.7951
1218.94	23.2276
1220.56	23.5379
1222.17	25.1895
1223.79	27.8878
1225.4	29.2174
1227.01	30.9475
1228.62	32.2277
1230.23	33.124
1231.85	32.8655
1233.46	34.2941
1235.07	35.0237
1236.68	35.6975
1238.29	36.1576
1239.9	37.5621
1241.51	38.4147
1243.12	39.0753
1244.73	39.2674
1246.34	40.3957
1247.94	40.7919
1249.55	41.5563
1251.16	42.0082
1252.77	43.0099
1254.37	43.3293
1255.98	44.0634
1257.59	46.0937
1259.2	48.0097
1260.8	49.5138
1262.41	51.4607
1264.01	52.6203
1265.62	54.5041
1267.22	56.3391
1268.83	57.729
1270.43	60.5968
1272.03	61.2048
1273.64	62.4744
1275.24	63.965
1276.85	64.6111
1278.45	65.995
1280.05	68.3401
1281.65	70.9459
1283.25	71.5036
1284.85	73.0469
1286.46	75.1713
1288.06	75.3612
1289.66	75.6205
1291.26	76.6657
1292.86	77.9731
1294.46	78.1359
1296.06	78.6232
1297.66	78.0296
1299.25	78.4239
1300.85	78.5354
1302.45	79.9853
1304.05	80.6193
1305.65	79.0922
1307.24	78.7724
1308.84	78.2416
1310.43	77.0012
1312.03	76.0048
1313.63	76.251
1315.22	74.9181
1316.82	73.3964
1318.41	72.3281
1320.01	71.2103
1321.6	70.1163
1323.2	68.0897
1324.79	66.8188
1326.38	66.2056
1327.98	64.3484
1329.57	63.3742
1331.16	62.3033
1332.76	62.0984
1334.35	61.2398
1335.94	60.4099
1337.53	60.3518
1339.12	59.5747
1340.71	59.5274
1342.3	58.9202
1343.89	57.4715
1345.48	56.8759
1347.07	55.4772
1348.66	55.0742
1350.25	54.6085
1351.84	53.9002
1353.43	53.5729
1355.01	52.1791
1356.6	50.9724
1358.19	50.5871
1359.77	49.581
1361.36	48.4912
1362.95	46.3725
1364.53	45.6513
1366.12	43.8641
1367.71	42.1565
1369.29	41.3461
1370.88	41.0325
1372.46	39.7783
1374.04	38.3703
1375.63	38.231
1377.21	38.752
1378.8	38.6203
1380.38	38.5482
1381.96	37.9067
1383.54	36.6051
1385.13	35.9995
1386.71	35.7045
1388.29	35.0817
1389.87	33.5914
1391.45	33.4787
1393.03	32.6916
1394.61	31.1881
1396.19	30.5628
1397.77	30.4988
1399.35	30.4516
1400.93	30.177
1402.51	30.1659
1404.09	31.3257
1405.67	33.1999
1407.24	34.0086
1408.82	35.8748
1410.4	37.505
1411.98	40.2997
1413.55	42.0507
1415.13	44.6261
1416.71	47.8533
1418.28	51.248
1419.86	54.8126
1421.43	57.4635
1423.01	60.3781
1424.58	63.8187
1426.16	67.5895
1427.73	71.8707
1429.31	75.2931
1430.88	77.7236
1432.45	80.1967
1434.02	82.715
1435.6	84.9379
1437.17	86.2111
1438.74	87.5177
1440.31	89.3378
1441.88	90.3106
1443.45	91.9547
1445.03	93.5399
1446.6	94.6022
1448.17	95.0831
1449.74	95.5556
1451.3	95.6311
1452.87	95.9466
1454.44	95.4926
1456.01	95.0902
1457.58	94.0022
1459.15	93.1598
1460.72	91.3574
1462.28	90.2616
1463.85	89.3374
1465.42	86.7984
1466.98	85.0298
1468.55	82.2908
1470.12	80.5609
1471.68	78.523
1473.25	77.0297
1474.81	75.2393
1476.38	72.5883
1477.94	71.3393
1479.51	70.163
1481.07	68.5254
1482.63	67.2673
1484.2	65.0768
1485.76	62.5284
1487.32	61.8331
1488.88	60.9063
1490.45	59.6932
1492.01	57.6501
1493.57	57.1157
1495.13	56.1699
1496.69	55.3033
1498.25	54.1831
1499.81	51.7958
1501.37	50.2882
1502.93	49.2107
1504.49	47.593
1506.05	44.9218
1507.61	42.2095
1509.17	39.9386
1510.73	38.0021
1512.28	35.1587
1513.84	32.3768
1515.4	30.469
1516.96	29.5919
1518.51	28.2546
1520.07	25.7977
1521.63	24.3429
1523.18	23.6268
1524.74	21.7013
1526.29	21.4136
1527.85	21.0605
1529.4	20.2832
1530.96	19.3907
1532.51	19.2252
1534.06	19.9006
1535.62	21.1811
1537.17	21.2299
1538.72	21.8542
1540.28	21.9963
1541.83	22.3655
1543.38	22.8854
1544.93	23.0135
1546.48	23.3604
1548.03	23.5548
1549.59	24.3598
1551.14	24.8813
1552.69	24.4827
1554.24	25.3027
1555.79	27.0552
1557.34	27.2994
1558.88	27.3606
1560.43	28.6077
1561.98	29.4617
1563.53	31.1947
1565.08	34.003
1566.62	35.9107
1568.17	38.0431
1569.72	39.926
1571.27	42.2245
1572.81	44.134
1574.36	46.0579
1575.9	48.7191
1577.45	51.3107
1579	53.7085
1580.54	55.4976
1582.09	56.6643
1583.63	58.1094
1585.17	60.631
1586.72	62.8854
1588.26	63.5971
1589.8	64.6851
1591.35	65.3833
1592.89	66.8345
1594.43	67.7257
1595.97	67.3398
1597.52	67.7699
1599.06	68.4753
1600.6	68.8961
1602.14	68.4348
1603.68	69.0826
1605.22	68.8347
1606.76	68.4944
1608.3	68.897
1609.84	69.3195
1611.38	69.8582
1612.92	69.7843
1614.46	68.3167
1615.99	68.61
1617.53	68.4784
1619.07	68.672
1620.61	68.9646
1622.14	68.649
1623.68	69.3871
1625.22	69.5195
1626.75	69.5951
1628.29	69.9764
1629.82	70.0476
1631.36	70.8324
1632.9	71.3801
1634.43	72.2827
1635.96	73.8037
1637.5	76.1203
1639.03	77.0133
1640.57	78.1766
1642.1	80.3771
1643.63	80.7904
1645.16	81.7741
1646.7	82.2639
1648.23	83.5008
1649.76	84.5063
1651.29	85.1294
1652.82	85.8053
1654.36	85.7491
1655.89	84.7122
1657.42	84.0638
1658.95	84.001
1660.48	83.2434
1662.01	82.1467
1663.53	81.0377
1665.06	78.63
1666.59	77.4184
1668.12	75.4844
1669.65	73.6467
1671.18	71.2283
1672.7	68.3196
1674.23	65.4813
1675.76	62.8826
1677.29	60.5986
1678.81	58.2326
1680.34	55.7163
1681.86	52.8194
1683.39	49.6792
1684.91	47.8883
1686.44	45.8639
1687.96	43.8765
1689.49	41.6032
1691.01	39.2432
1692.54	37.3369
1694.06	35.1754
1695.58	32.8475
1697.11	30.5015
1698.63	28.5882
1700.15	27.0568
1701.67	25.0032
1703.2	22.8559
1704.72	21.2344
1706.24	19.8038
1707.76	18.0105
1709.28	17.4302
1710.8	16.5392
1712.32	16.1235
1713.84	14.8319
1715.36	13.0623
1716.88	12.2797
1718.4	12.1832
1719.91	10.9169
1721.43	10.3611
1722.95	9.52817
1724.47	8.96486
1725.99	8.91019
1727.5	8.37817
1729.02	8.16357
1730.54	7.98513
1732.05	6.88405
1733.57	7.25696
1735.09	7.15557
1736.6	6.96227
1738.12	6.73943
1739.63	7.19364
1741.15	6.65653
1742.66	6.73627
1744.18	5.64716
1745.69	4.92187
1747.2	4.25365
1748.72	3.52046
1750.23	3.42623
1751.74	3.73103
1753.25	3.53301
1754.77	3.16802
1756.28	2.53793
1757.79	2.61854
1759.3	2.49299
1760.81	3.02012
1762.32	3.12583
1763.83	2.97951
1765.34	2.38045
1766.85	1.46095
1768.36	1.69855
1769.87	1.42936
1771.38	0.635018
1772.89	0.779504
1774.4	1.17212
1775.91	0.915854
1777.41	-0.0459049
1778.92	-0.476691
1780.43	-0.561991
1781.94	0.490996
1783.44	0.21814
1784.95	1.21359
1786.45	1.64685
1787.96	2.06625
1789.47	1.71486
1790.97	2.07189
1792.48	2.07079
1793.98	2.16607
1795.48	2.21956
1796.99	2.37883
1798.49	2.93192
1800	3.35143
1801.5	3.43086
1803	3.66224
1804.51	4.52542
1806.01	4.46375
1807.51	4.66751
1809.01	6.16084
1810.51	6.22408
1812.02	6.70168
1813.52	6.87683
1815.02	7.56432
1816.52	7.36952
1818.02	7.35117
1819.52	7.21331
1821.02	7.9796
1822.52	8.35336
1824.02	8.35215
1825.51	8.71877
1827.01	8.95833
1828.51	9.33019
1830.01	9.93389
1831.51	10.1913
1833	10.9155
1834.5	11.2567
1836	11.5728
1837.5	11.4168
1838.99	11.032
1840.49	10.5033
1841.98	10.7745
1843.48	10.5649
1844.97	10.0611
1846.47	9.8802
1847.96	9.90669
1849.46	9.1458
1850.95	8.79393
1852.45	8.01523
1853.94	8.03238
1855.43	7.93835
1856.92	7.86697
1858.42	7.72722
1859.91	8.12307
1861.4	8.34979
1862.89	8.25567
1864.39	7.64869
1865.88	7.51486
1867.37	7.37458
1868.86	6.99799
1870.35	7.27592
1871.84	7.36321
1873.33	7.65605
1874.82	6.74485
1876.31	6.89381
1877.8	7.61268
1879.29	6.97325
1880.77	6.53255
1882.26	6.47582
1882.51	6.7693
1884	6.2192
1885.5	6.36729
1886.99	6.17663
1888.48	5.7305
1889.98	5.21566
1891.47	5.07975
1892.97	4.80158
1894.46	4.85229
1895.95	4.51049
1897.44	4.06575
1898.93	3.97344
1900.42	4.49346
1901.92	4.48209
1903.41	4.47835
1904.9	5.19437
1906.39	5.35947
1907.88	4.99738
1909.37	4.80149
1910.86	4.99954
1912.35	4.84488
1913.84	4.86428
1915.32	4.61466
1916.81	5.12143
1918.3	5.43449
1919.79	5.9084
1921.28	6.20176
1922.76	6.76052
1924.25	6.44674
1925.74	6.13705
1927.22	6.47207
1928.71	6.45372
1930.2	7.06758
1931.68	8.09124
1933.17	7.73345
1934.65	7.67849
1936.14	7.16078
1937.62	6.65648
1939.11	6.98362
1940.59	7.05424
1942.08	7.11077
1943.56	8.01183
1945.04	8.35129
1946.53	8.51715
1948.01	8.39116
1949.49	9.68966
1950.97	9.79533
1952.45	9.12392
1953.94	9.29557
1955.42	9.19461
1956.9	9.35035
1958.38	8.90162
1959.86	9.2046
1961.34	9.18652
1962.82	9.44257
1964.3	9.32537
1965.78	9.11152
1967.26	9.53881
1968.74	9.50575
1970.22	8.63052
1971.69	8.44679
1973.17	8.77855
1974.65	10.085
1976.13	10.3324
1977.61	10.1086
1979.08	10.0776
1980.56	9.39186
1982.03	9.15619
1983.51	9.34034
1984.99	9.66117
1986.46	9.22373
1987.94	9.74304
1989.41	10.0972
1990.89	11.3589
1992.36	11.6314
1993.84	12.0348
1995.31	11.5874
1996.78	11.3617
1998.26	11.0397
1999.73	11.7129
2001.2	12.1019
2002.68	12.6859
2004.15	13.2852
2005.62	13.6782
2007.09	12.4823
2008.56	13.8441
2010.04	14.57
2011.51	15.6149
2012.98	16.3668
2014.45	16.3666
2015.92	17.5189
2017.39	17.6034
2018.86	18.3205
2020.33	18.2783
2021.8	18.7492
2023.27	18.748
2024.74	18.6362
2026.2	18.5047
2027.67	18.2207
2029.14	18.6526
2030.61	18.2522
2032.07	18.3693
2033.54	19.3539
2035.01	18.9804
2036.47	18.7344
2037.94	18.0608
2039.41	18.5185
2040.87	18.4904
2042.34	18.0837
2043.8	18.045
2045.27	18.9111
2046.73	18.9118
2048.2	18.9959
2049.66	18.3196
2051.12	17.8333
2052.59	18.4255
2054.05	19.528
2055.51	20.0366
2056.98	20.5399
2058.44	21.5984
2059.9	23.1495
2061.36	24.4055
2062.82	25.5881
2064.29	26.7036
2065.75	27.3424
2067.21	27.5784
2068.67	28.0277
2070.13	29.033
2071.59	30.4951
2073.05	31.3208
2074.51	32.6332
2075.97	33.9701
2077.43	35.1751
2078.88	35.9551
2080.34	38.0205
2081.8	39.7035
2083.26	39.9333
2084.72	41.2938
2086.17	41.9221
2087.63	42.8314
2089.09	44.7318
2090.54	45.5443
2092	46.6638
2093.46	47.5191
2094.91	49.2474
2096.37	50.8279
2097.82	52.2614
2099.28	53.5157
2100.73	54.805
2102.19	56.4198
2103.64	57.8623
2105.09	59.9826
2106.55	62.1779
2108	62.773
2109.46	64.1642
2110.91	65.8884
2112.36	68.4142
2113.81	70.2763
2115.27	72.2816
2116.72	75.069
2118.17	77.1966
2119.62	79.4308
2121.07	82.4764
2122.52	85.0631
2123.97	89.0645
2125.42	92.0717
2126.87	94.6833
2128.32	97.1683
2129.77	100.263
2131.22	103.607
2132.67	106.071
