#Acq. time (s)=	45
#Accumulations=	2
#Range (cm-¹)=	200...3150
#Windows=	2
#Auto scanning=	Off
#Autofocus=	Off
#Macrospot=	Off
#AutoExposure=	Off
#Spike filter=	Multiple accum.
#Delay time (s)=	0
#Binning=	1
#Readout mode=	Signal
#DeNoise=	Off
#ICS correction=	On
#Dark correction=	Off
#Inst. Process=	Off
#Detector Gain=	Best Dynamic Range
#Detector ADC=	20 kHz       
#Detector temperature (°C)=	-69.85
#Instrument=	LabRAM HR Evol
#Detector=	Synapse
#Objective=	x100
#Grating=	600 gr/mm
#ND Filter=	100%
#Laser (nm)=	532 
#Hole=	100.021
#Range=	Auto
#Laser Pol.=	No
#Raman. Pol.=	No
#Laser Pol. (°)=	-0.0007625
#Raman Pol. (°)=	89.9995
#Collection=	Microscope
#StageXY=	Marzhauser
#StageZ=	Marzhauser
#X (µm)=	28287.9
#Y (µm)=	-3238.1
#Z (µm)=	1041.05
#Full time(mm:ss)=	3:19
#Project=	
#Sample=	
#Site=	
#Title=	Mb_50_18_33_2x_45s_532 nm_x100_100%_600 gr_mm
#Remark=	
#Date=	12.07.2022 13:23
#Acquired=	12.07.2022 13:23:53
#Base:Fit=	10.08.2022 10:49:18
#Base:Sub=	10.08.2022 10:49:30
#Filter:Polynom=	16.08.2022 10:14:59
#AxisType[0]=Intens
#AxisUnit[0]=Cnt
#AxisType[1]=Spectr
#AxisUnit[1]=1/cm
200.388	26.7321
202.204	26.3431
204.019	24.5216
205.832	22.74
207.646	20.95
209.459	19.2677
211.274	17.6694
213.087	16.0305
214.899	15.8583
216.711	14.6741
218.524	13.0959
220.335	13.2585
222.146	12.8261
223.956	13.4453
225.766	11.955
227.576	9.79997
229.388	9.90769
231.197	8.98328
233.005	9.0273
234.813	9.03366
236.621	8.83069
238.429	8.38458
240.236	8.30378
242.045	7.9251
243.852	8.80145
245.658	9.43219
247.464	9.34686
249.269	8.68537
251.074	9.52844
252.879	9.44867
254.683	9.62646
256.487	10.8579
258.291	12.2737
260.094	14.0123
261.897	15.3875
263.702	15.7937
265.504	16.125
267.306	15.7048
269.108	16.5361
270.909	16.6393
272.71	16.6537
274.511	15.6895
276.311	16.0396
278.111	15.6286
279.91	16.0326
281.709	15.4427
283.508	14.5472
285.306	14.2124
287.105	13.4973
288.9	11.6151
290.698	11.0974
292.495	11.0486
294.291	11.5174
296.088	11.8006
297.884	12.6999
299.679	13.0748
301.475	13.4694
303.27	13.4457
305.064	13.7309
306.858	12.0353
308.652	13.198
310.444	13.8464
312.237	13.4334
314.03	14.5341
315.822	13.4852
317.615	14.2309
319.406	16.4251
321.198	17.7055
322.987	18.7448
324.778	19.9591
326.568	19.8109
328.358	20.1409
330.148	22.0804
331.935	23.3982
333.724	25.4576
335.513	26.1513
337.301	26.1629
339.089	26.4823
340.875	28.7301
342.662	28.4666
344.449	29.4437
346.236	31.041
348.02	31.5461
349.806	32.3504
351.592	33.2591
353.375	33.8628
355.16	34.7861
356.944	35.1068
358.728	36.1707
360.51	37.58
362.294	38.3267
364.077	39.0416
365.858	40.2786
367.64	40.9389
369.422	41.417
371.202	41.6561
372.983	41.63
374.764	40.7763
376.543	40.356
378.324	40.8149
380.102	41.8508
381.881	42.9389
383.661	42.75
385.438	43.2475
387.216	43.0005
388.993	41.2711
390.771	40.108
392.548	39.0008
394.324	38.7434
396.101	37.2274
397.875	37.1691
399.651	35.7061
401.425	35.1131
403.201	35.2414
404.974	33.712
406.749	32.7998
408.524	31.58
410.296	30.3862
412.07	28.8183
413.841	27.068
415.614	25.5333
417.385	24.7877
419.156	24.4724
420.928	22.1281
422.698	20.804
424.469	19.2477
426.238	16.7905
428.009	15.5233
429.777	15.0823
431.548	13.0526
433.315	12.7486
435.083	13.1016
436.852	12.2113
438.618	11.2403
440.387	10.9144
442.153	10.3448
443.919	10.2591
445.686	9.23336
447.451	9.13624
449.218	9.25698
450.982	8.87765
452.746	9.26249
454.512	9.35222
456.275	8.53917
458.038	8.09062
459.803	7.87276
461.565	7.99846
463.327	8.40976
465.091	9.50575
466.852	9.36684
468.613	9.4558
470.374	9.86526
472.136	10.0374
473.896	11.4072
475.655	11.163
477.415	11.1147
479.176	12.6558
480.934	13.5095
482.692	13.9609
484.45	15.0746
486.21	16.533
487.967	18.7826
489.724	21.1135
491.481	23.4394
493.237	24.7444
494.995	26.2945
496.75	28.1671
498.506	30.5375
500.26	32.3779
502.015	32.9727
503.771	35.2154
505.525	36.7824
507.279	38.5229
509.032	39.2809
510.785	40.1272
512.537	39.9935
514.289	39.1528
516.041	39.0699
517.793	38.4936
519.546	37.375
521.297	37.4096
523.047	36.629
524.797	34.6815
526.547	32.8712
528.297	32.4958
530.046	31.3259
531.795	29.739
533.543	28.1685
535.291	27.2709
537.039	26.3399
538.787	24.7302
540.534	22.3311
542.281	20.1095
544.027	18.1675
545.773	16.6638
547.519	15.5391
549.264	14.1756
551.01	11.6482
552.754	9.15331
554.499	8.28871
556.243	7.13212
557.987	6.18662
559.73	4.99127
561.474	3.53115
563.216	1.5121
564.959	0.900239
566.701	0.544523
568.441	0.622229
570.182	0.755585
571.923	0.744772
573.664	0.284091
575.405	1.73295
577.145	1.59445
578.885	1.06066
580.624	1.41614
582.361	1.81568
584.1	2.00203
585.839	2.22425
587.577	2.96316
589.315	3.01634
591.052	3.41917
592.787	4.48089
594.524	4.29998
596.26	4.11863
597.997	4.26074
599.732	4.81115
601.466	4.72799
603.201	4.88856
604.936	5.30751
606.67	5.29403
608.403	5.05713
610.136	4.81543
611.87	4.68709
613.603	4.55165
615.334	5.15177
617.067	5.54562
618.799	5.60027
620.529	6.22573
622.26	6.49673
623.991	7.04932
625.72	5.96004
627.451	5.69397
629.181	6.10683
630.909	5.85444
632.638	6.06817
634.368	6.32014
636.095	6.01534
637.823	5.75198
639.551	6.05253
641.277	6.61596
643.005	5.79404
644.73	6.0437
646.457	6.24106
648.184	7.19052
649.908	7.35087
651.634	8.24626
653.357	8.63263
655.083	9.3972
656.806	7.91005
658.53	8.30548
660.253	9.65058
661.977	10.6016
663.7	10.6707
665.422	12.1751
667.145	13.5898
668.865	14.3486
670.588	14.5737
672.308	15.1748
674.027	16.306
675.749	16.6202
677.468	17.6908
679.188	19.4992
680.907	20.4359
682.627	20.6948
684.345	21.9418
686.064	21.7155
687.781	21.222
689.498	21.4195
691.216	22.0576
692.932	22.2685
694.65	22.2455
696.366	23.398
698.081	23.8483
699.797	24.599
701.512	25.4926
703.228	25.0198
704.942	26.0284
706.655	27.2323
708.371	27.4984
710.083	27.765
711.796	27.0739
713.51	27.9732
715.222	28.7503
716.934	29.0691
718.645	28.8715
720.358	28.8042
722.068	29.3433
723.779	29.2708
725.49	29.6439
727.2	28.9265
728.909	28.6403
730.618	29.6558
732.329	29.8806
734.037	31.0203
735.745	31.9902
737.453	33.3414
739.16	35.5215
740.869	37.2829
742.576	40.3719
744.282	44.5893
745.988	47.2625
747.694	49.6337
749.401	52.3637
751.107	56.084
752.811	59.0214
754.516	62.1286
756.22	64.6203
757.924	67.3921
759.627	69.9508
761.332	72.0228
763.035	74.8295
764.738	76.5113
766.44	78.4756
768.142	79.1084
769.843	81.1456
771.544	81.8861
773.245	83.2318
774.946	84.3402
776.646	85.9574
778.346	87.2666
780.046	87.7689
781.745	89.1316
783.444	89.6967
785.143	89.2776
786.841	89.2677
788.539	89.608
790.237	91.0513
791.934	90.1678
793.631	88.8885
795.328	88.2937
797.024	86.0022
798.72	84.8573
800.416	83.1853
802.112	80.1367
803.807	78.1011
805.502	75.7768
807.196	74.4553
808.89	72.4723
810.584	70.4347
812.278	68.9899
813.971	68.7039
815.664	67.2118
817.354	65.783
819.047	65.8177
820.739	64.7441
822.43	63.3619
824.122	63.1184
825.813	63.0717
827.503	63.5268
829.192	62.3932
830.882	61.3628
832.571	60.9513
834.261	60.4143
835.95	60.276
837.637	59.1017
839.325	57.9554
841.013	57.3888
842.701	55.7884
844.389	54.5879
846.074	53.2571
847.761	52.6761
849.447	50.642
851.131	49.8154
852.817	48.2788
854.503	46.7341
856.188	45.993
857.871	45.1413
859.556	44.7622
861.24	44.7739
862.922	44.4506
864.606	43.4212
866.289	42.5829
867.97	41.7515
869.653	40.9835
871.336	40.7755
873.016	40.6068
874.698	40.0972
876.379	39.7475
878.058	39.9834
879.739	39.3097
881.418	38.2966
883.098	38.6104
884.778	37.8781
886.456	37.5517
888.135	38.5831
889.812	38.3346
891.49	39.4794
893.167	39.0439
894.845	38.2992
896.523	38.3703
898.198	37.8348
899.875	36.8582
901.55	37.6938
903.226	38.6634
904.901	38.1242
906.576	38.9516
908.25	39.7537
909.925	40.5869
911.598	40.89
913.271	41.0208
914.945	41.2238
916.617	41.1201
918.291	41.2989
919.962	40.9573
921.635	41.0344
923.306	41.4619
924.978	41.4296
926.648	39.9831
928.318	39.6377
929.989	39.1744
931.659	38.3429
933.328	37.2083
934.998	36.8279
936.666	36.3551
938.336	35.8867
940.004	36.2581
941.671	35.3343
943.34	33.9889
945.007	33.4528
946.673	32.5879
948.339	31.3858
950.007	30.1723
951.672	29.8086
953.337	29.5597
955.004	29.6486
956.669	29.78
958.333	29.1065
959.997	28.5342
961.662	27.1404
963.326	25.491
964.989	24.3327
966.651	22.4957
968.315	21.6106
969.977	21.0486
971.639	20.468
973.301	18.6534
974.962	17.0999
976.624	16.1819
978.285	16.1833
979.945	15.7357
981.605	15.888
983.264	14.477
984.924	14.0811
986.583	13.5868
988.243	13.4596
989.901	13.9846
991.56	13.6344
993.217	13.8411
994.875	14.841
996.532	15.5769
998.188	16.5163
999.845	18.1555
1001.5	19.5259
1003.16	20.8017
1004.81	22.8187
1006.47	25.0134
1008.12	26.7272
1009.78	28.3794
1011.43	30.5586
1013.09	32.0954
1014.74	33.4625
1016.39	35.9165
1018.05	38.9732
1019.7	41.1039
1021.35	42.4502
1023	44.0806
1024.65	45.0039
1026.31	46.4894
1027.96	48.0221
1029.61	48.8005
1031.26	49.5564
1032.91	50.2471
1034.56	50.7298
1036.21	51.437
1037.86	51.2788
1039.51	49.8458
1041.16	48.6147
1042.8	47.5179
1044.45	45.4091
1046.1	44.3642
1047.75	42.8635
1049.39	42.0974
1051.04	41.5892
1052.69	40.0064
1054.33	38.7789
1055.98	37.7155
1057.62	36.1336
1059.27	35.394
1060.91	34.1007
1062.56	32.2053
1064.2	31.1798
1065.85	29.4532
1067.49	29.3868
1069.13	28.1651
1070.77	28.6108
1072.42	28.0829
1074.06	28.1023
1075.7	28.1175
1077.34	28.9619
1078.98	29.1546
1080.62	29.6016
1082.27	30.2903
1083.91	29.4653
1085.55	29.4497
1087.18	28.6406
1088.82	30.6408
1090.46	31.1676
1092.1	31.1788
1093.74	32.0388
1095.38	32.2916
1097.02	32.9932
1098.65	33.7254
1100.29	34.096
1101.93	33.2976
1103.56	32.5286
1105.2	32.1584
1106.84	32.1779
1108.47	30.8375
1110.11	29.5717
1111.74	29.0368
1113.38	28.2218
1115.01	26.6336
1116.64	25.4192
1118.28	24.447
1119.91	23.0984
1121.54	21.4545
1123.18	20.3583
1124.81	18.8206
1126.44	18.0219
1128.07	18.2178
1129.7	16.6374
1131.33	15.3573
1132.97	13.6944
1134.6	12.9615
1136.23	11.9951
1137.86	11.0637
1139.49	9.61333
1141.11	9.9795
1142.74	9.24599
1144.37	8.42286
1146	7.71407
1147.63	6.26644
1149.26	5.20934
1150.88	4.06151
1152.51	4.55896
1154.14	3.05656
1155.76	2.74362
1157.39	2.22299
1159.01	2.4072
1160.64	2.93754
1162.27	2.12918
1163.89	2.17151
1165.51	1.43937
1167.14	2.37711
1168.76	3.91379
1170.39	5.82234
1172.01	5.87081
1173.63	5.88269
1175.25	6.69289
1176.88	6.55456
1178.5	6.62093
1180.12	6.29749
1181.74	6.4621
1183.36	6.39041
1184.98	5.96327
1186.6	5.98431
1188.22	6.47287
1189.84	4.98648
1191.46	5.97405
1193.08	6.49435
1194.7	6.51264
1196.32	6.51221
1197.94	7.18097
1199.55	7.16229
1201.17	7.12568
1202.79	6.9788
1204.41	7.27154
1206.02	7.07892
1207.64	8.00717
1209.25	8.19059
1210.87	8.10698
1212.48	9.56178
1214.1	10.4345
1215.71	12.217
1217.33	12.5462
1218.94	12.9984
1220.56	14.1131
1222.17	14.9199
1223.79	14.6806
1225.4	15.9402
1227.01	17.22
1228.62	17.4965
1230.23	18.9707
1231.85	21.2014
1233.46	23.0753
1235.07	24.2655
1236.68	25.6758
1238.29	27.4892
1239.9	28.5405
1241.51	29.8266
1243.12	30.8922
1244.73	33.6034
1246.34	35.3267
1247.94	36.5364
1249.55	37.1155
1251.16	37.7013
1252.77	38.531
1254.37	38.7177
1255.98	38.8983
1257.59	39.7331
1259.2	41.0882
1260.8	40.9797
1262.41	41.6136
1264.01	42.4664
1265.62	43.4376
1267.22	44.5851
1268.83	46.5112
1270.43	47.0851
1272.03	48.4481
1273.64	49.43
1275.24	49.9727
1276.85	50.931
1278.45	52.1972
1280.05	52.6391
1281.65	53.1733
1283.25	53.4063
1284.85	53.6998
1286.46	54.1387
1288.06	54.6453
1289.66	54.3646
1291.26	54.5807
1292.86	54.0877
1294.46	53.5191
1296.06	52.875
1297.66	51.8213
1299.25	52.0118
1300.85	51.8646
1302.45	52.0385
1304.05	51.9229
1305.65	52.9824
1307.24	52.4343
1308.84	51.9645
1310.43	53.6025
1312.03	53.6402
1313.63	53.2316
1315.22	52.3233
1316.82	51.4159
1318.41	50.8986
1320.01	50.5094
1321.6	50.259
1323.2	49.9012
1324.79	49.4226
1326.38	48.1269
1327.98	46.9477
1329.57	46.4877
1331.16	46.6492
1332.76	46.0844
1334.35	45.5843
1335.94	45.8823
1337.53	46.5895
1339.12	46.4781
1340.71	45.4767
1342.3	45.8289
1343.89	46.0378
1345.48	46.251
1347.07	46.08
1348.66	46.0321
1350.25	45.4164
1351.84	45.2898
1353.43	45.5138
1355.01	45.7487
1356.6	45.1732
1358.19	44.4112
1359.77	43.0027
1361.36	41.9853
1362.95	42.1331
1364.53	41.8408
1366.12	41.417
1367.71	40.6484
1369.29	39.3491
1370.88	38.7042
1372.46	37.9294
1374.04	37.3865
1375.63	36.3113
1377.21	35.4192
1378.8	35.3834
1380.38	34.3976
1381.96	34.3167
1383.54	33.7059
1385.13	33.598
1386.71	32.7907
1388.29	32.3853
1389.87	31.6494
1391.45	30.3434
1393.03	28.6436
1394.61	28.0545
1396.19	27.8992
1397.77	28.1538
1399.35	28.3973
1400.93	27.9296
1402.51	27.962
1404.09	28.7535
1405.67	28.9168
1407.24	29.9655
1408.82	30.5898
1410.4	31.5137
1411.98	32.5115
1413.55	34.3495
1415.13	36.548
1416.71	38.0979
1418.28	39.5287
1419.86	41.4708
1421.43	44.1426
1423.01	46.5172
1424.58	48.9658
1426.16	50.6522
1427.73	52.747
1429.31	55.3677
1430.88	57.05
1432.45	59.1177
1434.02	60.8686
1435.6	62.031
1437.17	64.3582
1438.74	66.3857
1440.31	68.6771
1441.88	70.2098
1443.45	69.6827
1445.03	70.9688
1446.6	70.8959
1448.17	71.1938
1449.74	71.6641
1451.3	70.8916
1452.87	70.4344
1454.44	69.8139
1456.01	69.7319
1457.58	69.7811
1459.15	69.9365
1460.72	70.0336
1462.28	69.5573
1463.85	69.1565
1465.42	68.3046
1466.98	67.2634
1468.55	65.9442
1470.12	65.5219
1471.68	64.0693
1473.25	63.8536
1474.81	62.6043
1476.38	61.2289
1477.94	58.1805
1479.51	57.1471
1481.07	56.2362
1482.63	55.0298
1484.2	53.9513
1485.76	53.4107
1487.32	52.3152
1488.88	51.3545
1490.45	51.049
1492.01	50.2603
1493.57	48.4352
1495.13	46.943
1496.69	46.1933
1498.25	45.8011
1499.81	44.1608
1501.37	42.9623
1502.93	42.0065
1504.49	40.6961
1506.05	39.4027
1507.61	39.0125
1509.17	37.6923
1510.73	36.7234
1512.28	35.1294
1513.84	34.0357
1515.4	33.3094
1516.96	32.7903
1518.51	32.121
1520.07	30.6646
1521.63	30.3642
1523.18	31.2108
1524.74	30.4208
1526.29	30.2186
1527.85	29.5609
1529.4	28.9877
1530.96	29.3704
1532.51	29.3315
1534.06	30.3148
1535.62	30.6498
1537.17	32.026
1538.72	31.8175
1540.28	32.6317
1541.83	33.4721
1543.38	34.0258
1544.93	35.1827
1546.48	35.7825
1548.03	36.3847
1549.59	36.631
1551.14	36.9755
1552.69	37.6523
1554.24	37.9809
1555.79	37.8506
1557.34	39.4162
1558.88	40.7198
1560.43	40.6863
1561.98	41.7828
1563.53	42.4418
1565.08	43.1957
1566.62	43.506
1568.17	43.7976
1569.72	43.6838
1571.27	44.1829
1572.81	45.3812
1574.36	45.9828
1575.9	46.847
1577.45	47.2194
1579	48.4989
1580.54	48.7317
1582.09	49.1218
1583.63	49.4282
1585.17	50.171
1586.72	49.6498
1588.26	49.4684
1589.8	50.3803
1591.35	51.1469
1592.89	51.6812
1594.43	51.3886
1595.97	50.3651
1597.52	50.4102
1599.06	50.0941
1600.6	50.214
1602.14	49.013
1603.68	48.3297
1605.22	48.2525
1606.76	47.6956
1608.3	47.7988
1609.84	48.6592
1611.38	49.6589
1612.92	49.6187
1614.46	49.3517
1615.99	49.5873
1617.53	50.519
1619.07	50.732
1620.61	51.4779
1622.14	52.1519
1623.68	51.8969
1625.22	51.7343
1626.75	52.0675
1628.29	52.8026
1629.82	53.7402
1631.36	54.0442
1632.9	54.1438
1634.43	54.7387
1635.96	55.8104
1637.5	55.007
1639.03	56.262
1640.57	57.4058
1642.1	58.0726
1643.63	57.8124
1645.16	58.2201
1646.7	58.7529
1648.23	59.5051
1649.76	59.9682
1651.29	60.5993
1652.82	61.8515
1654.36	61.8234
1655.89	62.1291
1657.42	62.1393
1658.95	61.4345
1660.48	60.4023
1662.01	59.9174
1663.53	59.7961
1665.06	58.9163
1666.59	57.6319
1668.12	55.6558
1669.65	54.8498
1671.18	52.7647
1672.7	51.8415
1674.23	50.883
1675.76	49.1003
1677.29	48.2454
1678.81	45.932
1680.34	44.5451
1681.86	43.3529
1683.39	41.1518
1684.91	39.9818
1686.44	38.0884
1687.96	35.807
1689.49	33.038
1691.01	31.7498
1692.54	31.246
1694.06	29.9292
1695.58	28.5188
1697.11	27.0926
1698.63	26.2319
1700.15	24.7774
1701.67	23.3832
1703.2	22.8445
1704.72	21.9328
1706.24	20.8947
1707.76	19.4867
1709.28	18.6278
1710.8	18.1936
1712.32	18.4097
1713.84	18.0627
1715.36	18.8076
1716.88	18.684
1718.4	18.2358
1719.91	18.5017
1721.43	19.0544
1722.95	19.0689
1724.47	19.4868
1725.99	20.2891
1727.5	20.3769
1729.02	20.6363
1730.54	20.4214
1732.05	20.8345
1733.57	21.0474
1735.09	21.294
1736.6	21.5643
1738.12	21.4192
1739.63	21.5679
1741.15	20.965
1742.66	21.0458
1744.18	21.5828
1745.69	21.2618
1747.2	20.6089
1748.72	20.9035
1750.23	20.6869
1751.74	20.5866
1753.25	20.5016
1754.77	19.9798
1756.28	19.9828
1757.79	19.4743
1759.3	18.776
1760.81	18.8076
1762.32	18.4284
1763.83	18.5895
1765.34	18.1648
1766.85	18.8227
1768.36	18.3944
1769.87	17.8668
1771.38	17.0345
1772.89	16.8286
1774.4	17.0882
1775.91	15.9792
1777.41	15.7082
1778.92	15.495
1780.43	15.0686
1781.94	15.0464
1783.44	14.9956
1784.95	15.4069
1786.45	15.2147
1787.96	14.9934
1789.47	14.4083
1790.97	13.779
1792.48	13.6244
1793.98	14.2089
1795.48	14.4503
1796.99	14.1614
1798.49	13.866
1800	14.0652
1801.5	14.1694
1803	13.605
1804.51	13.8558
1806.01	13.705
1807.51	13.677
1809.01	13.3588
1810.51	13.1025
1812.02	12.5083
1813.52	12.1907
1815.02	12.1562
1816.52	11.7346
1818.02	11.6163
1819.52	11.5938
1821.02	11.0186
1822.52	11.2768
1824.02	11.1923
1825.51	11.4683
1827.01	11.2892
1828.51	11.411
1830.01	11.5081
1831.51	11.3894
1833	11.1215
1834.5	11.5022
1836	11.9213
1837.5	11.8624
1838.99	11.7506
1840.49	11.3752
1841.98	11.5664
1843.48	11.4054
1844.97	11.1813
1846.47	10.7983
1847.96	11.0446
1849.46	11.3362
1850.95	10.9253
1852.45	11.5415
1853.94	11.7733
1855.43	11.9505
1856.92	12.0276
1858.42	12.7608
1859.91	12.5225
1861.4	12.2015
1862.89	12.8437
1864.39	13.1604
1865.88	13.6198
1867.37	14.5813
1868.86	14.9585
1870.35	15.1364
1871.84	14.8531
1873.33	14.9033
1874.82	15.5235
1876.31	15.627
1877.8	15.3127
1879.29	15.404
1880.77	15.2891
1882.26	15.1208
1882.51	15.0596
1884	15.1287
1885.5	14.3173
1886.99	13.0876
1888.48	11.9622
1889.98	11.08
1891.47	10.3292
1892.97	9.8545
1894.46	8.86992
1895.95	8.81989
1897.44	8.34509
1898.93	7.81966
1900.42	7.1715
1901.92	6.84517
1903.41	6.28194
1904.9	6.22838
1906.39	5.87743
1907.88	5.69458
1909.37	5.88071
1910.86	5.78948
1912.35	5.8597
1913.84	5.09959
1915.32	5.1621
1916.81	5.04362
1918.3	4.29668
1919.79	3.98678
1921.28	3.65479
1922.76	3.90982
1924.25	3.6171
1925.74	4.28361
1927.22	4.74684
1928.71	4.42277
1930.2	4.53228
1931.68	4.18424
1933.17	3.85871
1934.65	4.61864
1936.14	4.88562
1937.62	5.07094
1939.11	4.75998
1940.59	4.41148
1942.08	4.59303
1943.56	5.03063
1945.04	4.55671
1946.53	4.80781
1948.01	5.00878
1949.49	4.94257
1950.97	4.88547
1952.45	4.68373
1953.94	4.33019
1955.42	4.39024
1956.9	3.79711
1958.38	3.1026
1959.86	1.83338
1961.34	1.12413
1962.82	1.56982
1964.3	1.38931
1965.78	1.6509
1967.26	1.70847
1968.74	1.75217
1970.22	1.96409
1971.69	1.97616
1973.17	2.36978
1974.65	2.68178
1976.13	2.663
1977.61	2.81333
1979.08	3.04403
1980.56	3.04062
1982.03	3.70813
1983.51	4.06768
1984.99	4.05721
1986.46	3.8775
1987.94	4.03429
1989.41	4.7157
1990.89	4.24124
1992.36	4.28095
1993.84	4.29226
1995.31	4.74271
1996.78	5.54885
1998.26	5.67597
1999.73	5.72869
2001.2	5.37779
2002.68	4.65944
2004.15	4.86007
2005.62	4.45218
2007.09	4.80805
2008.56	4.89185
2010.04	4.647
2011.51	4.26192
2012.98	3.48708
2014.45	3.93722
2015.92	4.86851
2017.39	4.38167
2018.86	3.69324
2020.33	3.54419
2021.8	3.96037
2023.27	3.62254
2024.74	2.92837
2026.2	2.60615
2027.67	3.34498
2029.14	3.23234
2030.61	2.59974
2032.07	2.75104
2033.54	2.69608
2035.01	3.52221
2036.47	4.3742
2037.94	3.83715
2039.41	4.27746
2040.87	4.21104
2042.34	4.63194
2043.8	4.698
2045.27	5.41014
2046.73	5.94921
2048.2	5.81633
2049.66	6.38672
2051.12	7.40147
2052.59	7.89279
2054.05	8.83915
2055.51	9.68397
2056.98	10.1993
2058.44	10.9535
2059.9	11.9594
2061.36	12.6471
2062.82	13.339
2064.29	13.2734
2065.75	14.5648
2067.21	15.1433
2068.67	16.906
2070.13	17.6811
2071.59	18.1024
2073.05	17.6961
2074.51	18.2979
2075.97	18.3812
2077.43	18.8157
2078.88	18.2112
2080.34	18.8508
2081.8	19.1146
2083.26	19.7948
2084.72	20.7656
2086.17	21.1041
2087.63	22.5937
2089.09	23.3707
2090.54	23.1108
2092	24.1428
2093.46	25.361
2094.91	26.2083
2096.37	26.3491
2097.82	27.4324
2099.28	28.0009
2100.73	28.8273
2102.19	28.9334
2103.64	29.878
2105.09	31.0398
2106.55	32.2121
2108	33.7304
2109.46	34.1701
2110.91	34.2483
2112.36	35.7881
2113.81	36.9904
2115.27	37.9788
2116.72	38.8069
2118.17	40.6126
2119.62	41.8788
2121.07	42.7423
2122.52	44.7267
2123.97	45.8985
2125.42	46.9999
2126.87	48.4233
2128.32	49.921
2129.77	50.9719
2131.22	52.3222
2132.67	53.6886
2134.12	55.2223
2135.57	57.3303
2137.01	58.6527
