#Acq. time (s)=	45
#Accumulations=	2
#Range (cm-¹)=	200...3150
#Windows=	2
#Auto scanning=	Off
#Autofocus=	Off
#Macrospot=	Off
#AutoExposure=	Off
#Spike filter=	Multiple accum.
#Delay time (s)=	0
#Binning=	1
#Readout mode=	Signal
#DeNoise=	Off
#ICS correction=	On
#Dark correction=	Off
#Inst. Process=	Off
#Detector Gain=	Best Dynamic Range
#Detector ADC=	20 kHz       
#Detector temperature (°C)=	-69.85
#Instrument=	LabRAM HR Evol
#Detector=	Synapse
#Objective=	x100
#Grating=	600 gr/mm
#ND Filter=	100%
#Laser (nm)=	532 
#Hole=	100.021
#Range=	Auto
#Laser Pol.=	No
#Raman. Pol.=	No
#Laser Pol. (°)=	-0.0007625
#Raman Pol. (°)=	89.9995
#Collection=	Microscope
#StageXY=	Marzhauser
#StageZ=	Marzhauser
#X (µm)=	19283.8
#Y (µm)=	3015.8
#Z (µm)=	1047.7
#Full time(mm:ss)=	3:15
#Project=	
#Sample=	
#Site=	
#Title=	Mb_50_18_18_2x_45s_532 nm_x100_100%_600 gr_mm
#Remark=	
#Date=	12.07.2022 11:35
#Acquired=	12.07.2022 11:35:56
#Base:Fit=	10.08.2022 10:49:18
#Base:Sub=	10.08.2022 10:49:30
#Filter:Polynom=	16.08.2022 10:14:59
#AxisType[0]=Intens
#AxisUnit[0]=Cnt
#AxisType[1]=Spectr
#AxisUnit[1]=1/cm
200.388	11.637
202.204	10.0176
204.019	9.76632
205.832	8.98192
207.646	7.75087
209.459	6.46788
211.274	5.67393
213.087	5.52861
214.899	5.73397
216.711	5.36009
218.524	5.0323
220.335	4.7549
222.146	4.05595
223.956	4.13849
225.766	3.92959
227.576	4.34756
229.388	3.51875
231.197	2.98983
233.005	3.20678
234.813	3.83476
236.621	4.11666
238.429	3.25061
240.236	4.04594
242.045	5.293
243.852	4.8795
245.658	4.79099
247.464	5.16441
249.269	5.74126
251.074	6.35248
252.879	6.72568
254.683	6.15024
256.487	6.12012
258.291	6.05664
260.094	6.22577
261.897	7.36151
263.702	6.87587
265.504	6.85757
267.306	8.1236
269.108	7.78581
270.909	6.76074
272.71	5.95476
274.511	5.21315
276.311	4.81496
278.111	4.96045
279.91	4.81729
281.709	4.74667
283.508	5.03819
285.306	4.43257
287.105	4.59664
288.9	4.84885
290.698	5.6338
292.495	6.13373
294.291	7.06851
296.088	7.89727
297.884	8.78916
299.679	10.811
301.475	12.1609
303.27	13.2056
305.064	13.266
306.858	13.4638
308.652	14.4067
310.444	15.3553
312.237	15.4146
314.03	16.8768
315.822	16.7906
317.615	17.7168
319.406	18.4679
321.198	19.5981
322.987	20.7629
324.778	21.2592
326.568	21.4876
328.358	21.0201
330.148	22.1577
331.935	21.9088
333.724	21.2703
335.513	21.0854
337.301	21.1194
339.089	20.4168
340.875	20.2862
342.662	21.0445
344.449	20.7369
346.236	21.5236
348.02	21.7494
349.806	21.9232
351.592	22.4828
353.375	22.8094
355.16	23.3418
356.944	23.7038
358.728	23.3909
360.51	24.2469
362.294	24.778
364.077	26.3317
365.858	27.5443
367.64	28.9026
369.422	29.4353
371.202	30.0454
372.983	31.2387
374.764	32.1268
376.543	33.4858
378.324	34.0957
380.102	34.6728
381.881	35.46
383.661	36.3871
385.438	36.18
387.216	36.0155
388.993	35.8996
390.771	35.4101
392.548	34.7036
394.324	33.7427
396.101	33.1166
397.875	32.4737
399.651	30.8616
401.425	29.8695
403.201	29.9483
404.974	28.5515
406.749	27.8573
408.524	25.7633
410.296	23.7622
412.07	21.5285
413.841	18.6914
415.614	15.8362
417.385	13.257
419.156	11.497
420.928	10.0275
422.698	8.52976
424.469	7.3965
426.238	6.36523
428.009	5.37453
429.777	5.24334
431.548	5.30509
433.315	4.30807
435.083	3.98203
436.852	4.33788
438.618	4.5774
440.387	5.39585
442.153	5.37019
443.919	5.95814
445.686	6.14321
447.451	7.22277
449.218	7.07525
450.982	8.26659
452.746	8.3517
454.512	8.76371
456.275	8.96981
458.038	9.27819
459.803	10.371
461.565	11.9484
463.327	11.8983
465.091	12.8406
466.852	12.6242
468.613	13.5302
470.374	13.6138
472.136	13.9302
473.896	14.31
475.655	14.524
477.415	15.4512
479.176	16.5539
480.934	17.1924
482.692	18.6611
484.45	20.4874
486.21	22.2173
487.967	23.7832
489.724	25.402
491.481	26.7143
493.237	27.1655
494.995	27.9384
496.75	28.8633
498.506	30.0161
500.26	30.2583
502.015	31.3767
503.771	32.4354
505.525	33.5382
507.279	34.4018
509.032	35.5403
510.785	35.6064
512.537	36.1063
514.289	36.0328
516.041	36.9685
517.793	37.0956
519.546	38.0029
521.297	38.139
523.047	38.5859
524.797	38.7467
526.547	38.6913
528.297	38.0775
530.046	37.6527
531.795	36.8089
533.543	35.7433
535.291	34.9812
537.039	33.398
538.787	32.0517
540.534	29.1981
542.281	28.2834
544.027	26.2145
545.773	24.3063
547.519	22.8603
549.264	21.3632
551.01	18.7079
552.754	17.2726
554.499	15.3805
556.243	14.1941
557.987	12.3217
559.73	11.0755
561.474	10.2596
563.216	9.25177
564.959	8.30634
566.701	8.0633
568.441	8.93927
570.182	9.44231
571.923	9.18945
573.664	8.45215
575.405	8.16753
577.145	6.80029
578.885	6.99621
580.624	6.27218
582.361	5.95051
584.1	6.15386
585.839	6.24886
587.577	6.13002
589.315	5.89795
591.052	5.32223
592.787	5.86695
594.524	6.3554
596.26	6.79722
597.997	7.06296
599.732	7.74921
601.466	8.66406
603.201	9.60345
604.936	9.97727
606.67	10.5506
608.403	10.5078
610.136	9.81455
611.87	8.76633
613.603	8.34188
615.334	8.25817
617.067	8.76717
618.799	8.08787
620.529	7.78728
622.26	7.96894
623.991	7.48127
625.72	6.49496
627.451	6.90585
629.181	7.35655
630.909	6.11395
632.638	6.04907
634.368	6.80269
636.095	6.20677
637.823	5.62875
639.551	5.45034
641.277	6.00399
643.005	6.56529
644.73	6.05222
646.457	5.70051
648.184	6.02122
649.908	5.76636
651.634	6.38148
653.357	7.18989
655.083	7.50773
656.806	6.46332
658.53	6.17136
660.253	6.25991
661.977	6.03659
663.7	5.39276
665.422	6.45713
667.145	8.08168
668.865	9.40528
670.588	10.5919
672.308	11.2596
674.027	11.7825
675.749	13.3767
677.468	14.7871
679.188	15.8811
680.907	16.6811
682.627	17.9513
684.345	18.9154
686.064	20.6013
687.781	22.3247
689.498	23.1205
691.216	23.9023
692.932	24.7542
694.65	25.5612
696.366	26.3029
698.081	27.2769
699.797	28.4554
701.512	29.7271
703.228	30.2225
704.942	30.851
706.655	31.7131
708.371	32.3126
710.083	32.0221
711.796	32.9945
713.51	33.9268
715.222	34.0708
716.934	33.0351
718.645	33.1032
720.358	33.2963
722.068	32.5519
723.779	32.2455
725.49	32.3215
727.2	31.5025
728.909	30.4392
730.618	30.0276
732.329	30.5057
734.037	31.1994
735.745	32.1387
737.453	34.2126
739.16	35.2446
740.869	37.8049
742.576	39.6353
744.282	42.7874
745.988	45.3539
747.694	47.7224
749.401	50.7109
751.107	54.6796
752.811	57.9931
754.516	60.1972
756.22	63.1606
757.924	66.5703
759.627	68.8628
761.332	71.5194
763.035	73.8405
764.738	76.1099
766.44	79.5186
768.142	81.9835
769.843	83.6646
771.544	86.3803
773.245	86.6399
774.946	87.0393
776.646	87.9875
778.346	88.8255
780.046	88.198
781.745	88.41
783.444	88.7166
785.143	88.5312
786.841	88.1771
788.539	87.5851
790.237	87.5926
791.934	86.5769
793.631	85.0268
795.328	84.039
797.024	82.2139
798.72	80.1705
800.416	78.1692
802.112	75.5282
803.807	73.6653
805.502	72.313
807.196	69.4907
808.89	67.8777
810.584	66.3421
812.278	65.1628
813.971	64.9806
815.664	65.0604
817.354	64.8403
819.047	64.9329
820.739	65.4111
822.43	66.1987
824.122	65.388
825.813	65.9125
827.503	65.5043
829.192	65.6048
830.882	64.8634
832.571	64.4539
834.261	64.0512
835.95	64.229
837.637	63.5499
839.325	62.7863
841.013	61.724
842.701	60.3013
844.389	58.6593
846.074	57.6459
847.761	56.8044
849.447	55.1566
851.131	53.7733
852.817	51.699
854.503	50.1728
856.188	48.7286
857.871	46.9053
859.556	46.4365
861.24	45.9706
862.922	45.3266
864.606	43.8881
866.289	44.1047
867.97	43.89
869.653	42.9219
871.336	42.6391
873.016	41.5698
874.698	41.267
876.379	40.334
878.058	39.9435
879.739	40.1259
881.418	40.0464
883.098	40.4561
884.778	40.3589
886.456	39.5333
888.135	39.2892
889.812	38.8066
891.49	38.5114
893.167	38.789
894.845	38.4328
896.523	38.5777
898.198	38.4029
899.875	38.2422
901.55	38.417
903.226	38.7787
904.901	38.2803
906.576	37.7484
908.25	37.4466
909.925	38.0254
911.598	38.0398
913.271	37.5818
914.945	36.6124
916.617	36.9155
918.291	36.0717
919.962	34.9468
921.635	33.25
923.306	31.9942
924.978	31.9583
926.648	31.3727
928.318	30.8654
929.989	29.9239
931.659	30.1509
933.328	29.8207
934.998	29.4578
936.666	30.1836
938.336	30.0682
940.004	29.2872
941.671	29.4498
943.34	28.6391
945.007	29.2966
946.673	28.8811
948.339	28.7927
950.007	29.2532
951.672	29.4431
953.337	29.1942
955.004	28.1295
956.669	27.6506
958.333	28.242
959.997	28.3952
961.662	28.4116
963.326	27.9712
964.989	27.8931
966.651	27.3282
968.315	26.685
969.977	26.2409
971.639	26.3794
973.301	25.9397
974.962	25.6856
976.624	25.8289
978.285	26.1542
979.945	25.2551
981.605	25.1034
983.264	24.113
984.924	24.8781
986.583	24.8141
988.243	24.3114
989.901	24.0587
991.56	23.9891
993.217	24.0858
994.875	24.2727
996.532	25.2475
998.188	26.1533
999.845	27.903
1001.5	28.4627
1003.16	29.3706
1004.81	31.9323
1006.47	33.8396
1008.12	35.6963
1009.78	37.3266
1011.43	39.165
1013.09	40.8428
1014.74	43.0399
1016.39	44.5815
1018.05	45.6721
1019.7	46.8794
1021.35	46.9346
1023	48.5212
1024.65	50.5038
1026.31	51.6107
1027.96	52.7443
1029.61	52.2916
1031.26	52.6362
1032.91	52.2675
1034.56	51.9421
1036.21	51.162
1037.86	50.0344
1039.51	50.5497
1041.16	50.0347
1042.8	48.5367
1044.45	47.6059
1046.1	46.6232
1047.75	45.5527
1049.39	44.5021
1051.04	43.2838
1052.69	42.3956
1054.33	40.736
1055.98	39.4504
1057.62	37.9639
1059.27	37.5759
1060.91	35.658
1062.56	33.2596
1064.2	32.2159
1065.85	30.9765
1067.49	31.172
1069.13	30.299
1070.77	29.8844
1072.42	28.7156
1074.06	28.8187
1075.7	29.5417
1077.34	30.4018
1078.98	30.4508
1080.62	30.3749
1082.27	30.6011
1083.91	31.0323
1085.55	31.5497
1087.18	32.5768
1088.82	32.3805
1090.46	33.0449
1092.1	34.1625
1093.74	33.9408
1095.38	34.1035
1097.02	34.1506
1098.65	33.4397
1100.29	32.431
1101.93	32.6441
1103.56	32.9896
1105.2	33.3542
1106.84	32.4721
1108.47	30.6933
1110.11	29.0339
1111.74	27.6045
1113.38	26.154
1115.01	25.8343
1116.64	24.944
1118.28	23.6984
1119.91	22.1996
1121.54	20.8481
1123.18	18.6735
1124.81	17.1265
1126.44	16.9809
1128.07	16.0562
1129.7	15.4199
1131.33	15.0706
1132.97	13.6342
1134.6	13.3099
1136.23	12.3658
1137.86	12.0924
1139.49	11.837
1141.11	11.4508
1142.74	10.186
1144.37	9.64564
1146	8.90387
1147.63	8.68368
1149.26	8.40729
1150.88	7.39094
1152.51	5.95729
1154.14	4.66254
1155.76	4.46992
1157.39	4.03611
1159.01	3.73638
1160.64	3.17597
1162.27	3.10123
1163.89	3.17483
1165.51	3.61766
1167.14	3.55059
1168.76	4.14807
1170.39	2.98066
1172.01	3.42808
1173.63	2.53403
1175.25	2.05289
1176.88	1.92187
1178.5	1.33382
1180.12	1.23267
1181.74	1.61183
1183.36	2.46715
1184.98	2.24469
1186.6	1.33786
1188.22	1.30833
1189.84	0.721243
1191.46	1.13999
1193.08	1.52196
1194.7	2.59636
1196.32	3.15582
1197.94	2.29955
1199.55	2.18335
1201.17	2.39484
1202.79	3.48582
1204.41	4.3421
1206.02	5.01206
1207.64	6.0392
1209.25	6.32764
1210.87	7.68767
1212.48	8.49352
1214.1	9.35613
1215.71	10.658
1217.33	11.0453
1218.94	12.4599
1220.56	13.3307
1222.17	13.696
1223.79	14.981
1225.4	15.8484
1227.01	17.3441
1228.62	18.2941
1230.23	18.3588
1231.85	19.2655
1233.46	19.3863
1235.07	20.7651
1236.68	21.5016
1238.29	22.4701
1239.9	23.6075
1241.51	24.8096
1243.12	25.7944
1244.73	27.1792
1246.34	27.9798
1247.94	27.3188
1249.55	27.9708
1251.16	27.6435
1252.77	28.3025
1254.37	28.5924
1255.98	30.3969
1257.59	30.8023
1259.2	31.9686
1260.8	33.1302
1262.41	34.1857
1264.01	35.9838
1265.62	36.5202
1267.22	37.5138
1268.83	39.3873
1270.43	40.5252
1272.03	42.8512
1273.64	44.6091
1275.24	46.8961
1276.85	47.6729
1278.45	49.0861
1280.05	50.0928
1281.65	51.5392
1283.25	53.0353
1284.85	53.3067
1286.46	53.664
1288.06	54.7239
1289.66	55.85
1291.26	56.4998
1292.86	56.7841
1294.46	57.4276
1296.06	57.3282
1297.66	57.618
1299.25	58.2645
1300.85	58.7906
1302.45	58.3726
1304.05	58.9731
1305.65	58.8451
1307.24	59.4868
1308.84	58.0369
1310.43	57.6384
1312.03	57.3975
1313.63	56.4921
1315.22	56.4758
1316.82	55.106
1318.41	54.3918
1320.01	52.8796
1321.6	51.6966
1323.2	50.1463
1324.79	49.2126
1326.38	46.9827
1327.98	45.3674
1329.57	45.1822
1331.16	43.6752
1332.76	42.8761
1334.35	42.7954
1335.94	42.2767
1337.53	40.9144
1339.12	40.4753
1340.71	38.6265
1342.3	38.0177
1343.89	37.1789
1345.48	35.586
1347.07	34.8648
1348.66	33.899
1350.25	32.7445
1351.84	31.9646
1353.43	31.099
1355.01	30.0377
1356.6	28.6602
1358.19	27.3069
1359.77	26.0142
1361.36	25.5224
1362.95	24.9491
1364.53	23.3328
1366.12	22.2817
1367.71	21.9081
1369.29	21.5594
1370.88	20.9284
1372.46	20.681
1374.04	20.3434
1375.63	20.0526
1377.21	20.6085
1378.8	20.3771
1380.38	20.8822
1381.96	20.7261
1383.54	21.4668
1385.13	20.4651
1386.71	20.2523
1388.29	19.4822
1389.87	19.6127
1391.45	19.4765
1393.03	19.3269
1394.61	19.1598
1396.19	19.413
1397.77	19.289
1399.35	19.9399
1400.93	21.4211
1402.51	22.4417
1404.09	24.4044
1405.67	25.3094
1407.24	27.499
1408.82	28.6925
1410.4	30.4065
1411.98	32.4794
1413.55	33.7979
1415.13	35.937
1416.71	37.7315
1418.28	39.3074
1419.86	41.1947
1421.43	43.9622
1423.01	45.9005
1424.58	47.5747
1426.16	48.936
1427.73	51.9014
1429.31	53.3788
1430.88	55.3572
1432.45	57.4123
1434.02	59.1438
1435.6	60.8773
1437.17	61.9679
1438.74	63.579
1440.31	64.3849
1441.88	65.2498
1443.45	65.4031
1445.03	66.3546
1446.6	66.8474
1448.17	67.4306
1449.74	67.3944
1451.3	67.0517
1452.87	66.8401
1454.44	66.2365
1456.01	65.9492
1457.58	63.7154
1459.15	62.2643
1460.72	60.1437
1462.28	58.2252
1463.85	56.2924
1465.42	55.0637
1466.98	53.0577
1468.55	51.0577
1470.12	48.8728
1471.68	46.9366
1473.25	45.3756
1474.81	43.8966
1476.38	41.4575
1477.94	40.0486
1479.51	37.993
1481.07	36.7377
1482.63	35.0835
1484.2	32.9481
1485.76	31.2252
1487.32	29.1217
1488.88	28.2398
1490.45	26.6974
1492.01	25.4179
1493.57	24.3765
1495.13	23.1569
1496.69	22.1901
1498.25	21.1835
1499.81	20.0154
1501.37	18.8629
1502.93	16.9957
1504.49	15.8131
1506.05	14.848
1507.61	13.2198
1509.17	13.0384
1510.73	12.7885
1512.28	12.2984
1513.84	11.8366
1515.4	11.5513
1516.96	11.3967
1518.51	10.7524
1520.07	11.2995
1521.63	11.515
1523.18	11.7708
1524.74	11.6382
1526.29	12.2748
1527.85	12.5592
1529.4	13.2634
1530.96	14.034
1532.51	14.5038
1534.06	14.726
1535.62	14.5694
1537.17	15.4145
1538.72	15.7973
1540.28	16.7184
1541.83	17.7605
1543.38	18.0343
1544.93	18.3588
1546.48	19.3503
1548.03	20.1405
1549.59	20.9075
1551.14	21.3527
1552.69	21.9473
1554.24	21.8524
1555.79	22.8375
1557.34	23.0439
1558.88	23.7357
1560.43	23.8795
1561.98	24.3181
1563.53	24.8732
1565.08	25.2189
1566.62	26.3741
1568.17	26.617
1569.72	27.3359
1571.27	27.6133
1572.81	29.0083
1574.36	29.6591
1575.9	29.923
1577.45	30.2842
1579	30.4543
1580.54	31.5947
1582.09	32.4262
1583.63	33.1606
1585.17	33.6638
1586.72	34.5678
1588.26	35.2705
1589.8	36.2527
1591.35	36.3505
1592.89	36.8961
1594.43	37.245
1595.97	37.8899
1597.52	38.5994
1599.06	38.1177
1600.6	38.102
1602.14	39.1369
1603.68	39.5735
1605.22	39.4813
1606.76	39.4703
1608.3	39.7511
1609.84	39.7386
1611.38	40.5622
1612.92	40.7809
1614.46	41.3241
1615.99	42.0273
1617.53	42.9792
1619.07	43.3626
1620.61	42.7576
1622.14	43.3543
1623.68	44.4485
1625.22	45.2372
1626.75	45.8725
1628.29	46.8256
1629.82	48.0761
1631.36	48.4833
1632.9	49.524
1634.43	49.9337
1635.96	50.3219
1637.5	50.9568
1639.03	51.1515
1640.57	52.4439
1642.1	53.0983
1643.63	54.1536
1645.16	54.7823
1646.7	56.3204
1648.23	56.6717
1649.76	57.328
1651.29	57.8111
1652.82	58.0186
1654.36	57.4094
1655.89	57.6762
1657.42	57.7758
1658.95	56.9099
1660.48	57.0307
1662.01	56.5246
1663.53	56.3169
1665.06	55.7207
1666.59	55.1551
1668.12	54.2542
1669.65	54.4652
1671.18	53.1282
1672.7	51.9629
1674.23	50.6243
1675.76	49.1147
1677.29	48.6332
1678.81	46.9054
1680.34	45.1555
1681.86	43.923
1683.39	42.3364
1684.91	40.936
1686.44	38.9559
1687.96	37.4521
1689.49	35.5154
1691.01	34.1261
1692.54	31.8808
1694.06	29.3752
1695.58	28.3301
1697.11	26.6244
1698.63	24.8392
1700.15	23.5657
1701.67	21.9943
1703.2	20.6483
1704.72	18.8766
1706.24	17.6467
1707.76	15.3915
1709.28	14.4709
1710.8	13.0389
1712.32	10.8893
1713.84	10.0499
1715.36	8.6493
1716.88	8.41119
1718.4	7.5958
1719.91	6.82009
1721.43	6.28778
1722.95	5.78019
1724.47	5.018
1725.99	4.95353
1727.5	4.53741
1729.02	3.33046
1730.54	3.11372
1732.05	3.50649
1733.57	3.60293
1735.09	4.00163
1736.6	4.4182
1738.12	4.33787
1739.63	4.58971
1741.15	5.3067
1742.66	5.55609
1744.18	5.63145
1745.69	5.38454
1747.2	4.70297
1748.72	5.21921
1750.23	5.00447
1751.74	4.82252
1753.25	4.39091
1754.77	4.0621
1756.28	4.55256
1757.79	3.93287
1759.3	3.76339
1760.81	3.73509
1762.32	3.57577
1763.83	4.00846
1765.34	4.10262
1766.85	3.77305
1768.36	3.73434
1769.87	3.91477
1771.38	4.19959
1772.89	3.35492
1774.4	3.19559
1775.91	3.80439
1777.41	3.94964
1778.92	3.63546
1780.43	3.42226
1781.94	3.83946
1783.44	3.52214
1784.95	3.65227
1786.45	3.28603
1787.96	2.97788
1789.47	3.79077
1790.97	4.0693
1792.48	4.76914
1793.98	4.49148
1795.48	4.59396
1796.99	4.67288
1798.49	4.5852
1800	3.7804
1801.5	3.24639
1803	2.5925
1804.51	2.52867
1806.01	2.9115
1807.51	2.95242
1809.01	3.07003
1810.51	3.07184
1812.02	3.28149
1813.52	3.12714
1815.02	2.74782
1816.52	2.47698
1818.02	2.10563
1819.52	1.72417
1821.02	0.979277
1822.52	0.929265
1824.02	1.32566
1825.51	0.793922
1827.01	0.879738
1828.51	1.00203
1830.01	1.60585
1831.51	1.94824
1833	2.15218
1834.5	3.24409
1836	3.33755
1837.5	3.60364
1838.99	4.85405
1840.49	5.27226
1841.98	5.22632
1843.48	5.48585
1844.97	5.75219
1846.47	5.88966
1847.96	5.97765
1849.46	5.83993
1850.95	5.42661
1852.45	5.66807
1853.94	5.1182
1855.43	5.40312
1856.92	5.3101
1858.42	6.04785
1859.91	6.11834
1861.4	6.50405
1862.89	6.58214
1864.39	6.49346
1865.88	6.15754
1867.37	6.00848
1868.86	5.53782
1870.35	5.17573
1871.84	4.55815
1873.33	4.52062
1874.82	4.11212
1876.31	3.90415
1877.8	3.57068
1879.29	3.22991
1880.77	3.32696
1882.26	3.04904
1882.51	3.09527
1884	3.48964
1885.5	3.46643
1886.99	3.07485
1888.48	2.40447
1889.98	2.33923
1891.47	2.12579
1892.97	2.64394
1894.46	2.28188
1895.95	2.9856
1897.44	3.07618
1898.93	3.23468
1900.42	3.6437
1901.92	3.97696
1903.41	4.58085
1904.9	4.95585
1906.39	4.75252
1907.88	4.84924
1909.37	4.63272
1910.86	5.18407
1912.35	5.75434
1913.84	5.27786
1915.32	4.63984
1916.81	4.2851
1918.3	4.24437
1919.79	3.55085
1921.28	3.14223
1922.76	2.24333
1924.25	1.94534
1925.74	2.03029
1927.22	1.76162
1928.71	2.31809
1930.2	2.72829
1931.68	3.27731
1933.17	3.60246
1934.65	3.51579
1936.14	3.87319
1937.62	3.72528
1939.11	3.23429
1940.59	3.16724
1942.08	2.48275
1943.56	2.68343
1945.04	3.16175
1946.53	3.37321
1948.01	3.47179
1949.49	3.94139
1950.97	4.71467
1952.45	4.91591
1953.94	5.32368
1955.42	4.6802
1956.9	5.25983
1958.38	5.10686
1959.86	4.29513
1961.34	3.85793
1962.82	4.06289
1964.3	4.08078
1965.78	3.95782
1967.26	4.12156
1968.74	3.82414
1970.22	3.91552
1971.69	3.45689
1973.17	3.7787
1974.65	3.6223
1976.13	3.77611
1977.61	3.93563
1979.08	3.64533
1980.56	4.14355
1982.03	4.41384
1983.51	4.56856
1984.99	4.71257
1986.46	4.55399
1987.94	4.22144
1989.41	4.23586
1990.89	4.77587
1992.36	4.95678
1993.84	4.89488
1995.31	5.14549
1996.78	4.70753
1998.26	5.78378
1999.73	6.05999
2001.2	6.25458
2002.68	6.50313
2004.15	6.69713
2005.62	6.86337
2007.09	7.07547
2008.56	6.237
2010.04	6.53621
2011.51	6.44236
2012.98	6.68494
2014.45	7.49014
2015.92	7.2806
2017.39	7.54232
2018.86	7.76873
2020.33	7.41083
2021.8	8.04608
2023.27	8.37584
2024.74	7.50821
2026.2	7.11305
2027.67	7.0796
2029.14	6.60922
2030.61	7.33932
2032.07	7.17232
2033.54	7.78873
2035.01	8.07648
2036.47	9.03071
2037.94	8.85206
2039.41	8.85006
2040.87	9.58705
2042.34	9.29293
2043.8	9.27874
2045.27	9.17755
2046.73	9.77012
2048.2	10.1029
2049.66	10.2509
2051.12	10.0918
2052.59	10.6081
2054.05	10.8767
2055.51	10.0854
2056.98	10.9371
2058.44	11.3379
2059.9	12.0074
2061.36	12.0149
2062.82	12.5561
2064.29	12.9134
2065.75	12.682
2067.21	13.3058
2068.67	13.4721
2070.13	13.3295
2071.59	14.2495
2073.05	14.3503
2074.51	14.8522
2075.97	15.5031
2077.43	16.1683
2078.88	17.2282
2080.34	17.554
2081.8	18.4581
2083.26	18.6404
2084.72	19.146
2086.17	19.5313
2087.63	20.8414
2089.09	21.0782
2090.54	22.5302
2092	23.5974
2093.46	23.7213
2094.91	25.0507
2096.37	25.1874
2097.82	25.4566
2099.28	26.6639
2100.73	28.2473
2102.19	29.33
2103.64	30.6976
2105.09	31.2554
2106.55	32.2739
2108	33.0416
2109.46	34.2207
2110.91	34.8465
2112.36	35.903
2113.81	37.189
2115.27	37.0263
2116.72	38.2385
2118.17	39.2543
2119.62	40.6472
2121.07	41.4813
2122.52	42.5933
2123.97	44.125
2125.42	46.019
2126.87	46.61
2128.32	47.9471
2129.77	50.2359
2131.22	51.4343
2132.67	53.3491
2134.12	54.2983
2135.57	56.313
2137.01	58.0247
