#Acq. time (s)=	45
#Accumulations=	2
#Range (cm-¹)=	200...3150
#Windows=	2
#Auto scanning=	Off
#Autofocus=	Off
#Macrospot=	Off
#AutoExposure=	Off
#Spike filter=	Multiple accum.
#Delay time (s)=	0
#Binning=	1
#Readout mode=	Signal
#DeNoise=	Off
#ICS correction=	On
#Dark correction=	Off
#Inst. Process=	Off
#Detector Gain=	Best Dynamic Range
#Detector ADC=	20 kHz       
#Detector temperature (°C)=	-69.85
#Instrument=	LabRAM HR Evol
#Detector=	Synapse
#Objective=	x100
#Grating=	600 gr/mm
#ND Filter=	100%
#Laser (nm)=	532 
#Hole=	100.021
#Range=	Auto
#Laser Pol.=	No
#Raman. Pol.=	No
#Laser Pol. (°)=	-0.0007625
#Raman Pol. (°)=	89.9995
#Collection=	Microscope
#StageXY=	Marzhauser
#StageZ=	Marzhauser
#X (µm)=	28285
#Y (µm)=	-3222.9
#Z (µm)=	1041.05
#Full time(mm:ss)=	3:19
#Project=	
#Sample=	
#Site=	
#Title=	Mb_50_18_37_2x_45s_532 nm_x100_100%_600 gr_mm
#Remark=	
#Date=	12.07.2022 13:45
#Acquired=	12.07.2022 13:45:57
#Base:Fit=	10.08.2022 10:49:18
#Base:Sub=	10.08.2022 10:49:30
#Filter:Polynom=	16.08.2022 10:14:59
#AxisType[0]=Intens
#AxisUnit[0]=Cnt
#AxisType[1]=Spectr
#AxisUnit[1]=1/cm
200.388	97.0894
202.204	90.2731
204.019	84.9305
205.832	81.4268
207.646	77.9597
209.459	74.5654
211.274	70.7665
213.087	68.0164
214.899	65.4301
216.711	61.2513
218.524	58.8501
220.335	55.9208
222.146	52.7005
223.956	48.6081
225.766	45.9907
227.576	43.724
229.388	40.8704
231.197	38.7316
233.005	37.615
234.813	35.3667
236.621	34.7709
238.429	32.6194
240.236	30.9069
242.045	29.5971
243.852	28.0333
245.658	27.0538
247.464	25.4596
249.269	24.5912
251.074	24.2481
252.879	24.6363
254.683	23.811
256.487	23.1071
258.291	22.0991
260.094	20.4737
261.897	17.286
263.702	13.9924
265.504	14.0817
267.306	12.3522
269.108	11.5475
270.909	8.65291
272.71	6.44871
274.511	5.23357
276.311	4.31154
278.111	6.28204
279.91	5.3515
281.709	5.48033
283.508	6.66114
285.306	7.54622
287.105	9.37581
288.9	10.3807
290.698	11.0065
292.495	13.6313
294.291	16.2975
296.088	18.5624
297.884	19.6211
299.679	21.4536
301.475	24.0071
303.27	27.0075
305.064	29.1734
306.858	30.9054
308.652	34.3506
310.444	35.9045
312.237	37.378
314.03	40.4186
315.822	41.9383
317.615	44.0775
319.406	44.8927
321.198	47.6154
322.987	48.3206
324.778	47.8635
326.568	48.2363
328.358	46.9869
330.148	45.6393
331.935	42.0833
333.724	39.1882
335.513	35.2653
337.301	32.1997
339.089	29.7605
340.875	27.7741
342.662	26.0613
344.449	25.0286
346.236	25.7022
348.02	27.6959
349.806	30.3916
351.592	34.3347
353.375	41.0099
355.16	48.1961
356.944	54.2447
358.728	62.5916
360.51	69.6274
362.294	78.8185
364.077	86.7695
365.858	93.8584
367.64	101.683
369.422	108.51
371.202	117.68
372.983	125.299
374.764	131.362
376.543	138.164
378.324	144.396
380.102	149.886
381.881	155.675
383.661	161.193
385.438	163.834
387.216	165.27
388.993	167.458
390.771	168.395
392.548	168.877
394.324	168.392
396.101	167.111
397.875	164.908
399.651	161.661
401.425	157.271
403.201	152.781
404.974	145.145
406.749	138.573
408.524	129.716
410.296	121.724
412.07	110.166
413.841	99.7279
415.614	88.474
417.385	76.7071
419.156	63.7031
420.928	51.3219
422.698	42.8262
424.469	33.3099
426.238	26.7674
428.009	19.3237
429.777	14.5153
431.548	10.1989
433.315	8.32956
435.083	7.36797
436.852	6.5644
438.618	5.02381
440.387	5.56568
442.153	4.99715
443.919	4.81644
445.686	5.61601
447.451	4.92846
449.218	3.59279
450.982	3.13578
452.746	2.49366
454.512	3.13241
456.275	4.62312
458.038	4.51061
459.803	6.06024
461.565	6.17159
463.327	7.05041
465.091	8.49824
466.852	9.20189
468.613	9.05121
470.374	10.6281
472.136	11.8324
473.896	13.889
475.655	16.8876
477.415	20.7921
479.176	27.5882
480.934	33.6777
482.692	42.2882
484.45	50.9767
486.21	59.8812
487.967	68.6892
489.724	77.745
491.481	87.5432
493.237	96.4049
494.995	105.446
496.75	115.423
498.506	125.199
500.26	133.313
502.015	140.976
503.771	148.433
505.525	154.677
507.279	159.214
509.032	164.941
510.785	170.392
512.537	174.184
514.289	177.907
516.041	178.395
517.793	180.906
519.546	181.614
521.297	182.476
523.047	180.336
524.797	179.329
526.547	175.96
528.297	173.627
530.046	167.979
531.795	163.936
533.543	157.882
535.291	151.132
537.039	143.802
538.787	136.284
540.534	126.656
542.281	118.593
544.027	108.287
545.773	98.7071
547.519	89.8283
549.264	78.3972
551.01	69.1061
552.754	59.1089
554.499	49.2558
556.243	41.0189
557.987	35.598
559.73	29.5087
561.474	24.7735
563.216	21.8495
564.959	20.0422
566.701	19.7159
568.441	18.9858
570.182	20.2542
571.923	20.8265
573.664	22.0213
575.405	23.3733
577.145	25.2371
578.885	26.713
580.624	27.7683
582.361	29.1205
584.1	30.4875
585.839	31.0695
587.577	29.669
589.315	29.8135
591.052	30.7193
592.787	31.8085
594.524	33.6663
596.26	36.4296
597.997	38.1384
599.732	39.6714
601.466	40.0666
603.201	40.0177
604.936	41.5786
606.67	41.7647
608.403	43.0867
610.136	43.2885
611.87	44.8075
613.603	42.6125
615.334	41.5366
617.067	39.1617
618.799	39.0175
620.529	37.3074
622.26	35.3922
623.991	32.3074
625.72	31.3701
627.451	28.7386
629.181	29.1825
630.909	27.5972
632.638	25.2734
634.368	22.1415
636.095	19.1192
637.823	17.8703
639.551	15.0329
641.277	13.1231
643.005	11.8306
644.73	10.9803
646.457	9.36733
648.184	9.96584
649.908	10.0906
651.634	8.51243
653.357	7.68223
655.083	8.28038
656.806	7.85986
658.53	6.57131
660.253	5.07516
661.977	4.72543
663.7	2.85073
665.422	1.29193
667.145	0.303231
668.865	-0.578921
670.588	-1.16708
672.308	-2.11805
674.027	-1.50621
675.749	1.24713
677.468	3.07257
679.188	5.14714
680.907	6.23936
682.627	7.87695
684.345	8.73265
686.064	10.5454
687.781	11.8929
689.498	13.2584
691.216	15.7201
692.932	18.4548
694.65	21.4466
696.366	21.9656
698.081	23.1357
699.797	24.2719
701.512	24.7565
703.228	27.172
704.942	29.6486
706.655	30.3409
708.371	32.057
710.083	34.4124
711.796	36.999
713.51	36.3353
715.222	37.1257
716.934	36.8732
718.645	36.1875
720.358	34.9098
722.068	33.5568
723.779	32.046
725.49	30.1454
727.2	29.9622
728.909	30.5139
730.618	32.6254
732.329	37.1837
734.037	42.4035
735.745	49.5744
737.453	58.4398
739.16	68.9774
740.869	83.8258
742.576	97.8932
744.282	112.79
745.988	129.519
747.694	146.699
749.401	162.605
751.107	180.404
752.811	197.375
754.516	213.585
756.22	227.741
757.924	241.408
759.627	255.379
761.332	266.286
763.035	277.042
764.738	285.819
766.44	292.835
768.142	300.058
769.843	305.038
771.544	309.898
773.245	312.204
774.946	312.928
776.646	313.098
778.346	310.534
780.046	306.384
781.745	300.923
783.444	296.722
785.143	289.71
786.841	280.423
788.539	270.893
790.237	259.642
791.934	246.442
793.631	234.548
795.328	219.361
797.024	203.488
798.72	185.815
800.416	169.044
802.112	153.487
803.807	135.668
805.502	116.992
807.196	101.287
808.89	87.2257
810.584	76.2996
812.278	67.1466
813.971	59.9065
815.664	54.4087
817.354	50.9266
819.047	48.7503
820.739	49.1722
822.43	49.4102
824.122	50.8807
825.813	54.1639
827.503	55.7263
829.192	56.7733
830.882	59.1262
832.571	60.6368
834.261	62.0721
835.95	63.035
837.637	63.5491
839.325	61.7141
841.013	60.872
842.701	60.3066
844.389	59.7183
846.074	58.9239
847.761	58.0856
849.447	55.8801
851.131	54.2849
852.817	54.5379
854.503	53.0504
856.188	52.2394
857.871	50.2424
859.556	48.9874
861.24	48.8597
862.922	47.4809
864.606	46.8651
866.289	46.1156
867.97	45.9929
869.653	43.4981
871.336	41.7216
873.016	40.116
874.698	40.221
876.379	38.9959
878.058	37.9711
879.739	35.4879
881.418	33.8374
883.098	32.0569
884.778	31.4833
886.456	30.4362
888.135	27.9574
889.812	27.2703
891.49	27.3781
893.167	27.8658
894.845	28.4663
896.523	26.7741
898.198	26.5582
899.875	25.7117
901.55	26.7271
903.226	26.9766
904.901	26.6953
906.576	26.1813
908.25	24.9477
909.925	25.5636
911.598	24.9165
913.271	24.1054
914.945	24.2167
916.617	23.3957
918.291	22.7371
919.962	22.3905
921.635	22.7392
923.306	21.6542
924.978	21.26
926.648	20.3803
928.318	18.7257
929.989	15.8164
931.659	13.7224
933.328	12.4057
934.998	11.9625
936.666	11.6439
938.336	10.9634
940.004	11.0612
941.671	9.37905
943.34	8.24385
945.007	7.15359
946.673	6.17917
948.339	7.67327
950.007	7.87524
951.672	9.46542
953.337	9.746
955.004	11.2101
956.669	10.8892
958.333	10.2825
959.997	7.91991
961.662	6.99861
963.326	7.80285
964.989	10.1966
966.651	13.4261
968.315	15.0905
969.977	16.2406
971.639	17.8732
973.301	20.8229
974.962	23.2827
976.624	26.0215
978.285	28.3983
979.945	29.7588
981.605	32.6673
983.264	34.7429
984.924	35.3494
986.583	36.3674
988.243	38.9254
989.901	43.8541
991.56	48.9911
993.217	56.3385
994.875	62.8377
996.532	74.5446
998.188	85.3243
999.845	97.5588
1001.5	110.159
1003.16	123.78
1004.81	137.127
1006.47	149.966
1008.12	163.09
1009.78	177.829
1011.43	188.986
1013.09	201.933
1014.74	215.729
1016.39	227.542
1018.05	238.416
1019.7	247.138
1021.35	255.47
1023	263.042
1024.65	268.815
1026.31	275.025
1027.96	280.462
1029.61	283.012
1031.26	284.757
1032.91	282.732
1034.56	281.628
1036.21	277.733
1037.86	272.747
1039.51	264.702
1041.16	256.886
1042.8	248.506
1044.45	243.447
1046.1	237.293
1047.75	229.036
1049.39	219.938
1051.04	209.859
1052.69	202.566
1054.33	196.37
1055.98	189.738
1057.62	182.915
1059.27	176.878
1060.91	172.43
1062.56	168.848
1064.2	165.16
1065.85	161.942
1067.49	160.672
1069.13	162.803
1070.77	164.722
1072.42	168.764
1074.06	170.505
1075.7	173.746
1077.34	178.629
1078.98	184.683
1080.62	187.25
1082.27	191.849
1083.91	194.99
1085.55	198.701
1087.18	199.589
1088.82	201.694
1090.46	203.473
1092.1	202.797
1093.74	201.584
1095.38	201.42
1097.02	199.549
1098.65	195.58
1100.29	191.345
1101.93	187.2
1103.56	182.257
1105.2	176.773
1106.84	170.149
1108.47	161.419
1110.11	152.906
1111.74	142.545
1113.38	132.889
1115.01	122.185
1116.64	111.54
1118.28	99.1707
1119.91	88.3992
1121.54	77.44
1123.18	69.2625
1124.81	60.7993
1126.44	54.3649
1128.07	48.1847
1129.7	42.7092
1131.33	38.7187
1132.97	35.6161
1134.6	34.3017
1136.23	32.2825
1137.86	29.8978
1139.49	29.6765
1141.11	29.3294
1142.74	29.3648
1144.37	28.3553
1146	27.3431
1147.63	26.7268
1149.26	25.5836
1150.88	24.6514
1152.51	22.3335
1154.14	20.5697
1155.76	18.8131
1157.39	19.1157
1159.01	19.7229
1160.64	18.9711
1162.27	18.0733
1163.89	18.5695
1165.51	18.6636
1167.14	18.7109
1168.76	19.3893
1170.39	22.193
1172.01	22.8808
1173.63	23.8453
1175.25	26.204
1176.88	26.9109
1178.5	26.6698
1180.12	26.5094
1181.74	29.5059
1183.36	31.364
1184.98	31.795
1186.6	34.1989
1188.22	36.001
1189.84	35.587
1191.46	37.0575
1193.08	35.927
1194.7	36.1751
1196.32	37.8229
1197.94	38.4805
1199.55	40.997
1201.17	43.8924
1202.79	46.7182
1204.41	49.3404
1206.02	51.6237
1207.64	55.3268
1209.25	58.3805
1210.87	59.2218
1212.48	61.3091
1214.1	65.3601
1215.71	67.6127
1217.33	70.0327
1218.94	72.8844
1220.56	74.9185
1222.17	78.1954
1223.79	81.2643
1225.4	85.1162
1227.01	88.7914
1228.62	90.9087
1230.23	94.3553
1231.85	97.7043
1233.46	99.6791
1235.07	101.825
1236.68	104.716
1238.29	108.03
1239.9	111.139
1241.51	112.551
1243.12	114.73
1244.73	117.359
1246.34	119.477
1247.94	121.281
1249.55	123.489
1251.16	125.451
1252.77	126.945
1254.37	127.882
1255.98	128.917
1257.59	130.092
1259.2	131.225
1260.8	133.526
1262.41	137.039
1264.01	137.243
1265.62	140.214
1267.22	143.666
1268.83	145.26
1270.43	144.59
1272.03	147.404
1273.64	148.735
1275.24	152.295
1276.85	154.669
1278.45	157.209
1280.05	160.356
1281.65	162.766
1283.25	164.816
1284.85	167.23
1286.46	169.099
1288.06	168.945
1289.66	170.797
1291.26	172.117
1292.86	173.933
1294.46	175.514
1296.06	175.344
1297.66	175.716
1299.25	176.205
1300.85	176.694
1302.45	177.563
1304.05	178.182
1305.65	178.522
1307.24	178.512
1308.84	176.467
1310.43	175.208
1312.03	172.739
1313.63	171.401
1315.22	169.411
1316.82	169.124
1318.41	167.77
1320.01	165.584
1321.6	162.031
1323.2	159.569
1324.79	157.202
1326.38	153.435
1327.98	150.518
1329.57	148.431
1331.16	145.475
1332.76	140.712
1334.35	136.186
1335.94	132.472
1337.53	129.521
1339.12	126.193
1340.71	124.643
1342.3	123.254
1343.89	119.993
1345.48	117.495
1347.07	114.704
1348.66	111.014
1350.25	107.467
1351.84	105.414
1353.43	102.413
1355.01	99.1559
1356.6	95.3842
1358.19	93.2927
1359.77	90.1091
1361.36	87.4327
1362.95	85.7424
1364.53	82.0931
1366.12	78.8706
1367.71	75.0278
1369.29	73.7924
1370.88	70.9632
1372.46	67.9358
1374.04	65.8698
1375.63	63.677
1377.21	61.8381
1378.8	60.0876
1380.38	58.0987
1381.96	56.1983
1383.54	55.4921
1385.13	53.6651
1386.71	52.138
1388.29	49.9964
1389.87	49.8735
1391.45	49.0653
1393.03	48.2733
1394.61	48.0309
1396.19	47.6023
1397.77	47.0338
1399.35	48.9193
1400.93	51.371
1402.51	52.8177
1404.09	57.4069
1405.67	59.8766
1407.24	65.2329
1408.82	71.0126
1410.4	75.0804
1411.98	80.1907
1413.55	88.4906
1415.13	96.6696
1416.71	105.877
1418.28	114.463
1419.86	123.726
1421.43	132.942
1423.01	140.169
1424.58	148.382
1426.16	158.188
1427.73	167.185
1429.31	175.618
1430.88	184.127
1432.45	192.078
1434.02	198.424
1435.6	205.663
1437.17	212.026
1438.74	217.675
1440.31	222.163
1441.88	226.23
1443.45	227.192
1445.03	230.186
1446.6	230.979
1448.17	232.338
1449.74	231.638
1451.3	230.749
1452.87	229.178
1454.44	226.939
1456.01	222.251
1457.58	217.278
1459.15	212.622
1460.72	207.855
1462.28	202.873
1463.85	196.168
1465.42	189.436
1466.98	182.501
1468.55	174.365
1470.12	166.127
1471.68	158.481
1473.25	151.342
1474.81	143.999
1476.38	137.696
1477.94	131.805
1479.51	124.538
1481.07	116.207
1482.63	110.097
1484.2	101.679
1485.76	95.7802
1487.32	88.8993
1488.88	82.4127
1490.45	77.879
1492.01	74.3733
1493.57	69.9884
1495.13	66.0441
1496.69	62.0927
1498.25	59.2145
1499.81	56.5362
1501.37	52.8704
1502.93	50.6044
1504.49	48.5265
1506.05	46.4101
1507.61	43.7726
1509.17	40.8751
1510.73	37.8388
1512.28	34.9107
1513.84	32.9472
1515.4	31.4025
1516.96	29.7931
1518.51	28.2861
1520.07	27.7034
1521.63	27.1584
1523.18	26.9962
1524.74	25.9927
1526.29	25.294
1527.85	26.7063
1529.4	27.2643
1530.96	27.6702
1532.51	28.386
1534.06	28.3467
1535.62	29.8516
1537.17	32.0469
1538.72	33.9099
1540.28	35.5356
1541.83	37.0407
1543.38	39.7076
1544.93	41.0284
1546.48	42.9607
1548.03	45.3412
1549.59	46.9022
1551.14	47.8754
1552.69	49.6652
1554.24	49.5829
1555.79	51.294
1557.34	51.623
1558.88	52.2894
1560.43	53.3717
1561.98	54.794
1563.53	57.1206
1565.08	60.4117
1566.62	64.6475
1568.17	69.3079
1569.72	73.9994
1571.27	77.5079
1572.81	81.9548
1574.36	85.7784
1575.9	90.736
1577.45	95.8071
1579	99.5166
1580.54	102.631
1582.09	106.364
1583.63	111.477
1585.17	115.804
1586.72	116.682
1588.26	119.082
1589.8	122.619
1591.35	125.411
1592.89	128.023
1594.43	129.966
1595.97	132.858
1597.52	133.519
1599.06	133.282
1600.6	133.154
1602.14	133.722
1603.68	135.038
1605.22	134.939
1606.76	133.586
1608.3	134.475
1609.84	134.501
1611.38	134.302
1612.92	135.345
1614.46	136.602
1615.99	137.53
1617.53	138.834
1619.07	141.008
1620.61	142.754
1622.14	143.353
1623.68	145.767
1625.22	146.554
1626.75	148.396
1628.29	150.399
1629.82	152.992
1631.36	155.056
1632.9	158.6
1634.43	161.012
1635.96	165.607
1637.5	170.015
1639.03	175.093
1640.57	181.189
1642.1	187.016
1643.63	192.174
1645.16	196.808
1646.7	200.697
1648.23	204.151
1649.76	208.392
1651.29	211.115
1652.82	214.512
1654.36	216.406
1655.89	216.144
1657.42	217.224
1658.95	218.102
1660.48	217.063
1662.01	214.618
1663.53	210.095
1665.06	208.356
1666.59	204.734
1668.12	199.698
1669.65	194.393
1671.18	189.158
1672.7	183.201
1674.23	175.183
1675.76	167.409
1677.29	161.065
1678.81	153.41
1680.34	145.369
1681.86	136.901
1683.39	128.841
1684.91	122.155
1686.44	114.482
1687.96	106.152
1689.49	99.5023
1691.01	93.0806
1692.54	87.346
1694.06	80.0833
1695.58	73.9731
1697.11	68.157
1698.63	61.8099
1700.15	57.3579
1701.67	51.7522
1703.2	46.3875
1704.72	42.1137
1706.24	38.0097
1707.76	33.5572
1709.28	30.8645
1710.8	27.9389
1712.32	25.7386
1713.84	23.0366
1715.36	20.8326
1716.88	18.0092
1718.4	16.268
1719.91	14.226
1721.43	12.578
1722.95	11.1285
1724.47	9.89189
1725.99	9.59535
1727.5	9.17958
1729.02	8.39505
1730.54	7.50246
1732.05	7.28303
1733.57	8.2617
1735.09	7.63797
1736.6	5.99957
1738.12	6.14376
1739.63	6.27752
1741.15	6.55481
1742.66	5.7162
1744.18	5.86687
1745.69	4.74206
1747.2	5.0786
1748.72	4.50475
1750.23	4.12589
1751.74	3.90052
1753.25	4.09315
1754.77	4.13705
1756.28	3.95855
1757.79	3.3035
1759.3	2.53727
1760.81	3.09437
1762.32	2.71651
1763.83	2.39503
1765.34	2.93434
1766.85	2.5456
1768.36	2.31743
1769.87	1.66163
1771.38	2.33204
1772.89	2.20641
1774.4	1.46072
1775.91	1.57487
1777.41	1.23449
1778.92	0.709135
1780.43	0.97743
1781.94	0.544344
1783.44	0.428946
1784.95	0.916376
1786.45	0.420256
1787.96	0.679522
1789.47	0.286151
1790.97	-0.648274
1792.48	-1.41229
1793.98	-0.411642
1795.48	-1.27681
1796.99	-2.01092
1798.49	-2.32931
1800	-1.72755
1801.5	-1.1168
1803	-1.21405
1804.51	-1.15475
1806.01	-1.48225
1807.51	-0.776287
1809.01	-0.915755
1810.51	-1.16081
1812.02	-1.53447
1813.52	-0.104616
1815.02	0.975474
1816.52	0.395611
1818.02	-0.286324
1819.52	-0.14391
1821.02	-0.270248
1822.52	0.894545
1824.02	1.48453
1825.51	2.59483
1827.01	2.95194
1828.51	2.88033
1830.01	3.48499
1831.51	2.77977
1833	2.6594
1834.5	2.54598
1836	3.78342
1837.5	4.90836
1838.99	5.66642
1840.49	6.40141
1841.98	7.35328
1843.48	8.70381
1844.97	9.44722
1846.47	9.84167
1847.96	9.23279
1849.46	9.00182
1850.95	9.58094
1852.45	9.12854
1853.94	9.11532
1855.43	9.05784
1856.92	10.1348
1858.42	10.7712
1859.91	10.3802
1861.4	10.739
1862.89	9.62888
1864.39	10.3082
1865.88	10.5833
1867.37	11.3799
1868.86	11.8011
1870.35	12.2771
1871.84	13.2252
1873.33	13.877
1874.82	14.3683
1876.31	14.7719
1877.8	14.9026
1879.29	15.3421
1880.77	14.6138
1882.26	15.208
1882.51	14.4344
1884	15.199
1885.5	16.1327
1886.99	16.9816
1888.48	16.9802
1889.98	16.579
1891.47	16.9733
1892.97	17.7063
1894.46	18.7271
1895.95	19.3541
1897.44	19.7447
1898.93	18.6914
1900.42	17.4895
1901.92	16.1653
1903.41	15.1502
1904.9	15.0218
1906.39	15.6281
1907.88	16.3069
1909.37	17.7249
1910.86	16.7107
1912.35	15.5965
1913.84	15.599
1915.32	14.7251
1916.81	14.7826
1918.3	13.9858
1919.79	13.6072
1921.28	12.849
1922.76	13.3208
1924.25	13.1666
1925.74	12.8795
1927.22	13.9133
1928.71	14.1922
1930.2	15.4567
1931.68	15.2108
1933.17	14.8021
1934.65	14.7624
1936.14	15.2108
1937.62	17.6193
1939.11	17.7933
1940.59	18.2174
1942.08	18.9993
1943.56	19.6442
1945.04	19.4747
1946.53	18.6911
1948.01	19.9248
1949.49	20.8889
1950.97	21.1525
1952.45	20.4634
1953.94	20.8306
1955.42	22.3425
1956.9	23.6787
1958.38	24.3436
1959.86	24.7847
1961.34	25.0642
1962.82	26.2702
1964.3	26.2617
1965.78	26.4159
1967.26	25.6315
1968.74	25.8746
1970.22	25.6723
1971.69	25.7993
1973.17	25.4145
1974.65	25.5133
1976.13	25.8541
1977.61	25.6375
1979.08	27.0915
1980.56	27.9956
1982.03	27.5903
1983.51	20.6828
1984.99	14.2277
1986.46	9.76847
1987.94	6.97213
1989.41	11.3549
1990.89	17.2334
1992.36	21.7763
1993.84	25.2323
1995.31	30.3014
1996.78	34.7324
1998.26	38.9504
1999.73	43.5891
2001.2	47.6162
2002.68	50.5173
2004.15	53.2927
2005.62	56.0219
2007.09	59.1661
2008.56	62.3418
2010.04	64.7758
2011.51	66.3988
2012.98	67.5205
2014.45	68.1672
2015.92	68.9364
2017.39	69.8816
2018.86	70.636
2020.33	70.0943
2021.8	71.2883
2023.27	71.4715
2024.74	70.9176
2026.2	69.9741
2027.67	70.2765
2029.14	69.5937
2030.61	68.4677
2032.07	68.1081
2033.54	68.0857
2035.01	67.607
2036.47	66.6181
2037.94	64.0762
2039.41	63.7262
2040.87	62.0992
2042.34	61.1709
2043.8	60.1137
2045.27	58.1699
2046.73	55.8972
2048.2	52.9268
2049.66	51.4831
2051.12	48.5353
2052.59	46.344
2054.05	43.49
2055.51	38.6815
2056.98	34.3428
2058.44	37.8827
2059.9	43.1307
2061.36	50.8456
2062.82	59.8002
2064.29	62.2663
2065.75	64.1843
2067.21	65.9919
2068.67	69.3608
2070.13	70.5087
2071.59	71.4847
2073.05	72.1799
2074.51	72.9699
2075.97	74.5876
2077.43	77.128
2078.88	79.6375
2080.34	81.3278
2081.8	83.7379
2083.26	84.4946
2084.72	86.9676
2086.17	88.257
2087.63	89.8143
2089.09	91.9091
2090.54	93.2362
2092	94.7676
2093.46	96.8877
2094.91	99.642
2096.37	102.024
2097.82	105.089
2099.28	107.941
2100.73	111.061
2102.19	114.222
2103.64	117.879
2105.09	121.029
2106.55	124.325
2108	127.579
2109.46	131.751
2110.91	135.935
2112.36	140.758
2113.81	145.171
2115.27	149.841
2116.72	155.109
2118.17	159.81
2119.62	165.412
2121.07	170.718
2122.52	176.602
2123.97	182.39
2125.42	187.844
2126.87	193.605
2128.32	198.767
2129.77	204.434
2131.22	210.179
