#Acq. time (s)=	45
#Accumulations=	2
#Range (cm-¹)=	200...3150
#Windows=	2
#Auto scanning=	Off
#Autofocus=	Off
#Macrospot=	Off
#AutoExposure=	Off
#Spike filter=	Multiple accum.
#Delay time (s)=	0
#Binning=	1
#Readout mode=	Signal
#DeNoise=	Off
#ICS correction=	On
#Dark correction=	Off
#Inst. Process=	Off
#Detector Gain=	Best Dynamic Range
#Detector ADC=	20 kHz       
#Detector temperature (°C)=	-69.85
#Instrument=	LabRAM HR Evol
#Detector=	Synapse
#Objective=	x100
#Grating=	600 gr/mm
#ND Filter=	100%
#Laser (nm)=	532 
#Hole=	100.021
#Range=	Auto
#Laser Pol.=	No
#Raman. Pol.=	No
#Laser Pol. (°)=	-0.0007625
#Raman Pol. (°)=	89.9995
#Collection=	Microscope
#StageXY=	Marzhauser
#StageZ=	Marzhauser
#X (µm)=	28458.1
#Y (µm)=	-2965.4
#Z (µm)=	1043.55
#Full time(mm:ss)=	3:19
#Project=	
#Sample=	
#Site=	
#Title=	Mb_50_18_47_2x_45s_532 nm_x100_100%_600 gr_mm
#Remark=	
#Date=	12.07.2022 14:42
#Acquired=	12.07.2022 14:42:48
#Edit:Spike=	12.07.2022 14:45:55
#Base:Fit=	10.08.2022 10:49:18
#Base:Sub=	10.08.2022 10:49:30
#Filter:Polynom=	16.08.2022 10:14:59
#AxisType[0]=Intens
#AxisUnit[0]=Cnt
#AxisType[1]=Spectr
#AxisUnit[1]=1/cm
200.388	32.2581
202.204	31.0654
204.019	29.0957
205.832	28.2092
207.646	27.3076
209.459	26.4446
211.274	25.0176
213.087	24.5742
214.899	23.7202
216.711	22.923
218.524	21.1751
220.335	20.4399
222.146	18.8585
223.956	17.724
225.766	16.1623
227.576	14.7985
229.388	12.9472
231.197	12.6287
233.005	11.8791
234.813	10.1563
236.621	9.5176
238.429	9.3364
240.236	8.39581
242.045	8.13271
243.852	6.92194
245.658	6.28047
247.464	6.16951
249.269	6.3701
251.074	5.54295
252.879	7.19733
254.683	6.74873
256.487	7.31833
258.291	6.84983
260.094	7.2048
261.897	7.07878
263.702	5.7949
265.504	4.8222
267.306	4.27163
269.108	3.98862
270.909	4.90992
272.71	4.5263
274.511	5.82875
276.311	4.93144
278.111	4.56082
279.91	3.75259
281.709	3.77602
283.508	4.00974
285.306	5.51352
287.105	6.58331
288.9	6.93752
290.698	7.26928
292.495	7.34267
294.291	8.30271
296.088	8.1794
297.884	9.22609
299.679	9.67253
301.475	10.0249
303.27	11.7232
305.064	11.6004
306.858	11.9424
308.652	11.7322
310.444	12.2118
312.237	11.9829
314.03	12.2138
315.822	12.4733
317.615	12.4494
319.406	12.3425
321.198	13.0811
322.987	11.793
324.778	11.339
326.568	11.8425
328.358	11.8247
330.148	11.2306
331.935	11.6263
333.724	10.956
335.513	11.9991
337.301	11.7225
339.089	11.5064
340.875	10.2803
342.662	10.4741
344.449	9.5418
346.236	9.37558
348.02	8.8255
349.806	8.23098
351.592	7.54849
353.375	6.60596
355.16	7.7062
356.944	7.42056
358.728	7.33001
360.51	7.49157
362.294	7.83348
364.077	9.2218
365.858	9.48217
367.64	11.3729
369.422	12.4371
371.202	13.4095
372.983	13.0796
374.764	12.9539
376.543	13.9961
378.324	15.2827
380.102	15.776
381.881	16.8253
383.661	18.2579
385.438	18.6397
387.216	18.6035
388.993	18.4958
390.771	19.7645
392.548	20.3801
394.324	19.6949
396.101	19.3524
397.875	19.3353
399.651	19.0189
401.425	18.7939
403.201	18.7363
404.974	18.6053
406.749	17.2037
408.524	16.1539
410.296	15.4351
412.07	13.6091
413.841	13.4343
415.614	12.3733
417.385	11.6337
419.156	9.83356
420.928	8.74438
422.698	7.16003
424.469	6.03226
426.238	5.3612
428.009	4.95019
429.777	4.01185
431.548	3.79612
433.315	3.42339
435.083	3.4318
436.852	3.33332
438.618	3.2494
440.387	3.87583
442.153	3.18886
443.919	3.33071
445.686	2.39417
447.451	3.87528
449.218	4.1978
450.982	4.19216
452.746	3.17836
454.512	2.36471
456.275	2.27524
458.038	2.50664
459.803	1.643
461.565	2.28762
463.327	4.32913
465.091	5.72866
466.852	5.59706
468.613	5.47608
470.374	6.54258
472.136	7.10679
473.896	6.87625
475.655	7.90561
477.415	10.2755
479.176	12.3558
480.934	12.5582
482.692	12.4377
484.45	13.7421
486.21	15.3441
487.967	16.6922
489.724	17.5507
491.481	18.8251
493.237	18.2899
494.995	18.5165
496.75	19.7045
498.506	20.5285
500.26	20.5348
502.015	22.8143
503.771	23.6518
505.525	23.6062
507.279	23.4351
509.032	24.6758
510.785	25.5117
512.537	25.6403
514.289	25.8127
516.041	23.9372
517.793	23.559
519.546	23.0501
521.297	23.2492
523.047	22.9116
524.797	22.0175
526.547	21.0302
528.297	19.199
530.046	17.8028
531.795	16.9219
533.543	15.5395
535.291	14.053
537.039	12.5334
538.787	11.1776
540.534	10.3957
542.281	10.4923
544.027	9.45833
545.773	9.53029
547.519	8.06516
549.264	8.09238
551.01	7.19375
552.754	6.36059
554.499	4.52464
556.243	4.92277
557.987	3.98862
559.73	3.31696
561.474	3.59767
563.216	4.26264
564.959	4.08506
566.701	4.84639
568.441	3.90033
570.182	3.6815
571.923	4.59622
573.664	4.93112
575.405	4.51697
577.145	4.53748
578.885	5.35337
580.624	4.91858
582.361	6.39121
584.1	7.19725
585.839	6.16246
587.577	5.36542
589.315	6.67737
591.052	5.33131
592.787	4.52802
594.524	4.94139
596.26	4.90295
597.997	4.60659
599.732	4.30726
601.466	5.04361
603.201	4.33745
604.936	5.68048
606.67	5.95139
608.403	5.88246
610.136	5.23488
611.87	4.94738
613.603	4.91579
615.334	4.14347
617.067	3.91435
618.799	3.81869
620.529	4.22997
622.26	4.13562
623.991	4.7737
625.72	5.59018
627.451	4.74953
629.181	3.66872
630.909	3.53153
632.638	3.64089
634.368	3.45204
636.095	2.68068
637.823	2.87538
639.551	3.41906
641.277	3.65232
643.005	4.62356
644.73	4.36105
646.457	4.77178
648.184	5.67053
649.908	6.34282
651.634	7.48112
653.357	9.03939
655.083	8.4134
656.806	9.33335
658.53	10.4175
660.253	11.9815
661.977	13.0734
663.7	15.185
665.422	16.2691
667.145	16.2378
668.865	16.6771
670.588	17.6915
672.308	16.6098
674.027	18.1771
675.749	19.3461
677.468	18.3418
679.188	19.7872
680.907	21.0364
682.627	22.0445
684.345	23.8025
686.064	24.3968
687.781	25.3446
689.498	24.5233
691.216	26.5775
692.932	27.245
694.65	27.2704
696.366	28.315
698.081	27.8443
699.797	28.0555
701.512	28.6835
703.228	29.9426
704.942	30.4258
706.655	30.1131
708.371	30.4442
710.083	31.2983
711.796	30.337
713.51	29.1631
715.222	28.7925
716.934	30.5043
718.645	30.8308
720.358	31.234
722.068	31.7048
723.779	33.1124
725.49	33.0505
727.2	32.5682
728.909	32.0265
730.618	33.3374
732.329	35.5241
734.037	36.3844
735.745	38.8172
737.453	40.6097
739.16	42.205
740.869	44.4175
742.576	48.146
744.282	51.2893
745.988	54.3796
747.694	56.7846
749.401	59.3126
751.107	61.0415
752.811	62.7673
754.516	65.3041
756.22	68.0536
757.924	68.6696
759.627	71.139
761.332	73.0479
763.035	76.0718
764.738	79.478
766.44	81.4773
768.142	83.4519
769.843	85.001
771.544	85.4994
773.245	87.8273
774.946	88.3498
776.646	90.3198
778.346	92.1137
780.046	92.3067
781.745	93.409
783.444	92.4984
785.143	93.8924
786.841	94.3489
788.539	93.546
790.237	92.5578
791.934	92.4772
793.631	92.4008
795.328	90.5901
797.024	89.3938
798.72	89.4467
800.416	88.9094
802.112	88.6899
803.807	87.1178
805.502	85.1479
807.196	83.5309
808.89	80.916
810.584	78.1358
812.278	77.5666
813.971	76.8224
815.664	76.7308
817.354	76.3808
819.047	74.988
820.739	76.0072
822.43	75.7211
824.122	75.6818
825.813	74.9549
827.503	75.0736
829.192	73.218
830.882	73.5897
832.571	72.5959
834.261	71.6369
835.95	71.0563
837.637	69.2918
839.325	66.494
841.013	65.6971
842.701	64.1289
844.389	62.3593
846.074	60.997
847.761	59.5767
849.447	57.8447
851.131	56.1159
852.817	55.5832
854.503	53.6992
856.188	53.1303
857.871	53.1042
859.556	51.5855
861.24	51.8047
862.922	51.7017
864.606	49.0974
866.289	48.3581
867.97	47.1021
869.653	47.8159
871.336	47.2995
873.016	46.3501
874.698	45.6019
876.379	45.5579
878.058	44.7587
879.739	43.9679
881.418	45.0316
883.098	44.6498
884.778	43.9025
886.456	42.9563
888.135	42.6067
889.812	42.2656
891.49	42.5616
893.167	41.5508
894.845	42.1396
896.523	43.273
898.198	43.0158
899.875	42.7783
901.55	42.7647
903.226	42.2777
904.901	42.3383
906.576	42.231
908.25	41.8623
909.925	41.9338
911.598	43.0679
913.271	42.3652
914.945	42.3573
916.617	40.6624
918.291	39.0733
919.962	38.0925
921.635	35.6374
923.306	35.8034
924.978	35.9192
926.648	34.1762
928.318	32.9627
929.989	32.78
931.659	32.8967
933.328	32.5607
934.998	32.7838
936.666	32.9333
938.336	31.8649
940.004	32.2299
941.671	30.9596
943.34	29.8924
945.007	29.1363
946.673	28.0203
948.339	26.8425
950.007	26.5669
951.672	26.2395
953.337	25.4339
955.004	24.6961
956.669	24.0037
958.333	24.1881
959.997	23.8819
961.662	23.5353
963.326	24.0503
964.989	24.9922
966.651	23.898
968.315	23.0811
969.977	23.5564
971.639	23.5962
973.301	22.746
974.962	21.6873
976.624	20.5856
978.285	20.5936
979.945	19.8073
981.605	18.7292
983.264	17.0486
984.924	16.5516
986.583	16.0089
988.243	16.4693
989.901	16.3448
991.56	16.836
993.217	17.791
994.875	18.0863
996.532	17.885
998.188	18.5506
999.845	19.4451
1001.5	20.066
1003.16	21.1311
1004.81	21.2962
1006.47	22.8153
1008.12	23.1701
1009.78	24.6462
1011.43	26.1053
1013.09	27.245
1014.74	28.523
1016.39	29.54
1018.05	30.9233
1019.7	31.4227
1021.35	31.7258
1023	31.6778
1024.65	31.2041
1026.31	31.3552
1027.96	31.8619
1029.61	32.1486
1031.26	32.723
1032.91	32.8614
1034.56	33.1061
1036.21	33.2369
1037.86	33.9861
1039.51	33.9076
1041.16	33.3193
1042.8	32.4654
1044.45	31.9732
1046.1	31.2328
1047.75	29.9082
1049.39	28.6538
1051.04	27.5757
1052.69	27.2733
1054.33	25.7807
1055.98	25.0233
1057.62	23.8303
1059.27	22.1645
1060.91	21.2067
1062.56	21.0625
1064.2	21.1626
1065.85	19.8011
1067.49	20.8933
1069.13	20.4315
1070.77	21.4974
1072.42	21.9061
1074.06	23.2959
1075.7	23.5705
1077.34	22.6066
1078.98	22.7239
1080.62	23.4318
1082.27	22.8394
1083.91	22.5277
1085.55	22.6058
1087.18	23.0673
1088.82	22.9993
1090.46	23.416
1092.1	23.15
1093.74	22.5484
1095.38	21.7155
1097.02	21.463
1098.65	20.9258
1100.29	20.2286
1101.93	18.9091
1103.56	18.2033
1105.2	16.6853
1106.84	16.4569
1108.47	16.1331
1110.11	16.4944
1111.74	15.0588
1113.38	14.7542
1115.01	14.2408
1116.64	13.0696
1118.28	12.7479
1119.91	11.7463
1121.54	10.5063
1123.18	8.77261
1124.81	7.65481
1126.44	7.03178
1128.07	6.6575
1129.7	6.05523
1131.33	6.84119
1132.97	6.94145
1134.6	7.64928
1136.23	7.20251
1137.86	6.55607
1139.49	6.25321
1141.11	6.25113
1142.74	8.15509
1144.37	7.8726
1146	6.44274
1147.63	4.79595
1149.26	5.94559
1150.88	5.98831
1152.51	6.97318
1154.14	6.74782
1155.76	7.63297
1157.39	6.23993
1159.01	6.04747
1160.64	6.03372
1162.27	6.4221
1163.89	5.99895
1165.51	5.74985
1167.14	5.98406
1168.76	4.76112
1170.39	4.13799
1172.01	4.28803
1173.63	3.47005
1175.25	2.92873
1176.88	3.03462
1178.5	3.7473
1180.12	3.35296
1181.74	3.29124
1183.36	3.73847
1184.98	4.58802
1186.6	3.69733
1188.22	4.21132
1189.84	4.53915
1191.46	3.31049
1193.08	3.2818
1194.7	4.18802
1196.32	3.96538
1197.94	3.56898
1199.55	3.92116
1201.17	2.98417
1202.79	2.90558
1204.41	2.95678
1206.02	3.99671
1207.64	4.9401
1209.25	5.31614
1210.87	5.84429
1212.48	7.06959
1214.1	7.66942
1215.71	8.82478
1217.33	8.1032
1218.94	8.82334
1220.56	9.37101
1222.17	9.92418
1223.79	10.4256
1225.4	9.73787
1227.01	10.5781
1228.62	11.5793
1230.23	13.3655
1231.85	13.8824
1233.46	13.5298
1235.07	13.5567
1236.68	13.5422
1238.29	12.2575
1239.9	13.0004
1241.51	12.9809
1243.12	13.0794
1244.73	13.0105
1246.34	13.3421
1247.94	13.6952
1249.55	13.4377
1251.16	14.3215
1252.77	14.5466
1254.37	14.8298
1255.98	15.8574
1257.59	17.5787
1259.2	17.9364
1260.8	18.279
1262.41	19.1578
1264.01	19.6418
1265.62	20.6012
1267.22	20.7776
1268.83	21.4531
1270.43	23.1789
1272.03	24.0826
1273.64	26.0041
1275.24	26.5393
1276.85	26.8994
1278.45	27.6983
1280.05	29.0067
1281.65	29.7685
1283.25	31.1487
1284.85	30.9856
1286.46	32.7578
1288.06	33.5014
1289.66	33.9057
1291.26	35.3817
1292.86	36.9892
1294.46	38.2023
1296.06	38.2218
1297.66	37.8729
1299.25	38.9357
1300.85	38.2966
1302.45	39.322
1304.05	38.6748
1305.65	38.7521
1307.24	38.5602
1308.84	38.9944
1310.43	39.3635
1312.03	39.0733
1313.63	39.1174
1315.22	38.915
1316.82	39.0996
1318.41	38.8018
1320.01	39.5236
1321.6	38.8894
1323.2	39.1493
1324.79	40.1347
1326.38	40.0559
1327.98	39.8301
1329.57	39.8381
1331.16	39.9784
1332.76	40.6686
1334.35	40.5668
1335.94	40.1695
1337.53	39.9516
1339.12	39.311
1340.71	39.5175
1342.3	39.0681
1343.89	38.6926
1345.48	38.3391
1347.07	36.7866
1348.66	36.2596
1350.25	35.4436
1351.84	34.3216
1353.43	33.4728
1355.01	32.9179
1356.6	32.0152
1358.19	31.4919
1359.77	31.647
1361.36	29.7584
1362.95	28.1196
1364.53	27.07
1366.12	26.9702
1367.71	25.1752
1369.29	24.5889
1370.88	24.832
1372.46	23.9908
1374.04	22.9204
1375.63	22.3121
1377.21	21.2682
1378.8	20.9959
1380.38	20.3709
1381.96	20.522
1383.54	20.4553
1385.13	20.6303
1386.71	20.3543
1388.29	19.7698
1389.87	19.349
1391.45	19.6073
1393.03	19.4227
1394.61	18.7398
1396.19	18.561
1397.77	18.1444
1399.35	18.4637
1400.93	18.2556
1402.51	19.5239
1404.09	19.2747
1405.67	19.7437
1407.24	19.5601
1408.82	20.0773
1410.4	21.3989
1411.98	22.3904
1413.55	23.2141
1415.13	25.136
1416.71	27.4616
1418.28	29.444
1419.86	31.8346
1421.43	33.8565
1423.01	35.7469
1424.58	38.1562
1426.16	40.6169
1427.73	42.913
1429.31	44.834
1430.88	46.3241
1432.45	47.7051
1434.02	48.803
1435.6	51.0723
1437.17	52.6127
1438.74	53.9763
1440.31	54.2999
1441.88	54.7047
1443.45	55.8608
1445.03	57.017
1446.6	57.9389
1448.17	59.2185
1449.74	59.5978
1451.3	59.219
1452.87	58.8449
1454.44	58.6268
1456.01	57.8082
1457.58	57.5471
1459.15	57.5209
1460.72	56.5754
1462.28	56.0553
1463.85	54.5568
1465.42	53.0552
1466.98	52.1752
1468.55	52.2494
1470.12	50.1237
1471.68	48.1468
1473.25	47.2112
1474.81	45.3528
1476.38	44.1165
1477.94	42.9852
1479.51	41.8539
1481.07	40.8636
1482.63	40.0114
1484.2	39.3738
1485.76	38.1018
1487.32	37.9153
1488.88	37.2786
1490.45	36.6526
1492.01	36.6342
1493.57	35.8964
1495.13	34.77
1496.69	33.4426
1498.25	33.1023
1499.81	32.3546
1501.37	31.7699
1502.93	30.8882
1504.49	29.4352
1506.05	27.8171
1507.61	27.1384
1509.17	25.4556
1510.73	25.2737
1512.28	25.0043
1513.84	24.3507
1515.4	23.0341
1516.96	21.8909
1518.51	20.595
1520.07	19.5507
1521.63	18.747
1523.18	18.8525
1524.74	17.7131
1526.29	16.6691
1527.85	15.632
1529.4	15.2254
1530.96	15.1953
1532.51	14.9919
1534.06	14.7071
1535.62	15.6487
1537.17	16.3277
1538.72	16.9551
1540.28	17.9718
1541.83	18.5948
1543.38	19.0061
1544.93	19.9989
1546.48	19.8088
1548.03	18.9359
1549.59	20.12
1551.14	20.9482
1552.69	21.1608
1554.24	22.1587
1555.79	23.2161
1557.34	23.7872
1558.88	24.4908
1560.43	25.2707
1561.98	25.2816
1563.53	26.095
1565.08	25.9199
1566.62	26.4659
1568.17	26.9384
1569.72	26.5761
1571.27	26.2506
1572.81	26.2621
1574.36	27.52
1575.9	28.5558
1577.45	29.6419
1579	29.6541
1580.54	30.5857
1582.09	31.3912
1583.63	32.412
1585.17	32.408
1586.72	32.9097
1588.26	33.0977
1589.8	33.7278
1591.35	33.9653
1592.89	34.7989
1594.43	34.4188
1595.97	34.4731
1597.52	34.0944
1599.06	33.6352
1600.6	33.8867
1602.14	33.6503
1603.68	33.5938
1605.22	33.7947
1606.76	33.1971
1608.3	33.2834
1609.84	32.9606
1611.38	34.2209
1612.92	35.1337
1614.46	34.4934
1615.99	34.2921
1617.53	33.9391
1619.07	34.0978
1620.61	34.2963
1622.14	34.8968
1623.68	34.1716
1625.22	34.0029
1626.75	34.1975
1628.29	34.5584
1629.82	35.2029
1631.36	35.6523
1632.9	35.4999
1634.43	35.9207
1635.96	36.3064
1637.5	36.0129
1639.03	35.3339
1640.57	34.8808
1642.1	34.3465
1643.63	34.3783
1645.16	34.9756
1646.7	34.4119
1648.23	33.9829
1649.76	33.8093
1651.29	33.978
1652.82	34.406
1654.36	34.751
1655.89	35.2762
1657.42	35.5319
1658.95	34.613
1660.48	34.3273
1662.01	34.1153
1663.53	33.8993
1665.06	32.5942
1666.59	32.0058
1668.12	31.788
1669.65	31.5558
1671.18	31.0778
1672.7	30.6975
1674.23	28.982
1675.76	28.9112
1677.29	28.1931
1678.81	28.1155
1680.34	27.1
1681.86	26.6484
1683.39	25.8338
1684.91	25.6593
1686.44	24.8707
1687.96	24.4646
1689.49	23.2816
1691.01	21.9224
1692.54	21.2461
1694.06	20.7564
1695.58	20.3059
1697.11	19.811
1698.63	19.5562
1700.15	17.8515
1701.67	16.4954
1703.2	16.2231
1704.72	15.9922
1706.24	15.3448
1707.76	13.3625
1709.28	12.4773
1710.8	12.5672
1712.32	11.0389
1713.84	9.16724
1715.36	8.49754
1716.88	7.42967
1718.4	6.89851
1719.91	5.72786
1721.43	5.06532
1722.95	3.26343
1724.47	2.20979
1725.99	2.10084
1727.5	1.90753
1729.02	1.91961
1730.54	1.21958
1732.05	0.605551
1733.57	0.204324
1735.09	0.835542
1736.6	0.957509
1738.12	1.14898
1739.63	0.222674
1741.15	0.165389
1742.66	1.03687
1744.18	2.61991
1745.69	2.48627
1747.2	2.84415
1748.72	2.48213
1750.23	2.74506
1751.74	3.49954
1753.25	3.45443
1754.77	4.347
1756.28	4.64478
1757.79	4.36731
1759.3	4.47951
1760.81	4.42014
1762.32	4.39413
1763.83	3.95633
1765.34	3.73922
1766.85	3.47619
1768.36	3.83118
1769.87	4.47729
1771.38	4.97263
1772.89	5.39983
1774.4	5.71589
1775.91	4.95242
1777.41	4.94292
1778.92	5.20998
1780.43	5.20303
1781.94	5.24413
1783.44	4.5846
1784.95	5.29421
1786.45	4.86218
1787.96	3.91461
1789.47	3.68698
1790.97	4.37537
1792.48	3.98706
1793.98	3.75382
1795.48	3.5807
1796.99	3.38704
1798.49	2.90106
1800	3.0191
1801.5	3.1246
1803	2.68143
1804.51	2.74262
1806.01	3.19791
1807.51	3.26958
1809.01	3.80758
1810.51	3.67646
1812.02	3.15356
1813.52	3.25536
1815.02	3.43989
1816.52	3.60168
1818.02	4.16931
1819.52	4.36004
1821.02	3.25214
1822.52	3.63783
1824.02	3.58901
1825.51	3.7125
1827.01	3.30751
1828.51	3.56932
1830.01	3.4398
1831.51	3.37137
1833	3.11828
1834.5	3.24752
1836	2.54752
1837.5	2.55783
1838.99	2.65302
1840.49	2.94006
1841.98	3.47379
1843.48	3.52841
1844.97	3.3838
1846.47	3.06277
1847.96	3.63963
1849.46	3.27427
1850.95	3.21397
1852.45	3.20805
1853.94	3.51417
1855.43	3.52637
1856.92	2.72325
1858.42	2.57003
1859.91	2.21439
1861.4	1.15677
1862.89	0.989355
1864.39	1.6406
1865.88	1.54938
1867.37	0.930764
1868.86	1.21275
1870.35	1.5416
1871.84	1.15713
1873.33	1.34437
1874.82	1.70457
1876.31	1.61537
1877.8	2.16102
1879.29	2.41793
1880.77	2.78583
1882.26	3.44145
1882.51	3.36277
1884	3.80779
1885.5	4.36952
1886.99	5.16268
1888.48	5.59953
1889.98	5.32414
1891.47	6.10977
1892.97	6.89523
1894.46	6.98497
1895.95	7.38133
1897.44	7.59173
1898.93	8.69605
1900.42	8.79211
1901.92	9.29633
1903.41	10.1024
1904.9	11.2216
1906.39	11.856
1907.88	12.2498
1909.37	12.8645
1910.86	12.7566
1912.35	12.6583
1913.84	13.134
1915.32	13.1768
1916.81	12.6311
1918.3	11.4369
1919.79	11.204
1921.28	10.5193
1922.76	9.78702
1924.25	10.1305
1925.74	9.70052
1927.22	8.42306
1928.71	7.13828
1930.2	6.95426
1931.68	6.59625
1933.17	5.74762
1934.65	6.05611
1936.14	6.55112
1937.62	6.55471
1939.11	5.79235
1940.59	5.67501
1942.08	4.94624
1943.56	4.37047
1945.04	3.72566
1946.53	3.43327
1948.01	3.16506
1949.49	2.58749
1950.97	2.3344
1952.45	1.48506
1953.94	1.89862
1955.42	2.64521
1956.9	2.52486
1958.38	3.37779
1959.86	3.61799
1961.34	3.043
1962.82	2.40715
1964.3	2.4679
1965.78	3.44439
1967.26	2.9237
1968.74	2.46693
1970.22	3.5388
1971.69	4.78948
1973.17	5.16692
1974.65	5.04746
1976.13	5.93047
1977.61	6.2052
1979.08	6.87874
1980.56	6.80396
1982.03	6.6324
1983.51	5.93608
1984.99	6.222
1986.46	6.5918
1987.94	6.6458
1989.41	6.24946
1990.89	6.39148
1992.36	5.8945
1993.84	6.84012
1995.31	6.76909
1996.78	7.16077
1998.26	7.83965
1999.73	7.40839
2001.2	6.62729
2002.68	6.84665
2004.15	7.39877
2005.62	6.84908
2007.09	6.6174
2008.56	7.05292
2010.04	6.73145
2011.51	6.20544
2012.98	5.74706
2014.45	5.0563
2015.92	4.82619
2017.39	5.10805
2018.86	4.94341
2020.33	5.13901
2021.8	5.26852
2023.27	5.36922
2024.74	6.65015
2026.2	7.04207
2027.67	8.21178
2029.14	9.21
2030.61	9.53508
2032.07	9.78594
2033.54	9.43386
2035.01	10.0226
2036.47	11.4187
2037.94	11.5293
2039.41	11.7843
2040.87	11.9339
2042.34	12.9189
2043.8	13.7249
2045.27	13.6026
2046.73	13.5281
2048.2	14.2103
2049.66	14.2542
2051.12	14.4669
2052.59	14.9463
2054.05	14.4347
2055.51	14.5606
2056.98	15.0418
2058.44	16.2711
2059.9	15.9174
2061.36	15.8484
2062.82	15.8014
2064.29	16.0146
2065.75	15.9527
2067.21	16.2267
2068.67	16.9073
2070.13	17.1368
2071.59	17.1711
2073.05	16.6548
2074.51	16.5397
2075.97	16.9436
2077.43	17.4021
2078.88	17.551
2080.34	18.8123
2081.8	19.8031
2083.26	19.3599
2084.72	19.4754
2086.17	19.9982
2087.63	21.0013
2089.09	21.4024
2090.54	21.721
2092	22.1777
2093.46	23.3305
2094.91	23.7973
2096.37	25.2365
2097.82	26.272
2099.28	26.1318
2100.73	26.4163
2102.19	27.5334
2103.64	28.1623
2105.09	28.8018
2106.55	28.8774
2108	29.6229
2109.46	29.4266
2110.91	29.4237
2112.36	29.8704
2113.81	30.8016
2115.27	31.336
2116.72	31.7718
2118.17	31.5948
2119.62	31.2702
2121.07	31.5913
2122.52	31.9171
2123.97	32.6457
2125.42	32.9087
2126.87	33.607
2128.32	34.3634
2129.77	35.1526
2131.22	35.4287
2132.67	36.2198
2134.12	37.1633
