#Acq. time (s)=	45
#Accumulations=	2
#Range (cm-¹)=	200...3150
#Windows=	2
#Auto scanning=	Off
#Autofocus=	Off
#Macrospot=	Off
#AutoExposure=	Off
#Spike filter=	Multiple accum.
#Delay time (s)=	0
#Binning=	1
#Readout mode=	Signal
#DeNoise=	Off
#ICS correction=	On
#Dark correction=	Off
#Inst. Process=	Off
#Detector Gain=	Best Dynamic Range
#Detector ADC=	20 kHz       
#Detector temperature (°C)=	-69.85
#Instrument=	LabRAM HR Evol
#Detector=	Synapse
#Objective=	x100
#Grating=	600 gr/mm
#ND Filter=	100%
#Laser (nm)=	532 
#Hole=	100.021
#Range=	Auto
#Laser Pol.=	No
#Raman. Pol.=	No
#Laser Pol. (°)=	-0.0007625
#Raman Pol. (°)=	89.9995
#Collection=	Microscope
#StageXY=	Marzhauser
#StageZ=	Marzhauser
#X (µm)=	19283.8
#Y (µm)=	3015.8
#Z (µm)=	1047.7
#Full time(mm:ss)=	3:19
#Project=	
#Sample=	
#Site=	
#Title=	Mb_50_18_18_2x_45s_532 nm_x100_100%_600 gr_mm
#Remark=	
#Date=	12.07.2022 11:32
#Acquired=	12.07.2022 11:32:32
#Base:Fit=	10.08.2022 10:49:18
#Base:Sub=	10.08.2022 10:49:30
#Filter:Polynom=	16.08.2022 10:14:59
#AxisType[0]=Intens
#AxisUnit[0]=Cnt
#AxisType[1]=Spectr
#AxisUnit[1]=1/cm
200.388	-2.5737
202.204	-2.13821
204.019	-0.316282
205.832	0.909718
207.646	2.09031
209.459	2.51949
211.274	2.98407
213.087	3.31074
214.899	3.63088
216.711	3.66337
218.524	3.12265
220.335	2.61091
222.146	2.65689
223.956	3.52075
225.766	4.09988
227.576	4.64194
229.388	4.17048
231.197	4.54843
233.005	4.10134
234.813	4.54078
236.621	6.12583
238.429	6.46652
240.236	6.91603
242.045	5.98851
243.852	6.7685
245.658	7.22852
247.464	7.26764
249.269	7.64513
251.074	7.99411
252.879	8.77389
254.683	9.82091
256.487	8.87701
258.291	9.12763
260.094	9.67816
261.897	10.298
263.702	10.8168
265.504	11.426
267.306	11.2561
269.108	12.1845
270.909	11.688
272.71	10.6008
274.511	9.93433
276.311	10.4778
278.111	10.4443
279.91	11.2992
281.709	12.307
283.508	12.0963
285.306	12.9179
287.105	14.4414
288.9	14.3087
290.698	15.5868
292.495	16.268
294.291	16.6418
296.088	16.8991
297.884	17.2142
299.679	17.4945
301.475	19.2789
303.27	19.6464
305.064	19.9032
306.858	20.0608
308.652	20.262
310.444	22.1751
312.237	23.2306
314.03	24.335
315.822	25.1726
317.615	26.0805
319.406	27.0058
321.198	28.0361
322.987	28.5224
324.778	29.3826
326.568	30.0283
328.358	28.6391
330.148	29.0995
331.935	28.4368
333.724	29.0356
335.513	28.3141
337.301	28.1604
339.089	28.7439
340.875	28.9353
342.662	28.9854
344.449	28.7718
346.236	28.5395
348.02	29.4288
349.806	29.5952
351.592	30.5946
353.375	30.9567
355.16	31.3653
356.944	32.0073
358.728	32.6412
360.51	33.4078
362.294	33.5264
364.077	34.459
365.858	35.8033
367.64	36.7732
369.422	36.6685
371.202	37.0144
372.983	38.8206
374.764	40.8605
376.543	41.093
378.324	41.8032
380.102	42.7642
381.881	43.1721
383.661	43.366
385.438	43.2077
387.216	43.9841
388.993	43.8927
390.771	43.3437
392.548	42.5876
394.324	41.9586
396.101	40.8582
397.875	40.3379
399.651	40.106
401.425	38.3661
403.201	37.1419
404.974	35.8494
406.749	33.3025
408.524	30.9873
410.296	29.0885
412.07	27.0955
413.841	25.528
415.614	23.3739
417.385	21.4086
419.156	20.1106
420.928	17.2813
422.698	16.1868
424.469	15.6362
426.238	15.0267
428.009	14.2712
429.777	12.8931
431.548	11.6296
433.315	11.4151
435.083	12.0539
436.852	11.8528
438.618	12.434
440.387	13.0763
442.153	13.0933
443.919	14.0309
445.686	14.0373
447.451	14.5487
449.218	14.1124
450.982	14.8388
452.746	15.003
454.512	16.1087
456.275	16.0977
458.038	17.5947
459.803	18.8652
461.565	20.3283
463.327	19.4359
465.091	19.935
466.852	21.3056
468.613	21.8499
470.374	22.5251
472.136	22.9317
473.896	22.4964
475.655	23.5115
477.415	23.6064
479.176	23.6326
480.934	25.3351
482.692	26.9374
484.45	27.8551
486.21	28.9273
487.967	30.4286
489.724	30.4065
491.481	31.8979
493.237	34.3091
494.995	36.051
496.75	38.6835
498.506	40.2697
500.26	41.6945
502.015	43.2654
503.771	43.4331
505.525	45.0962
507.279	45.5873
509.032	46.3607
510.785	47.1044
512.537	48.1869
514.289	47.7033
516.041	47.6145
517.793	46.6009
519.546	46.2839
521.297	45.5378
523.047	45.238
524.797	44.8077
526.547	43.9178
528.297	42.7958
530.046	42.0321
531.795	41.8506
533.543	41.0555
535.291	39.9699
537.039	38.8597
538.787	37.6735
540.534	35.5154
542.281	33.7227
544.027	32.0017
545.773	31.0326
547.519	28.5844
549.264	27.403
551.01	25.5353
552.754	24.2066
554.499	21.7912
556.243	19.8533
557.987	18.1447
559.73	16.8139
561.474	16.2608
563.216	16.2328
564.959	14.9499
566.701	14.6579
568.441	14.264
570.182	12.8908
571.923	11.4364
573.664	10.5024
575.405	11.0001
577.145	10.5132
578.885	12.3864
580.624	12.1009
582.361	11.3279
584.1	9.76333
585.839	8.00176
587.577	7.53812
589.315	6.29513
591.052	6.17893
592.787	6.11947
594.524	4.75869
596.26	4.0544
597.997	3.17696
599.732	2.96103
601.466	1.50444
603.201	1.57616
604.936	1.20427
606.67	1.75071
608.403	2.24214
610.136	3.65079
611.87	2.97634
613.603	2.53899
615.334	3.3631
617.067	4.32572
618.799	5.13959
620.529	4.19946
622.26	3.9624
623.991	3.68738
625.72	3.53516
627.451	4.87148
629.181	4.59301
630.909	5.25937
632.638	4.76421
634.368	5.29065
636.095	4.88522
637.823	3.75741
639.551	3.16654
641.277	3.00641
643.005	3.62497
644.73	4.0869
646.457	4.43144
648.184	4.41608
649.908	3.83425
651.634	3.7222
653.357	3.03788
655.083	2.61123
656.806	3.32718
658.53	4.83178
660.253	5.96579
661.977	6.77967
663.7	5.90384
665.422	6.77672
667.145	6.20841
668.865	6.13712
670.588	5.79692
672.308	5.83217
674.027	7.35623
675.749	8.85139
677.468	9.93004
679.188	9.85748
680.907	10.4858
682.627	11.9439
684.345	14.3001
686.064	15.6655
687.781	16.851
689.498	18.54
691.216	17.9957
692.932	19.6225
694.65	20.1152
696.366	20.4295
698.081	20.1431
699.797	21.6395
701.512	22.7543
703.228	23.6638
704.942	23.4849
706.655	22.9351
708.371	23.3979
710.083	23.59
711.796	24.4564
713.51	24.1392
715.222	23.7147
716.934	24.2194
718.645	24.0431
720.358	24.1862
722.068	23.045
723.779	23.4339
725.49	23.7062
727.2	24.7924
728.909	25.7104
730.618	26.2035
732.329	26.5214
734.037	28.2313
735.745	29.9769
737.453	31.9514
739.16	35.3961
740.869	38.7284
742.576	41.5233
744.282	45.3456
745.988	47.3393
747.694	49.6091
749.401	51.9557
751.107	55.2911
752.811	57.8167
754.516	60.4052
756.22	62.7615
757.924	65.7055
759.627	67.877
761.332	70.6784
763.035	73.5355
764.738	76.0112
766.44	77.1379
768.142	79.4975
769.843	80.8498
771.544	80.8376
773.245	81.8208
774.946	81.799
776.646	80.9255
778.346	83.2893
780.046	82.1875
781.745	81.7521
783.444	81.2034
785.143	80.8735
786.841	80.3128
788.539	78.4924
790.237	77.3573
791.934	75.3285
793.631	73.845
795.328	72.8918
797.024	70.7621
798.72	67.8924
800.416	66.3683
802.112	63.9519
803.807	63.1346
805.502	61.9514
807.196	60.3543
808.89	59.4532
810.584	57.7749
812.278	56.2939
813.971	55.0601
815.664	55.0495
817.354	54.5001
819.047	54.409
820.739	54.3832
822.43	54.3764
824.122	55.0005
825.813	53.9104
827.503	53.9651
829.192	53.6827
830.882	51.8043
832.571	51.081
834.261	50.9434
835.95	51.1249
837.637	50.5532
839.325	48.9203
841.013	47.4214
842.701	45.73
844.389	43.7807
846.074	44.1781
847.761	43.0984
849.447	40.6846
851.131	39.7744
852.817	39.6183
854.503	39.2926
856.188	38.2327
857.871	37.1484
859.556	36.1537
861.24	35.975
862.922	35.5955
864.606	34.0204
866.289	34.0478
867.97	33.9673
869.653	32.832
871.336	33.2166
873.016	31.8582
874.698	31.2606
876.379	30.2033
878.058	30.1348
879.739	30.1744
881.418	29.2136
883.098	29.1109
884.778	30.2106
886.456	30.6928
888.135	31.4196
889.812	30.502
891.49	30.2384
893.167	29.9678
894.845	29.884
896.523	29.5219
898.198	30.288
899.875	30.3168
901.55	30.0912
903.226	30.5541
904.901	31.2138
906.576	31.0729
908.25	30.3627
909.925	29.5676
911.598	28.4845
913.271	27.3862
914.945	26.6679
916.617	25.6233
918.291	26.1916
919.962	24.9357
921.635	23.0934
923.306	21.2879
924.978	21.6867
926.648	20.1575
928.318	20.4403
929.989	20.0437
931.659	19.3703
933.328	19.0004
934.998	18.3996
936.666	17.7176
938.336	17.7404
940.004	16.3813
941.671	14.5224
943.34	13.4478
945.007	11.6942
946.673	10.3334
948.339	10.8852
950.007	10.244
951.672	9.47022
953.337	8.8873
955.004	8.71814
956.669	7.59607
958.333	7.51651
959.997	7.47834
961.662	7.24547
963.326	6.46369
964.989	5.91463
966.651	6.0547
968.315	5.41438
969.977	5.47168
971.639	4.46903
973.301	5.0323
974.962	4.39226
976.624	3.87579
978.285	3.87205
979.945	4.57839
981.605	4.87185
983.264	4.14944
984.924	3.46482
986.583	3.3328
988.243	3.02483
989.901	3.27769
991.56	2.40847
993.217	2.44201
994.875	3.69231
996.532	5.90607
998.188	8.5194
999.845	11.4272
1001.5	14.9658
1003.16	16.9602
1004.81	18.7677
1006.47	21.3084
1008.12	24.7657
1009.78	26.5877
1011.43	29.7117
1013.09	31.693
1014.74	34.6489
1016.39	36.9041
1018.05	38.5231
1019.7	40.3239
1021.35	41.3187
1023	41.922
1024.65	41.8311
1026.31	43.5351
1027.96	45.3566
1029.61	46.6754
1031.26	47.3714
1032.91	47.4028
1034.56	47.6471
1036.21	47.103
1037.86	46.0649
1039.51	46.5026
1041.16	44.5292
1042.8	42.8352
1044.45	41.8911
1046.1	40.4906
1047.75	39.2301
1049.39	37.5582
1051.04	36.453
1052.69	36.7246
1054.33	35.2406
1055.98	35.1888
1057.62	33.3475
1059.27	33.4102
1060.91	32.6878
1062.56	32.4033
1064.2	30.7182
1065.85	29.9958
1067.49	30.8174
1069.13	30.893
1070.77	29.8806
1072.42	29.5249
1074.06	29.8669
1075.7	31.1051
1077.34	32.7125
1078.98	33.6423
1080.62	33.778
1082.27	33.2271
1083.91	32.9093
1085.55	31.7616
1087.18	31.5169
1088.82	31.6307
1090.46	32.2833
1092.1	32.5002
1093.74	31.3495
1095.38	30.5631
1097.02	29.899
1098.65	28.5223
1100.29	27.8235
1101.93	26.383
1103.56	25.8677
1105.2	24.08
1106.84	22.8562
1108.47	21.2002
1110.11	19.2597
1111.74	17.1902
1113.38	16.2106
1115.01	15.3344
1116.64	12.7025
1118.28	10.8094
1119.91	9.53832
1121.54	8.48892
1123.18	6.48995
1124.81	5.88552
1126.44	5.45525
1128.07	4.17712
1129.7	4.24012
1131.33	4.20377
1132.97	3.80411
1134.6	3.26078
1136.23	2.59625
1137.86	3.71244
1139.49	4.0527
1141.11	4.35581
1142.74	4.70156
1144.37	4.90186
1146	4.5262
1147.63	3.72523
1149.26	3.45743
1150.88	1.93626
1152.51	2.05528
1154.14	3.02758
1155.76	3.83026
1157.39	4.05487
1159.01	3.26907
1160.64	1.61566
1162.27	1.62817
1163.89	1.87652
1165.51	3.34269
1167.14	3.9835
1168.76	5.09651
1170.39	6.43801
1172.01	8.37458
1173.63	8.53755
1175.25	8.17534
1176.88	8.8972
1178.5	9.30774
1180.12	9.85837
1181.74	9.91451
1183.36	9.17192
1184.98	10.0564
1186.6	10.0848
1188.22	10.8567
1189.84	10.9502
1191.46	12.057
1193.08	13.2581
1194.7	12.9895
1196.32	13.2308
1197.94	12.9545
1199.55	13.9501
1201.17	14.3022
1202.79	13.515
1204.41	13.5212
1206.02	13.4006
1207.64	13.9535
1209.25	13.6832
1210.87	14.7823
1212.48	14.4583
1214.1	14.4329
1215.71	15.4852
1217.33	16.9171
1218.94	17.6584
1220.56	17.9786
1222.17	18.2781
1223.79	19.4523
1225.4	19.2964
1227.01	19.5987
1228.62	20.1438
1230.23	22.1007
1231.85	22.4816
1233.46	23.8087
1235.07	23.5053
1236.68	23.7461
1238.29	23.1414
1239.9	22.9081
1241.51	24.8644
1243.12	27.2546
1244.73	28.6406
1246.34	30.2539
1247.94	31.0708
1249.55	32.5219
1251.16	33.9762
1252.77	34.7626
1254.37	34.7695
1255.98	35.4865
1257.59	36.2656
1259.2	36.1317
1260.8	37.5642
1262.41	38.4515
1264.01	40.4753
1265.62	42.6373
1267.22	43.9837
1268.83	44.6181
1270.43	45.8965
1272.03	47.2028
1273.64	48.7792
1275.24	51.4472
1276.85	54.3174
1278.45	55.9276
1280.05	56.565
1281.65	56.9041
1283.25	58.1472
1284.85	59.5731
1286.46	61.2434
1288.06	61.9843
1289.66	62.6997
1291.26	64.3578
1292.86	65.1683
1294.46	64.9549
1296.06	65.0819
1297.66	65.5412
1299.25	65.2203
1300.85	65.7094
1302.45	64.7806
1304.05	63.6673
1305.65	63.4504
1307.24	63.3201
1308.84	64.1619
1310.43	63.3661
1312.03	62.9259
1313.63	61.9846
1315.22	60.7214
1316.82	61.2953
1318.41	60.9072
1320.01	61.9791
1321.6	62.4954
1323.2	61.9469
1324.79	61.0117
1326.38	60.9464
1327.98	61.0924
1329.57	60.5013
1331.16	59.8402
1332.76	58.5897
1334.35	57.5373
1335.94	55.797
1337.53	54.1428
1339.12	52.5119
1340.71	53.4436
1342.3	52.3055
1343.89	51.9793
1345.48	51.5192
1347.07	51.7529
1348.66	51.8413
1350.25	52.0509
1351.84	51.9101
1353.43	51.9033
1355.01	52.0197
1356.6	50.524
1358.19	48.7161
1359.77	47.5258
1361.36	47.2846
1362.95	46.9499
1364.53	45.8965
1366.12	46.1182
1367.71	45.6283
1369.29	45.5233
1370.88	44.7343
1372.46	43.3877
1374.04	41.7128
1375.63	41.5342
1377.21	41.2259
1378.8	40.6517
1380.38	40.0159
1381.96	39.3316
1383.54	39.5984
1385.13	40.5013
1386.71	40.3492
1388.29	40.6606
1389.87	40.2142
1391.45	40.627
1393.03	39.4807
1394.61	39.2109
1396.19	39.9342
1397.77	40.6069
1399.35	41.7936
1400.93	41.7423
1402.51	41.6728
1404.09	42.9953
1405.67	45.6383
1407.24	47.3388
1408.82	47.5683
1410.4	48.5969
1411.98	48.8657
1413.55	49.6204
1415.13	50.9786
1416.71	53.2985
1418.28	55.6331
1419.86	58.697
1421.43	61.058
1423.01	63.7351
1424.58	67.0413
1426.16	69.602
1427.73	72.0711
1429.31	73.8198
1430.88	76.5124
1432.45	78.3742
1434.02	80.9705
1435.6	83.523
1437.17	86.452
1438.74	89.4691
1440.31	91.5933
1441.88	93.1546
1443.45	94.4784
1445.03	95.9014
1446.6	95.6712
1448.17	95.8258
1449.74	95.4528
1451.3	95.3595
1452.87	95.348
1454.44	95.486
1456.01	94.4461
1457.58	93.5211
1459.15	91.9542
1460.72	91.4921
1462.28	90.8632
1463.85	89.2282
1465.42	88.5095
1466.98	86.4491
1468.55	85.0494
1470.12	82.9864
1471.68	81.7011
1473.25	80.7493
1474.81	79.2098
1476.38	78.4608
1477.94	76.1351
1479.51	74.1795
1481.07	73.2529
1482.63	71.9026
1484.2	69.5909
1485.76	67.5623
1487.32	65.204
1488.88	63.3527
1490.45	60.5979
1492.01	59.4668
1493.57	58.3711
1495.13	56.1147
1496.69	54.7528
1498.25	54.0197
1499.81	52.6028
1501.37	50.7249
1502.93	48.9083
1504.49	46.3001
1506.05	45.1424
1507.61	42.3112
1509.17	40.9535
1510.73	39.2055
1512.28	39.185
1513.84	37.6097
1515.4	35.9676
1516.96	33.3872
1518.51	31.9144
1520.07	29.9319
1521.63	28.0123
1523.18	26.6992
1524.74	25.573
1526.29	25.2405
1527.85	24.703
1529.4	23.8085
1530.96	23.6196
1532.51	22.7298
1534.06	22.151
1535.62	21.2876
1537.17	21.9343
1538.72	23.6902
1540.28	23.9566
1541.83	24.596
1543.38	25.4002
1544.93	25.2645
1546.48	26.2732
1548.03	26.8185
1549.59	27.2478
1551.14	26.7276
1552.69	26.4213
1554.24	26.9022
1555.79	27.257
1557.34	27.9582
1558.88	28.4481
1560.43	27.8258
1561.98	28.8916
1563.53	29.9576
1565.08	31.1229
1566.62	31.2443
1568.17	31.815
1569.72	34.1349
1571.27	34.9161
1572.81	36.2388
1574.36	37.2404
1575.9	36.3934
1577.45	32.4936
1579	25.3132
1580.54	18.9377
1582.09	15.9934
1583.63	15.5866
1585.17	16.8311
1586.72	19.4474
1588.26	21.9073
1589.8	27.0494
1591.35	32.1792
1592.89	39.1681
1594.43	48.8246
1595.97	60.245
1597.52	71.7938
1599.06	84.7062
1600.6	98.4194
1602.14	112.921
1603.68	128.532
1605.22	143.535
1606.76	170.039
1608.3	195.73
1609.84	218.715
1611.38	241.005
1612.92	261.522
1614.46	280.885
1615.99	297.883
1617.53	312.468
1619.07	325.557
1620.61	336.696
1622.14	346.543
1623.68	354.702
1625.22	361.379
1626.75	366.485
1628.29	368.97
1629.82	370.84
1631.36	369.993
1632.9	368.355
1634.43	364.316
1635.96	359.433
1637.5	352.361
1639.03	344.526
1640.57	334.002
1642.1	322.12
1643.63	307.95
1645.16	292.931
1646.7	276.374
1648.23	256.392
1649.76	235.361
1651.29	212.893
1652.82	190.223
1654.36	166.546
1655.89	144.036
1657.42	127.997
1658.95	113.569
1660.48	100.114
1662.01	85.9146
1663.53	72.0476
1665.06	59.9433
1666.59	50.2873
1668.12	41.0368
1669.65	32.9361
1671.18	27.6656
1672.7	22.1669
1674.23	18.3399
1675.76	16.3021
1677.29	16.4569
1678.81	18.8551
1680.34	23.4477
1681.86	28.2657
1683.39	37.5231
1684.91	35.8869
1686.44	33.0054
1687.96	31.6017
1689.49	30.2543
1691.01	27.8929
1692.54	25.8245
1694.06	24.3629
1695.58	22.9957
1697.11	21.6119
1698.63	20.6425
1700.15	19.4999
1701.67	18.313
1703.2	17.2257
1704.72	16.2446
1706.24	15.7212
1707.76	15.0473
1709.28	15.8887
1710.8	15.7657
1712.32	15.4343
1713.84	14.1873
1715.36	13.5525
1716.88	12.7734
1718.4	11.8445
1719.91	11.3954
1721.43	10.7812
1722.95	10.6308
1724.47	10.1737
1725.99	9.68702
1727.5	9.39979
1729.02	8.64414
1730.54	7.2991
1732.05	7.19827
1733.57	7.97589
1735.09	8.49507
1736.6	8.87598
1738.12	8.54836
1739.63	9.55713
1741.15	8.78433
1742.66	8.92642
1744.18	8.34906
1745.69	7.67982
1747.2	8.07369
1748.72	7.66447
1750.23	7.76606
1751.74	7.63579
1753.25	7.4524
1754.77	6.99853
1756.28	6.32107
1757.79	5.51295
1759.3	5.86332
1760.81	5.8302
1762.32	4.99094
1763.83	5.42323
1765.34	5.28523
1766.85	4.73941
1768.36	5.31066
1769.87	5.77408
1771.38	6.11896
1772.89	6.27215
1774.4	7.05496
1775.91	7.6797
1777.41	8.42517
1778.92	9.12159
1780.43	9.43909
1781.94	9.45871
1783.44	10.0789
1784.95	10.7131
1786.45	9.26268
1787.96	9.23355
1789.47	8.88198
1790.97	9.52401
1792.48	9.05757
1793.98	9.22613
1795.48	9.97144
1796.99	9.50439
1798.49	9.87647
1800	9.53754
1801.5	8.88355
1803	8.87135
1804.51	9.3204
1806.01	10.1744
1807.51	11.3426
1809.01	12.0083
1810.51	12.4898
1812.02	12.8475
1813.52	13.2992
1815.02	13.6368
1816.52	13.2559
1818.02	13.2142
1819.52	13.1325
1821.02	12.5235
1822.52	12.1454
1824.02	11.6423
1825.51	11.7193
1827.01	11.2815
1828.51	11.2332
1830.01	11.251
1831.51	10.7255
1833	10.8975
1834.5	11.1427
1836	11.0962
1837.5	11.2331
1838.99	11.5854
1840.49	12.2151
1841.98	12.5614
1843.48	12.8826
1844.97	13.5013
1846.47	14.6457
1847.96	14.9271
1849.46	14.6275
1850.95	14.0904
1852.45	13.3674
1853.94	12.8493
1855.43	12.4242
1856.92	12.4193
1858.42	12.3242
1859.91	12.9156
1861.4	12.1645
1862.89	12.8703
1864.39	13.1369
1865.88	13.3195
1867.37	12.9187
1868.86	13.007
1870.35	13.8307
1871.84	13.578
1873.33	13.9798
1874.82	14.0369
1876.31	14.3597
1877.8	14.6727
1879.29	15.2333
1880.77	15.7824
1882.26	15.6886
1882.51	15.7117
1884	15.9433
1885.5	15.4872
1886.99	15.5631
1888.48	15.1545
1889.98	14.3752
1891.47	14.4387
1892.97	13.9829
1894.46	13.5027
1895.95	13.5495
1897.44	13.6359
1898.93	13.4793
1900.42	14.1941
1901.92	14.6201
1903.41	14.1817
1904.9	14.753
1906.39	14.1973
1907.88	13.9678
1909.37	13.632
1910.86	13.8498
1912.35	13.8372
1913.84	13.7087
1915.32	13.7518
1916.81	14.1969
1918.3	13.5906
1919.79	12.5831
1921.28	10.441
1922.76	9.43553
1924.25	8.00988
1925.74	8.32691
1927.22	8.06209
1928.71	9.10363
1930.2	9.85444
1931.68	10.202
1933.17	10.7449
1934.65	10.4827
1936.14	10.8088
1937.62	11.5146
1939.11	12.024
1940.59	12.0686
1942.08	11.5701
1943.56	11.4562
1945.04	10.942
1946.53	11.3522
1948.01	11.2607
1949.49	11.5153
1950.97	11.5643
1952.45	11.9456
1953.94	12.4984
1955.42	13.0112
1956.9	13.0902
1958.38	12.4605
1959.86	11.3137
1961.34	11.6875
1962.82	11.8394
1964.3	12.3798
1965.78	12.4743
1967.26	12.1754
1968.74	13.1293
1970.22	13.4396
1971.69	14.0162
1973.17	14.1324
1974.65	13.7393
1976.13	13.1693
1977.61	12.4969
1979.08	12.0937
1980.56	11.3362
1982.03	11.28
1983.51	11.4132
1984.99	12.1889
1986.46	12.5034
1987.94	12.6684
1989.41	12.2476
1990.89	11.9218
1992.36	11.0452
1993.84	10.6657
1995.31	10.0222
1996.78	10.3117
1998.26	9.89795
1999.73	10.8809
2001.2	10.6227
2002.68	11.7539
2004.15	11.1663
2005.62	10.0868
2007.09	9.55859
2008.56	9.86021
2010.04	9.52606
2011.51	10.2744
2012.98	9.99941
2014.45	9.69909
2015.92	9.48694
2017.39	9.17695
2018.86	9.48328
2020.33	9.82126
2021.8	9.81705
2023.27	10.3755
2024.74	10.5963
2026.2	10.1717
2027.67	10.2986
2029.14	10.6891
2030.61	9.87203
2032.07	10.064
2033.54	10.6188
2035.01	11.7101
2036.47	12.2649
2037.94	12.1281
2039.41	12.1378
2040.87	12.6183
2042.34	13.5882
2043.8	13.6848
2045.27	14.398
2046.73	14.8748
2048.2	15.6664
2049.66	16.8669
2051.12	16.9578
2052.59	17.2731
2054.05	18.2356
2055.51	18.8227
2056.98	19.8156
2058.44	20.8573
2059.9	20.9695
2061.36	20.96
2062.82	21.0062
2064.29	21.6102
2065.75	21.8394
2067.21	21.7602
2068.67	21.8709
2070.13	22.8531
2071.59	23.5333
2073.05	24.2627
2074.51	24.4704
2075.97	25.5586
2077.43	25.4027
2078.88	25.5608
2080.34	26.2775
2081.8	27.2914
2083.26	27.8418
2084.72	29.074
2086.17	29.6093
2087.63	29.8129
2089.09	29.9653
2090.54	29.9066
2092	30.5968
2093.46	31.1307
2094.91	30.4431
2096.37	31.0121
2097.82	31.6256
2099.28	32.0457
2100.73	33.568
2102.19	34.4681
2103.64	34.4585
2105.09	36.2751
2106.55	36.6967
2108	38.3862
2109.46	39.3941
2110.91	40.348
2112.36	42.1014
2113.81	43.6227
2115.27	45.5819
2116.72	46.9447
2118.17	48.1447
2119.62	49.2865
2121.07	50.4597
2122.52	51.4735
2123.97	53.1357
2125.42	55.204
2126.87	56.6544
2128.32	58.3985
2129.77	60.4456
2131.22	61.6907
2132.67	62.8971
2134.12	64.7907
2135.57	66.956
