#Acq. time (s)=	45
#Accumulations=	2
#Range (cm-¹)=	200...3150
#Windows=	2
#Auto scanning=	Off
#Autofocus=	Off
#Macrospot=	Off
#AutoExposure=	Off
#Spike filter=	Multiple accum.
#Delay time (s)=	0
#Binning=	1
#Readout mode=	Signal
#DeNoise=	Off
#ICS correction=	On
#Dark correction=	Off
#Inst. Process=	Off
#Detector Gain=	Best Dynamic Range
#Detector ADC=	20 kHz       
#Detector temperature (°C)=	-69.85
#Instrument=	LabRAM HR Evol
#Detector=	Synapse
#Objective=	x100
#Grating=	600 gr/mm
#ND Filter=	100%
#Laser (nm)=	532 
#Hole=	100.021
#Range=	Auto
#Laser Pol.=	No
#Raman. Pol.=	No
#Laser Pol. (°)=	-0.0007625
#Raman Pol. (°)=	89.9995
#Collection=	Microscope
#StageXY=	Marzhauser
#StageZ=	Marzhauser
#X (µm)=	28334
#Y (µm)=	-3291.7
#Z (µm)=	1040.6
#Full time(mm:ss)=	3:18
#Project=	
#Sample=	
#Site=	
#Title=	Mb_50_18_25_2x_45s_532 nm_x100_100%_600 gr_mm
#Remark=	
#Date=	12.07.2022 12:43
#Acquired=	12.07.2022 12:43:41
#Base:Fit=	10.08.2022 10:49:18
#Base:Sub=	10.08.2022 10:49:30
#Filter:Polynom=	16.08.2022 10:14:59
#AxisType[0]=Intens
#AxisUnit[0]=Cnt
#AxisType[1]=Spectr
#AxisUnit[1]=1/cm
200.388	108.931
202.204	105.583
204.019	102.404
205.832	98.6487
207.646	95.2421
209.459	91.5284
211.274	87.905
213.087	84.2006
214.899	80.4147
216.711	76.8673
218.524	72.5667
220.335	69.8343
222.146	66.424
223.956	62.5614
225.766	59.7234
227.576	56.6006
229.388	55.1114
231.197	52.4583
233.005	50.3065
234.813	48.6741
236.621	46.2797
238.429	45.0032
240.236	42.4288
242.045	40.2067
243.852	37.6244
245.658	37.0213
247.464	36.0766
249.269	35.4655
251.074	34.5679
252.879	32.93
254.683	31.4896
256.487	31.571
258.291	31.5663
260.094	29.9816
261.897	28.8388
263.702	28.1633
265.504	27.328
267.306	25.557
269.108	24.6742
270.909	23.1234
272.71	22.7203
274.511	20.9269
276.311	19.6958
278.111	19.7952
279.91	19.6943
281.709	19.4026
283.508	17.4375
285.306	15.9547
287.105	14.7888
288.9	14.37
290.698	14.0945
292.495	14.9722
294.291	14.3067
296.088	15.5397
297.884	15.5922
299.679	17.1127
301.475	17.3088
303.27	18.194
305.064	19.3394
306.858	20.2717
308.652	21.041
310.444	23.1624
312.237	23.373
314.03	24.6397
315.822	26.828
317.615	26.1392
319.406	27.9169
321.198	27.8736
322.987	28.663
324.778	29.038
326.568	29.6045
328.358	29.3647
330.148	28.2517
331.935	27.4277
333.724	26.8835
335.513	27.2744
337.301	26.1247
339.089	23.6212
340.875	20.9425
342.662	19.5507
344.449	18.6485
346.236	18.9373
348.02	19.2322
349.806	20.6705
351.592	23.002
353.375	25.3926
355.16	30.0863
356.944	34.5663
358.728	39.5369
360.51	43.5233
362.294	50.1135
364.077	54.35
365.858	60.9153
367.64	65.8722
369.422	71.4443
371.202	76.8949
372.983	81.5809
374.764	86.7863
376.543	92.1301
378.324	96.4418
380.102	100.111
381.881	103.277
383.661	105.001
385.438	107.801
387.216	108.268
388.993	108.923
390.771	109.458
392.548	110.445
394.324	109.749
396.101	108.474
397.875	106.957
399.651	104.224
401.425	99.3541
403.201	95.7089
404.974	91.489
406.749	85.9355
408.524	82.1164
410.296	76.0817
412.07	70.0488
413.841	63.1366
415.614	55.7309
417.385	46.8811
419.156	38.8769
420.928	31.278
422.698	24.6247
424.469	17.87
426.238	11.5697
428.009	4.61617
429.777	-0.153587
431.548	-3.04443
433.315	-6.2187
435.083	-6.34533
436.852	-8.31789
438.618	-8.03009
440.387	-8.03485
442.153	-6.26462
443.919	-4.18185
445.686	-2.71073
447.451	-0.741057
449.218	0.398387
450.982	2.27758
452.746	3.97764
454.512	5.93203
456.275	7.57077
458.038	10.0813
459.803	11.4379
461.565	12.7592
463.327	14.3769
465.091	15.4885
466.852	15.1949
468.613	15.6689
470.374	16.8435
472.136	17.9563
473.896	20.359
475.655	22.065
477.415	25.1188
479.176	28.5541
480.934	32.95
482.692	35.6564
484.45	39.4514
486.21	43.2914
487.967	47.4954
489.724	53.2211
491.481	61.2613
493.237	68.393
494.995	74.168
496.75	79.8124
498.506	86.2935
500.26	91.1793
502.015	96.2433
503.771	100.224
505.525	104.445
507.279	108.417
509.032	112.116
510.785	114.975
512.537	117.799
514.289	120.434
516.041	121.408
517.793	123.198
519.546	125.06
521.297	126.021
523.047	127.173
524.797	126.721
526.547	127.52
528.297	127.027
530.046	126.181
531.795	124.107
533.543	121.008
535.291	117.295
537.039	113.297
538.787	109.492
540.534	105.132
542.281	100.003
544.027	95.1838
545.773	88.8011
547.519	83.2416
549.264	77.1467
551.01	70.4822
552.754	64.4178
554.499	57.9362
556.243	52.9854
557.987	48.5931
559.73	44.0014
561.474	40.4044
563.216	37.4568
564.959	35.3936
566.701	34.1998
568.441	34.6003
570.182	33.4756
571.923	33.5476
573.664	35.2508
575.405	37.0387
577.145	39.9367
578.885	42.0121
580.624	42.7528
582.361	43.2299
584.1	44.8732
585.839	45.7776
587.577	45.9261
589.315	48.0528
591.052	47.9861
592.787	49.9154
594.524	51.3964
596.26	52.4292
597.997	54.2291
599.732	55.276
601.466	56.5924
603.201	57.3003
604.936	58.4041
606.67	59.3535
608.403	60.1526
610.136	60.1177
611.87	60.1173
613.603	59.586
615.334	59.2921
617.067	57.3095
618.799	56.9511
620.529	55.2779
622.26	54.0155
623.991	52.3485
625.72	50.2548
627.451	49.9612
629.181	48.7177
630.909	46.5459
632.638	45.1319
634.368	42.8411
636.095	41.9859
637.823	40.1316
639.551	39.6993
641.277	36.9071
643.005	36.9882
644.73	36.4973
646.457	35.8601
648.184	35.9629
649.908	35.9987
651.634	36.8706
653.357	38.7785
655.083	39.2243
656.806	39.2647
658.53	40.1689
660.253	41.2509
661.977	41.3244
663.7	42.9139
665.422	41.7364
667.145	42.6024
668.865	42.8461
670.588	43.8253
672.308	44.7893
674.027	46.2778
675.749	46.3363
677.468	46.3259
679.188	47.5392
680.907	48.9324
682.627	49.312
684.345	51.4897
686.064	52.4307
687.781	54.4007
689.498	54.921
691.216	55.575
692.932	56.8616
694.65	57.8375
696.366	59.0947
698.081	59.5244
699.797	59.7601
701.512	61.4046
703.228	62.034
704.942	63.2048
706.655	63.7818
708.371	64.2005
710.083	64.1579
711.796	65.6148
713.51	67.8976
715.222	65.773
716.934	65.6886
718.645	65.3118
720.358	63.0207
722.068	62.7408
723.779	61.3884
725.49	59.882
727.2	58.6003
728.909	59.3165
730.618	58.9531
732.329	60.4822
734.037	63.1764
735.745	66.0622
737.453	71.3068
739.16	75.2811
740.869	81.6072
742.576	88.9552
744.282	97.1612
745.988	106.566
747.694	116.967
749.401	126.802
751.107	135.565
752.811	146.563
754.516	156.186
756.22	165.488
757.924	174.567
759.627	181.66
761.332	188.372
763.035	196.616
764.738	202.367
766.44	208.657
768.142	213.402
769.843	217.378
771.544	219.911
773.245	221.006
774.946	222.589
776.646	223.895
778.346	224.814
780.046	223.412
781.745	222.314
783.444	218.693
785.143	215.041
786.841	210.739
788.539	204.913
790.237	199.227
791.934	192.791
793.631	185.855
795.328	178.647
797.024	171.622
798.72	162.592
800.416	152.433
802.112	144.001
803.807	134.237
805.502	124.022
807.196	116.12
808.89	107.386
810.584	99.4687
812.278	93.3232
813.971	86.9366
815.664	82.1229
817.354	79.0446
819.047	77.1574
820.739	76.0713
822.43	74.9183
824.122	73.9356
825.813	75.4268
827.503	76.3274
829.192	77.2084
830.882	77.5623
832.571	77.5295
834.261	77.7564
835.95	77.9258
837.637	77.3101
839.325	77.5143
841.013	77.0761
842.701	75.7296
844.389	73.5692
846.074	72.381
847.761	71.2445
849.447	69.6913
851.131	68.4417
852.817	66.932
854.503	64.7067
856.188	63.8444
857.871	61.7459
859.556	61.8102
861.24	60.6887
862.922	59.8272
864.606	57.468
866.289	57.2695
867.97	55.338
869.653	53.3856
871.336	53.109
873.016	53.6694
874.698	53.2485
876.379	52.5607
878.058	52.1654
879.739	51.9317
881.418	51.857
883.098	50.9288
884.778	50.3242
886.456	49.591
888.135	47.5131
889.812	45.6501
891.49	45.1199
893.167	44.1166
894.845	44.3604
896.523	42.999
898.198	43.0542
899.875	43.7456
901.55	44.4365
903.226	45.8704
904.901	45.9741
906.576	45.4069
908.25	45.3214
909.925	46.2803
911.598	46.0436
913.271	44.8847
914.945	44.9356
916.617	45.1731
918.291	45.4902
919.962	44.7117
921.635	44.3231
923.306	44.5487
924.978	43.3453
926.648	40.6677
928.318	40.807
929.989	40.1833
931.659	38.1627
933.328	38.6645
934.998	37.5636
936.666	37.2208
938.336	36.3759
940.004	35.7104
941.671	34.3261
943.34	33.4283
945.007	32.3882
946.673	30.1886
948.339	28.8563
950.007	27.7924
951.672	26.3761
953.337	24.4871
955.004	23.4784
956.669	20.6961
958.333	17.0974
959.997	15.3683
961.662	12.9375
963.326	12.6013
964.989	10.4655
966.651	8.33063
968.315	7.31509
969.977	7.18796
971.639	5.27386
973.301	5.51598
974.962	5.41623
976.624	5.02927
978.285	4.10148
979.945	3.01401
981.605	3.49573
983.264	2.24108
984.924	1.07408
986.583	0.547369
988.243	-0.629717
989.901	-2.44978
991.56	-3.10691
993.217	-1.5928
994.875	0.586051
996.532	3.57748
998.188	6.40503
999.845	9.46391
1001.5	13.3752
1003.16	18.7077
1004.81	23.6764
1006.47	29.7987
1008.12	35.6183
1009.78	41.4836
1011.43	49.3064
1013.09	55.4682
1014.74	63.4743
1016.39	72.7221
1018.05	78.9044
1019.7	85.304
1021.35	91.4528
1023	97.1453
1024.65	102.142
1026.31	107.233
1027.96	112.273
1029.61	116.155
1031.26	120.118
1032.91	121.304
1034.56	122.721
1036.21	122.536
1037.86	122.254
1039.51	121.223
1041.16	119.139
1042.8	118.282
1044.45	117.78
1046.1	115.991
1047.75	113.407
1049.39	110.554
1051.04	107.865
1052.69	105.072
1054.33	100.915
1055.98	98.9043
1057.62	96.2923
1059.27	93.8831
1060.91	92.0498
1062.56	91.3124
1064.2	91.2552
1065.85	89.6475
1067.49	89.7859
1069.13	90.8678
1070.77	91.0281
1072.42	91.2723
1074.06	93.0717
1075.7	94.6041
1077.34	96.2653
1078.98	96.1835
1080.62	96.8025
1082.27	98.2535
1083.91	99.3662
1085.55	101.701
1087.18	101.771
1088.82	101.607
1090.46	101.271
1092.1	101.449
1093.74	101.551
1095.38	101.206
1097.02	100.121
1098.65	97.4441
1100.29	95.0015
1101.93	91.7962
1103.56	89.0345
1105.2	85.4486
1106.84	80.9847
1108.47	75.5923
1110.11	70.239
1111.74	64.2928
1113.38	57.865
1115.01	50.6574
1116.64	43.9851
1118.28	37.907
1119.91	31.5127
1121.54	25.2759
1123.18	19.1882
1124.81	15.5319
1126.44	11.8826
1128.07	7.3696
1129.7	5.41763
1131.33	3.16554
1132.97	3.0813
1134.6	3.55015
1136.23	3.84507
1137.86	5.77401
1139.49	7.08366
1141.11	8.40362
1142.74	10.2769
1144.37	12.5303
1146	12.8801
1147.63	13.106
1149.26	14.5566
1150.88	14.4731
1152.51	13.6381
1154.14	13.5272
1155.76	13.6159
1157.39	12.8542
1159.01	12.3586
1160.64	12.527
1162.27	13.3507
1163.89	13.3363
1165.51	13.1332
1167.14	14.1296
1168.76	13.5385
1170.39	13.2694
1172.01	14.4671
1173.63	14.7027
1175.25	15.4437
1176.88	16.3636
1178.5	16.5835
1180.12	17.1391
1181.74	18.2165
1183.36	17.4978
1184.98	17.2782
1186.6	16.277
1188.22	15.5706
1189.84	15.4309
1191.46	16.3713
1193.08	16.8577
1194.7	15.4752
1196.32	15.2889
1197.94	15.336
1199.55	16.09
1201.17	15.6828
1202.79	15.2736
1204.41	15.4589
1206.02	16.783
1207.64	17.8281
1209.25	17.9259
1210.87	18.6941
1212.48	18.7013
1214.1	20.5622
1215.71	20.7525
1217.33	21.5489
1218.94	22.2042
1220.56	22.5855
1222.17	23.5687
1223.79	24.6139
1225.4	24.7096
1227.01	23.814
1228.62	24.4114
1230.23	24.522
1231.85	25.1308
1233.46	25.7463
1235.07	26.7235
1236.68	27.7918
1238.29	26.7834
1239.9	27.6476
1241.51	28.5643
1243.12	28.843
1244.73	28.2063
1246.34	28.523
1247.94	28.8552
1249.55	28.3277
1251.16	27.4707
1252.77	27.5485
1254.37	26.7526
1255.98	27.2672
1257.59	26.9153
1259.2	25.4531
1260.8	25.6892
1262.41	26.9545
1264.01	25.9589
1265.62	27.2846
1267.22	28.1919
1268.83	29.1823
1270.43	30.855
1272.03	32.0645
1273.64	31.5922
1275.24	31.8082
1276.85	33.325
1278.45	34.5599
1280.05	35.8611
1281.65	35.9371
1283.25	36.66
1284.85	38.3124
1286.46	38.9667
1288.06	39.4742
1289.66	39.904
1291.26	40.8965
1292.86	42.4442
1294.46	43.9482
1296.06	43.9021
1297.66	45.5103
1299.25	46.2607
1300.85	46.7518
1302.45	47.9702
1304.05	47.7015
1305.65	47.9284
1307.24	48.7735
1308.84	50.8041
1310.43	52.5816
1312.03	52.5232
1313.63	51.96
1315.22	51.6857
1316.82	51.5447
1318.41	49.4983
1320.01	49.0896
1321.6	48.6348
1323.2	47.1761
1324.79	45.7717
1326.38	44.9669
1327.98	42.5124
1329.57	40.573
1331.16	38.4715
1332.76	37.858
1334.35	37.1985
1335.94	37.3687
1337.53	35.6289
1339.12	34.7815
1340.71	35.7412
1342.3	34.0763
1343.89	31.8462
1345.48	31.9863
1347.07	30.9943
1348.66	30.1814
1350.25	29.7058
1351.84	28.7242
1353.43	27.6771
1355.01	28.3365
1356.6	27.7205
1358.19	27.9133
1359.77	27.601
1361.36	26.2941
1362.95	26.249
1364.53	25.6695
1366.12	25.6263
1367.71	25.1314
1369.29	24.4608
1370.88	24.0819
1372.46	24.1642
1374.04	22.9767
1375.63	23.2147
1377.21	23.3674
1378.8	22.4546
1380.38	21.9665
1381.96	21.6155
1383.54	20.8947
1385.13	21.9027
1386.71	21.274
1388.29	21.4599
1389.87	20.1667
1391.45	17.5973
1393.03	17.4838
1394.61	16.2036
1396.19	16.2429
1397.77	15.7517
1399.35	18.0094
1400.93	18.7391
1402.51	19.8684
1404.09	22.6787
1405.67	23.1566
1407.24	25.1969
1408.82	28.3248
1410.4	31.3572
1411.98	36.2201
1413.55	40.3631
1415.13	44.1527
1416.71	46.4722
1418.28	51.6596
1419.86	56.111
1421.43	59.7044
1423.01	64.6257
1424.58	69.9874
1426.16	76.1445
1427.73	80.7925
1429.31	86.2159
1430.88	91.4848
1432.45	95.6476
1434.02	101.043
1435.6	104.76
1437.17	109.005
1438.74	111.963
1440.31	113.274
1441.88	116.086
1443.45	118.848
1445.03	119.983
1446.6	119.581
1448.17	119.837
1449.74	120.278
1451.3	119.822
1452.87	120.066
1454.44	120.542
1456.01	120.243
1457.58	119.891
1459.15	120.291
1460.72	117.893
1462.28	117.139
1463.85	115.351
1465.42	112.331
1466.98	110.931
1468.55	108.043
1470.12	105.88
1471.68	104.096
1473.25	101.6
1474.81	100.733
1476.38	98.4702
1477.94	97.5361
1479.51	94.0066
1481.07	92.8108
1482.63	91.062
1484.2	88.5273
1485.76	87.681
1487.32	85.9674
1488.88	83.9994
1490.45	81.5097
1492.01	78.3345
1493.57	75.858
1495.13	72.8976
1496.69	71.1474
1498.25	66.7239
1499.81	63.0536
1501.37	60.7394
1502.93	58.9465
1504.49	56.2295
1506.05	51.4235
1507.61	48.0278
1509.17	44.4699
1510.73	41.7275
1512.28	38.7963
1513.84	33.7719
1515.4	30.4456
1516.96	27.3067
1518.51	24.3939
1520.07	22.3907
1521.63	20.3443
1523.18	16.8991
1524.74	15.9863
1526.29	14.6337
1527.85	14.0673
1529.4	14.7534
1530.96	15.8886
1532.51	16.8949
1534.06	17.5414
1535.62	17.4629
1537.17	17.7588
1538.72	16.7428
1540.28	17.8301
1541.83	17.7808
1543.38	18.8475
1544.93	20.0862
1546.48	20.7209
1548.03	21.5068
1549.59	21.5057
1551.14	22.5286
1552.69	23.5327
1554.24	24.1535
1555.79	25.4782
1557.34	25.527
1558.88	26.7985
1560.43	27.3973
1561.98	27.7565
1563.53	28.3556
1565.08	29.3055
1566.62	30.7417
1568.17	32.5341
1569.72	35.0511
1571.27	36.6115
1572.81	37.8531
1574.36	39.3281
1575.9	40.2586
1577.45	42.7522
1579	44.8438
1580.54	46.1872
1582.09	46.8497
1583.63	48.9668
1585.17	51.4248
1586.72	53.9225
1588.26	56.2913
1589.8	57.3798
1591.35	59.5477
1592.89	62.6156
1594.43	63.6553
1595.97	63.8726
1597.52	64.9717
1599.06	65.616
1600.6	65.7891
1602.14	65.8237
1603.68	65.0036
1605.22	65.8477
1606.76	67.07
1608.3	67.1669
1609.84	67.0872
1611.38	65.7287
1612.92	65.0887
1614.46	65.4904
1615.99	65.5065
1617.53	65.318
1619.07	65.5135
1620.61	65.5712
1622.14	65.4004
1623.68	65.2614
1625.22	63.6353
1626.75	63.2808
1628.29	63.3659
1629.82	63.2568
1631.36	62.9453
1632.9	63.8884
1634.43	64.0068
1635.96	64.8204
1637.5	65.2213
1639.03	66.5861
1640.57	68.5708
1642.1	69.8183
1643.63	71.2424
1645.16	71.9502
1646.7	72.1526
1648.23	71.7802
1649.76	73.0382
1651.29	73.1361
1652.82	73.644
1654.36	73.6992
1655.89	73.7947
1657.42	74.7161
1658.95	73.982
1660.48	73.4795
1662.01	72.0556
1663.53	71.3818
1665.06	70.5123
1666.59	68.5395
1668.12	65.7528
1669.65	62.3334
1671.18	58.2065
1672.7	54.9059
1674.23	51.8311
1675.76	47.9525
1677.29	44.8115
1678.81	41.6474
1680.34	39.4258
1681.86	36.943
1683.39	34.9372
1684.91	32.4032
1686.44	29.252
1687.96	26.8207
1689.49	24.1468
1691.01	21.5061
1692.54	19.7704
1694.06	17.7402
1695.58	15.5323
1697.11	12.9316
1698.63	12.0769
1700.15	10.9376
1701.67	8.40296
1703.2	8.92057
1704.72	8.27442
1706.24	7.86028
1707.76	6.89178
1709.28	7.30462
1710.8	5.62392
1712.32	5.09926
1713.84	4.78677
1715.36	4.50347
1716.88	4.33012
1718.4	3.27461
1719.91	3.43157
1721.43	3.81524
1722.95	3.15269
1724.47	4.46406
1725.99	5.29038
1727.5	4.96559
1729.02	5.04553
1730.54	4.84878
1732.05	5.38198
1733.57	5.46786
1735.09	4.07509
1736.6	4.4406
1738.12	4.52526
1739.63	4.8591
1741.15	4.44882
1742.66	4.05993
1744.18	3.24707
1745.69	3.48429
1747.2	3.28148
1748.72	3.25534
1750.23	3.4181
1751.74	3.29145
1753.25	3.27349
1754.77	2.95742
1756.28	2.29122
1757.79	2.32342
1759.3	2.79846
1760.81	1.75815
1762.32	0.499658
1763.83	0.0722986
1765.34	-0.984062
1766.85	-0.627946
1768.36	-0.201409
1769.87	-0.944969
1771.38	-1.41548
1772.89	-0.849071
1774.4	0.619496
1775.91	0.940706
1777.41	0.849455
1778.92	1.81972
1780.43	1.48989
1781.94	1.1108
1783.44	0.938557
1784.95	1.44545
1786.45	1.13101
1787.96	1.14854
1789.47	2.02984
1790.97	1.72115
1792.48	2.63153
1793.98	2.49429
1795.48	3.39384
1796.99	3.10898
1798.49	2.89977
1800	3.61749
1801.5	2.23736
1803	2.24683
1804.51	2.81202
1806.01	3.30811
1807.51	3.44059
1809.01	3.08701
1810.51	3.00594
1812.02	3.14015
1813.52	3.33007
1815.02	3.58694
1816.52	4.52435
1818.02	4.80665
1819.52	5.1208
1821.02	4.82884
1822.52	3.93188
1824.02	3.42509
1825.51	3.23044
1827.01	2.42964
1828.51	2.08572
1830.01	2.42252
1831.51	2.68203
1833	2.84651
1834.5	1.88947
1836	1.82004
1837.5	2.08872
1838.99	2.08341
1840.49	1.68892
1841.98	2.15179
1843.48	2.53516
1844.97	2.72234
1846.47	3.16915
1847.96	3.9334
1849.46	3.76381
1850.95	3.8941
1852.45	3.87946
1853.94	3.81726
1855.43	3.68346
1856.92	3.56622
1858.42	4.25449
1859.91	4.41593
1861.4	4.75241
1862.89	4.75461
1864.39	5.95372
1865.88	6.1466
1867.37	6.66804
1868.86	5.66987
1870.35	5.87447
1871.84	5.1092
1873.33	5.16177
1874.82	5.27334
1876.31	5.27101
1877.8	5.41911
1879.29	6.04011
1880.77	7.01249
1882.26	7.83231
1882.51	8.19757
1884	8.51119
1885.5	8.70216
1886.99	9.57903
1888.48	9.7016
1889.98	10.5365
1891.47	10.2193
1892.97	10.6575
1894.46	8.83087
1895.95	9.486
1897.44	8.87732
1898.93	8.86523
1900.42	7.48062
1901.92	7.4711
1903.41	7.9781
1904.9	7.87342
1906.39	6.93469
1907.88	6.61054
1909.37	6.56882
1910.86	5.71645
1912.35	5.10827
1913.84	4.88941
1915.32	4.45483
1916.81	4.24632
1918.3	4.77485
1919.79	5.50078
1921.28	6.55158
1922.76	5.71292
1924.25	6.57074
1925.74	6.61013
1927.22	7.06598
1928.71	6.93266
1930.2	7.06596
1931.68	7.35289
1933.17	7.12524
1934.65	7.65901
1936.14	8.12681
1937.62	8.51594
1939.11	7.98058
1940.59	8.05088
1942.08	7.94752
1943.56	8.70249
1945.04	9.41865
1946.53	9.90626
1948.01	10.9748
1949.49	11.6463
1950.97	12.1455
1952.45	13.5184
1953.94	13.9884
1955.42	13.7455
1956.9	12.9491
1958.38	12.8146
1959.86	12.5607
1961.34	12.2794
1962.82	12.1581
1964.3	11.6647
1965.78	11.3064
1967.26	11.1157
1968.74	10.3645
1970.22	10.3831
1971.69	8.09728
1973.17	7.71856
1974.65	7.2523
1976.13	7.09442
1977.61	7.01793
1979.08	6.3277
1980.56	5.47154
1982.03	5.53038
1983.51	4.64559
1984.99	4.51899
1986.46	5.00443
1987.94	5.02819
1989.41	5.42381
1990.89	6.54015
1992.36	6.57986
1993.84	7.14345
1995.31	6.36657
1996.78	5.0829
1998.26	5.98393
1999.73	5.6874
2001.2	5.25443
2002.68	4.77898
2004.15	5.31914
2005.62	6.20814
2007.09	6.30207
2008.56	6.95528
2010.04	7.80427
2011.51	7.81929
2012.98	8.16418
2014.45	8.37561
2015.92	8.00985
2017.39	8.27229
2018.86	8.63747
2020.33	8.33913
2021.8	8.38796
2023.27	8.44184
2024.74	7.97911
2026.2	7.84382
2027.67	7.67143
2029.14	7.54527
2030.61	7.03219
2032.07	7.90991
2033.54	6.60017
2035.01	6.71281
2036.47	7.56996
2037.94	7.38474
2039.41	8.35308
2040.87	8.36607
2042.34	7.79615
2043.8	7.31158
2045.27	6.99138
2046.73	8.27368
2048.2	9.04615
2049.66	9.59687
2051.12	10.617
2052.59	11.2794
2054.05	12.1594
2055.51	13.6779
2056.98	14.2599
2058.44	16.0957
2059.9	17.8314
2061.36	19.1717
2062.82	20.3946
2064.29	21.3958
2065.75	21.4986
2067.21	23.3222
2068.67	23.8293
2070.13	25.5635
2071.59	27.8149
2073.05	28.3082
2074.51	29.9125
2075.97	30.8686
2077.43	32.2451
2078.88	33.6472
2080.34	35.0351
2081.8	36.4089
2083.26	37.9119
2084.72	38.5206
2086.17	39.6232
2087.63	39.8234
2089.09	40.6733
2090.54	42.9419
2092	44.0212
2093.46	44.935
2094.91	46.2511
2096.37	47.7207
2097.82	48.2786
2099.28	49.2348
2100.73	49.8265
2102.19	50.4974
2103.64	51.3132
2105.09	52.4449
2106.55	53.0355
2108	54.5319
2109.46	56.97
2110.91	58.2109
2112.36	59.4841
2113.81	60.501
2115.27	62.5262
2116.72	64.7954
2118.17	66.313
2119.62	68.4349
2121.07	69.7274
2122.52	72.3422
2123.97	74.282
2125.42	76.4169
2126.87	79.2921
2128.32	82.3056
2129.77	83.683
2131.22	86.3108
2132.67	88.0004
