#Acq. time (s)=	45
#Accumulations=	2
#Range (cm-¹)=	200...3150
#Windows=	2
#Auto scanning=	Off
#Autofocus=	Off
#Macrospot=	Off
#AutoExposure=	Off
#Spike filter=	Multiple accum.
#Delay time (s)=	0
#Binning=	1
#Readout mode=	Signal
#DeNoise=	Off
#ICS correction=	On
#Dark correction=	Off
#Inst. Process=	Off
#Detector Gain=	Best Dynamic Range
#Detector ADC=	20 kHz       
#Detector temperature (°C)=	-69.85
#Instrument=	LabRAM HR Evol
#Detector=	Synapse
#Objective=	x100
#Grating=	600 gr/mm
#ND Filter=	100%
#Laser (nm)=	532 
#Hole=	100.021
#Range=	Auto
#Laser Pol.=	No
#Raman. Pol.=	No
#Laser Pol. (°)=	-0.0007625
#Raman Pol. (°)=	89.9995
#Collection=	Microscope
#StageXY=	Marzhauser
#StageZ=	Marzhauser
#X (µm)=	28476.5
#Y (µm)=	-2956.7
#Z (µm)=	1043.55
#Full time(mm:ss)=	3:18
#Project=	
#Sample=	
#Site=	
#Title=	Mb_50_18_48_2x_45s_532 nm_x100_100%_600 gr_mm
#Remark=	
#Date=	12.07.2022 14:47
#Acquired=	12.07.2022 14:47:18
#Base:Fit=	10.08.2022 10:49:18
#Base:Sub=	10.08.2022 10:49:30
#Filter:Polynom=	16.08.2022 10:14:59
#AxisType[0]=Intens
#AxisUnit[0]=Cnt
#AxisType[1]=Spectr
#AxisUnit[1]=1/cm
200.388	39.3909
202.204	33.6144
204.019	29.8604
205.832	27.5025
207.646	24.7236
209.459	21.9242
211.274	19.6926
213.087	17.4229
214.899	15.9047
216.711	14.9458
218.524	13.0752
220.335	12.1937
222.146	11.1093
223.956	10.2306
225.766	10.0935
227.576	9.4244
229.388	9.25688
231.197	8.39443
233.005	7.772
234.813	6.99104
236.621	6.10905
238.429	4.50372
240.236	4.812
242.045	4.21011
243.852	2.92137
245.658	2.44627
247.464	2.03057
249.269	2.60725
251.074	2.90864
252.879	2.92469
254.683	2.9254
256.487	3.17612
258.291	4.00716
260.094	4.25873
261.897	4.71441
263.702	4.36362
265.504	3.50459
267.306	3.77475
269.108	2.66472
270.909	3.77869
272.71	2.59886
274.511	3.18575
276.311	3.42779
278.111	3.43738
279.91	3.13395
281.709	3.25722
283.508	3.13782
285.306	3.53624
287.105	4.9504
288.9	5.96813
290.698	6.37661
292.495	7.04357
294.291	6.38923
296.088	7.01483
297.884	7.61965
299.679	10.1347
301.475	11.3226
303.27	12.3113
305.064	12.8044
306.858	13.9697
308.652	14.5057
310.444	15.2376
312.237	15.2352
314.03	15.8971
315.822	15.5253
317.615	15.7408
319.406	16.4953
321.198	16.3549
322.987	16.4574
324.778	16.3247
326.568	16.1858
328.358	16.0477
330.148	16.7619
331.935	14.7853
333.724	13.7882
335.513	14.0316
337.301	14.5914
339.089	14.9224
340.875	15.0527
342.662	15.1274
344.449	14.6911
346.236	14.7027
348.02	14.5974
349.806	13.825
351.592	14.8993
353.375	16.0382
355.16	16.1024
356.944	17.3069
358.728	18.373
360.51	21.1254
362.294	21.72
364.077	23.2998
365.858	23.9785
367.64	24.5424
369.422	25.125
371.202	26.2416
372.983	27.2492
374.764	29.0044
376.543	29.1841
378.324	30.3811
380.102	30.6131
381.881	31.8711
383.661	33.022
385.438	34.661
387.216	34.0187
388.993	35.0381
390.771	33.9207
392.548	34.3618
394.324	33.1381
396.101	32.5117
397.875	31.1384
399.651	30.2478
401.425	29.4541
403.201	28.5197
404.974	27.1202
406.749	26.9125
408.524	25.6832
410.296	24.2279
412.07	22.7933
413.841	20.673
415.614	18.6688
417.385	17.1875
419.156	15.2888
420.928	13.5167
422.698	14.0279
424.469	13.8969
426.238	13.8497
428.009	12.8741
429.777	12.228
431.548	11.5503
433.315	12.543
435.083	13.1922
436.852	13.0016
438.618	12.3274
440.387	13.9725
442.153	13.5891
443.919	13.3491
445.686	14.5613
447.451	15.3124
449.218	14.687
450.982	14.273
452.746	14.4635
454.512	14.3453
456.275	14.3115
458.038	15.6784
459.803	16.1207
461.565	16.3058
463.327	16.5796
465.091	15.7551
466.852	17.7022
468.613	18.7087
470.374	19.7916
472.136	20.5008
473.896	21.5334
475.655	22.4673
477.415	24.4343
479.176	26.7334
480.934	28.2752
482.692	29.716
484.45	31.7223
486.21	33.9225
487.967	35.0551
489.724	35.8288
491.481	36.978
493.237	38.4323
494.995	41.6608
496.75	42.8138
498.506	44.5857
500.26	45.4506
502.015	46.6818
503.771	47.7641
505.525	49.8718
507.279	50.9896
509.032	53.0238
510.785	53.3838
512.537	53.372
514.289	52.728
516.041	52.7598
517.793	52.0267
519.546	52.329
521.297	52.535
523.047	50.2003
524.797	49.7331
526.547	49.0217
528.297	49.0134
530.046	46.7373
531.795	45.5836
533.543	44.4878
535.291	42.3875
537.039	40.4128
538.787	38.5043
540.534	35.8941
542.281	33.36
544.027	32.2358
545.773	30.0933
547.519	26.5013
549.264	23.3326
551.01	21.3193
552.754	20.0667
554.499	19.2161
556.243	17.6992
557.987	15.3545
559.73	14.5439
561.474	15.4769
563.216	14.4874
564.959	13.6315
566.701	13.1844
568.441	12.5937
570.182	11.8588
571.923	10.7635
573.664	9.75195
575.405	8.71851
577.145	9.5442
578.885	10.2527
580.624	10.4197
582.361	11.5412
584.1	9.75852
585.839	9.61411
587.577	9.06145
589.315	8.78459
591.052	7.41433
592.787	8.45856
594.524	7.55425
596.26	6.50387
597.997	6.15721
599.732	5.9028
601.466	6.66057
603.201	7.46423
604.936	6.58885
606.67	6.82417
608.403	7.37572
610.136	7.4017
611.87	8.25079
613.603	7.39726
615.334	7.40172
617.067	7.87697
618.799	7.82074
620.529	7.53002
622.26	7.40209
623.991	7.21652
625.72	5.05047
627.451	4.94024
629.181	4.51822
630.909	4.63246
632.638	3.39867
634.368	2.89888
636.095	2.31704
637.823	2.21735
639.551	2.38584
641.277	1.57665
643.005	2.1608
644.73	2.85908
646.457	3.80006
648.184	4.73313
649.908	4.83203
651.634	4.60759
653.357	4.59722
655.083	5.27089
656.806	4.57118
658.53	4.72549
660.253	4.76417
661.977	5.28876
663.7	5.79478
665.422	5.22024
667.145	5.02536
668.865	5.3521
670.588	4.85877
672.308	5.94412
674.027	6.07733
675.749	6.3919
677.468	5.45736
679.188	6.02612
680.907	5.16185
682.627	5.81433
684.345	7.01214
686.064	7.56512
687.781	9.45813
689.498	8.25885
691.216	9.60433
692.932	11.018
694.65	12.8208
696.366	14.325
698.081	15.2438
699.797	15.883
701.512	17.427
703.228	18.8147
704.942	18.8667
706.655	19.8939
708.371	20.7354
710.083	20.2469
711.796	20.1384
713.51	20.8197
715.222	21.2394
716.934	22.3272
718.645	21.8582
720.358	22.3209
722.068	22.8711
723.779	23.0199
725.49	25.0376
727.2	26.2487
728.909	26.8133
730.618	28.0491
732.329	28.6283
734.037	30.5118
735.745	31.597
737.453	32.4921
739.16	34.5943
740.869	37.5722
742.576	39.1402
744.282	42.4663
745.988	45.8612
747.694	49.2032
749.401	51.6129
751.107	54.3267
752.811	57.7538
754.516	60.4251
756.22	64.3311
757.924	66.7231
759.627	68.4597
761.332	71.2142
763.035	72.9442
764.738	75.9995
766.44	78.0893
768.142	80.4555
769.843	82.7697
771.544	84.1135
773.245	85.3934
774.946	86.2773
776.646	88.3524
778.346	89.016
780.046	89.8634
781.745	90.5076
783.444	89.9163
785.143	90.106
786.841	90.7175
788.539	90.7551
790.237	90.39
791.934	89.4115
793.631	88.8137
795.328	87.194
797.024	86.0194
798.72	83.665
800.416	82.6259
802.112	80.3626
803.807	77.8806
805.502	75.9296
807.196	74.4429
808.89	72.6904
810.584	72.4322
812.278	70.8794
813.971	68.9986
815.664	69.1479
817.354	69.2963
819.047	68.6065
820.739	68.4849
822.43	68.5509
824.122	68.5569
825.813	67.985
827.503	67.7786
829.192	69.1739
830.882	68.9622
832.571	68.3143
834.261	67.7856
835.95	68.0247
837.637	68.1973
839.325	68.1104
841.013	67.7343
842.701	66.6547
844.389	65.4704
846.074	64.7053
847.761	62.3703
849.447	60.4104
851.131	58.7533
852.817	58.7061
854.503	58.0756
856.188	56.0119
857.871	55.7244
859.556	53.96
861.24	53.7395
862.922	53.3339
864.606	52.1738
866.289	51.2692
867.97	50.065
869.653	49.2232
871.336	48.5104
873.016	48.3119
874.698	46.3239
876.379	44.6801
878.058	42.8169
879.739	40.6382
881.418	38.691
883.098	37.5555
884.778	37.9708
886.456	38.0562
888.135	37.3406
889.812	36.2633
891.49	36.6888
893.167	36.2195
894.845	35.4718
896.523	35.1364
898.198	35.3887
899.875	36.7061
901.55	35.8693
903.226	34.7838
904.901	34.4305
906.576	33.9002
908.25	33.9142
909.925	33.508
911.598	32.9899
913.271	33.1423
914.945	32.7169
916.617	32.191
918.291	30.6556
919.962	30.1075
921.635	29.2171
923.306	28.1081
924.978	27.3596
926.648	27.3391
928.318	25.9294
929.989	26.3197
931.659	25.2015
933.328	24.0549
934.998	24.4678
936.666	24.3552
938.336	23.4293
940.004	23.1242
941.671	22.8477
943.34	22.72
945.007	22.5022
946.673	22.3938
948.339	21.6963
950.007	21.5615
951.672	21.6507
953.337	21.8737
955.004	22.5405
956.669	22.2805
958.333	21.2303
959.997	21.9547
961.662	22.9601
963.326	23.9526
964.989	24.7355
966.651	26.7193
968.315	28.081
969.977	27.9771
971.639	27.9336
973.301	29.8337
974.962	30.7942
976.624	31.5327
978.285	32.4981
979.945	33.6809
981.605	32.9816
983.264	32.0133
984.924	29.3118
986.583	29.4415
988.243	30.2919
989.901	30.375
991.56	30.6713
993.217	29.909
994.875	31.394
996.532	34.9834
998.188	36.4012
999.845	38.774
1001.5	40.1144
1003.16	43.1233
1004.81	45.0626
1006.47	46.7921
1008.12	49.3192
1009.78	52.4735
1011.43	55.2968
1013.09	58.2526
1014.74	59.7154
1016.39	60.8474
1018.05	64.2975
1019.7	66.8152
1021.35	69.1856
1023	70.4312
1024.65	71.64
1026.31	73.577
1027.96	74.1916
1029.61	75.5296
1031.26	74.8586
1032.91	75.2713
1034.56	76.2966
1036.21	76.006
1037.86	75.7049
1039.51	74.7375
1041.16	75.2283
1042.8	74.9754
1044.45	74.2861
1046.1	73.6839
1047.75	72.7678
1049.39	71.9717
1051.04	69.4064
1052.69	66.3623
1054.33	64.3253
1055.98	61.9453
1057.62	59.0786
1059.27	56.2777
1060.91	53.7018
1062.56	51.3041
1064.2	49.4227
1065.85	47.8091
1067.49	46.7016
1069.13	46.9326
1070.77	46.5684
1072.42	45.721
1074.06	45.7522
1075.7	45.806
1077.34	47.2997
1078.98	47.1018
1080.62	45.5806
1082.27	45.3387
1083.91	44.0645
1085.55	44.8391
1087.18	45.4618
1088.82	46.1413
1090.46	47.1785
1092.1	48.8491
1093.74	49.3653
1095.38	48.8839
1097.02	49.1991
1098.65	49.7692
1100.29	51.2411
1101.93	51.7642
1103.56	52.3599
1105.2	51.8253
1106.84	51.9652
1108.47	51.384
1110.11	50.1296
1111.74	48.9269
1113.38	48.3661
1115.01	48.0741
1116.64	47.0039
1118.28	44.9517
1119.91	44.5567
1121.54	43.3411
1123.18	42.7365
1124.81	40.9823
1126.44	39.4309
1128.07	38.0377
1129.7	35.3179
1131.33	32.4691
1132.97	29.579
1134.6	27.3712
1136.23	26.1722
1137.86	26.0171
1139.49	25.3445
1141.11	24.2677
1142.74	23.7167
1144.37	22.7441
1146	20.161
1147.63	18.1056
1149.26	16.8726
1150.88	14.7498
1152.51	12.979
1154.14	11.0501
1155.76	8.92212
1157.39	6.81149
1159.01	4.81704
1160.64	4.63053
1162.27	4.6764
1163.89	4.86237
1165.51	5.09377
1167.14	5.48713
1168.76	4.65578
1170.39	4.81216
1172.01	4.914
1173.63	5.38634
1175.25	6.02167
1176.88	6.58643
1178.5	7.40108
1180.12	7.1998
1181.74	7.06345
1183.36	6.8973
1184.98	7.08092
1186.6	5.92565
1188.22	5.49337
1189.84	5.5305
1191.46	4.54106
1193.08	5.06797
1194.7	5.62056
1196.32	7.01772
1197.94	7.71791
1199.55	8.83968
1201.17	10.5939
1202.79	10.9985
1204.41	11.4376
1206.02	13.1422
1207.64	14.162
1209.25	15.4582
1210.87	17.0341
1212.48	18.6322
1214.1	20.6194
1215.71	22.8597
1217.33	25.5532
1218.94	28.8364
1220.56	30.3203
1222.17	32.7315
1223.79	34.9466
1225.4	35.9451
1227.01	37.906
1228.62	40.1424
1230.23	41.9038
1231.85	43.9053
1233.46	46.4766
1235.07	48.5817
1236.68	50.1992
1238.29	53.2029
1239.9	56.2357
1241.51	58.7175
1243.12	60.7561
1244.73	62.1277
1246.34	64.2449
1247.94	66.6359
1249.55	68.7457
1251.16	70.7482
1252.77	72.3466
1254.37	74.471
1255.98	75.1414
1257.59	76.3582
1259.2	78.0332
1260.8	79.2101
1262.41	80.9519
1264.01	82.1116
1265.62	84.6109
1267.22	86.1513
1268.83	88.2481
1270.43	91.8025
1272.03	93.8637
1273.64	96.5517
1275.24	99.1858
1276.85	101.683
1278.45	102.908
1280.05	105.155
1281.65	107.14
1283.25	109.112
1284.85	110.897
1286.46	113.533
1288.06	114.345
1289.66	114.942
1291.26	117.028
1292.86	117.906
1294.46	117.997
1296.06	118.981
1297.66	120.42
1299.25	121.06
1300.85	121.404
1302.45	121.036
1304.05	120.977
1305.65	119.571
1307.24	119.329
1308.84	118.553
1310.43	117.354
1312.03	116.273
1313.63	115.017
1315.22	114.539
1316.82	113.427
1318.41	112.821
1320.01	110.373
1321.6	110.019
1323.2	109.274
1324.79	107.502
1326.38	106.803
1327.98	104.639
1329.57	103.244
1331.16	101.549
1332.76	100.076
1334.35	97.8829
1335.94	95.0139
1337.53	94.5937
1339.12	93.2309
1340.71	91.0801
1342.3	88.5204
1343.89	86.3323
1345.48	85.4491
1347.07	83.6995
1348.66	81.8293
1350.25	80.119
1351.84	77.485
1353.43	75.6343
1355.01	74.0872
1356.6	71.7603
1358.19	69.307
1359.77	66.889
1361.36	65.9723
1362.95	64.5607
1364.53	61.2191
1366.12	57.7219
1367.71	55.1117
1369.29	53.9043
1370.88	52.6405
1372.46	51.0517
1374.04	50.0113
1375.63	48.5328
1377.21	47.0453
1378.8	44.3549
1380.38	42.8023
1381.96	40.6589
1383.54	39.1774
1385.13	37.1746
1386.71	36.4278
1388.29	35.5165
1389.87	34.3922
1391.45	34.199
1393.03	33.9243
1394.61	33.6143
1396.19	32.6702
1397.77	32.7159
1399.35	33.2017
1400.93	34.4256
1402.51	34.1461
1404.09	35.7701
1405.67	37.7858
1407.24	39.1027
1408.82	41.6652
1410.4	43.4371
1411.98	45.3767
1413.55	48.3269
1415.13	51.8066
1416.71	56.5055
1418.28	60.7211
1419.86	64.7714
1421.43	67.8648
1423.01	74.3024
1424.58	80.057
1426.16	85.7704
1427.73	91.4771
1429.31	97.4029
1430.88	103.655
1432.45	108.471
1434.02	113.108
1435.6	117.131
1437.17	120.356
1438.74	124.018
1440.31	127.991
1441.88	129.519
1443.45	130.593
1445.03	132.881
1446.6	135.023
1448.17	136.181
1449.74	136.077
1451.3	136.069
1452.87	134.794
1454.44	133.778
1456.01	133.058
1457.58	131.249
1459.15	130.33
1460.72	128.006
1462.28	124.78
1463.85	121.937
1465.42	119.101
1466.98	115.345
1468.55	111.025
1470.12	107.187
1471.68	104.489
1473.25	100.488
1474.81	96.2464
1476.38	92.7846
1477.94	88.5904
1479.51	85.7007
1481.07	81.657
1482.63	78.175
1484.2	73.6068
1485.76	69.768
1487.32	67.0839
1488.88	64.7536
1490.45	61.9913
1492.01	59.5047
1493.57	57.18
1495.13	54.8045
1496.69	52.2883
1498.25	50.321
1499.81	48.8121
1501.37	49.0645
1502.93	47.8291
1504.49	46.6326
1506.05	45.2022
1507.61	44.0351
1509.17	42.0197
1510.73	39.4781
1512.28	37.4302
1513.84	34.813
1515.4	33.8056
1516.96	31.8018
1518.51	30.5464
1520.07	28.9016
1521.63	26.7906
1523.18	25.1535
1524.74	23.8463
1526.29	23.6647
1527.85	23.127
1529.4	22.4004
1530.96	22.6866
1532.51	23.0213
1534.06	22.3574
1535.62	22.3876
1537.17	21.9731
1538.72	21.8081
1540.28	22.6819
1541.83	24.1184
1543.38	25.1129
1544.93	25.3878
1546.48	26.3155
1548.03	27.7661
1549.59	28.0625
1551.14	27.8122
1552.69	28.3525
1554.24	29.3429
1555.79	30.4404
1557.34	31.6584
1558.88	30.8589
1560.43	31.7273
1561.98	32.6861
1563.53	35.1391
1565.08	37.9585
1566.62	40.3159
1568.17	43.4487
1569.72	46.2532
1571.27	48.9817
1572.81	51.9388
1574.36	54.8652
1575.9	58.0251
1577.45	61.2819
1579	64.6066
1580.54	66.9325
1582.09	68.9785
1583.63	71.0998
1585.17	74.5517
1586.72	76.1587
1588.26	79.4227
1589.8	81.4279
1591.35	82.9546
1592.89	84.6896
1594.43	84.8132
1595.97	86.2031
1597.52	86.4714
1599.06	86.2139
1600.6	86.6414
1602.14	86.9277
1603.68	86.6379
1605.22	86.9486
1606.76	87.0883
1608.3	87.8968
1609.84	86.9839
1611.38	86.8247
1612.92	86.6922
1614.46	86.38
1615.99	87.5526
1617.53	88.1484
1619.07	89.1682
1620.61	89.3889
1622.14	89.6987
1623.68	91.4792
1625.22	91.5862
1626.75	92.8253
1628.29	95.2623
1629.82	96.1181
1631.36	97.108
1632.9	99.7096
1634.43	100.177
1635.96	102.27
1637.5	105.812
1639.03	108.284
1640.57	111.499
1642.1	114.753
1643.63	117.697
1645.16	120.488
1646.7	122.396
1648.23	124.36
1649.76	126.937
1651.29	127.709
1652.82	129.643
1654.36	131.43
1655.89	131.671
1657.42	132.08
1658.95	132.599
1660.48	132.672
1662.01	132.32
1663.53	130.217
1665.06	127.742
1666.59	123.614
1668.12	120.488
1669.65	117.273
1671.18	113.349
1672.7	109.247
1674.23	106.373
1675.76	102.75
1677.29	98.6253
1678.81	93.9695
1680.34	90.1807
1681.86	86.275
1683.39	80.9968
1684.91	75.6299
1686.44	71.0159
1687.96	67.9871
1689.49	63.2549
1691.01	58.9426
1692.54	55.6866
1694.06	52.5895
1695.58	50.363
1697.11	47.1109
1698.63	44.1924
1700.15	41.4045
1701.67	37.5027
1703.2	34.7805
1704.72	31.9985
1706.24	28.9558
1707.76	27.1961
1709.28	25.4137
1710.8	23.1286
1712.32	22.9156
1713.84	22.2017
1715.36	20.5395
1716.88	19.996
1718.4	19.7192
1719.91	19.5064
1721.43	19.063
1722.95	18.6072
1724.47	18.0943
1725.99	17.7004
1727.5	16.6091
1729.02	17.141
1730.54	16.361
1732.05	15.0201
1733.57	14.795
1735.09	13.9021
1736.6	12.5931
1738.12	11.4358
1739.63	11.3333
1741.15	10.3124
1742.66	9.83888
1744.18	10.0168
1745.69	9.65229
1747.2	8.77359
1748.72	8.32935
1750.23	8.27971
1751.74	6.43435
1753.25	4.81909
1754.77	4.06971
1756.28	3.48809
1757.79	2.71054
1759.3	2.04763
1760.81	1.00534
1762.32	1.12171
1763.83	0.172847
1765.34	-0.592754
1766.85	-0.450191
1768.36	-0.0307942
1769.87	0.653629
1771.38	1.20491
1772.89	0.115149
1774.4	-0.591985
1775.91	-0.612204
1777.41	-0.14467
1778.92	0.176795
1780.43	0.326882
1781.94	0.704617
1783.44	0.832383
1784.95	1.38824
1786.45	2.65966
1787.96	3.02338
1789.47	3.04624
1790.97	2.6501
1792.48	2.77056
1793.98	3.21008
1795.48	3.43295
1796.99	3.62329
1798.49	3.54149
1800	3.50843
1801.5	3.02353
1803	3.74643
1804.51	5.09229
1806.01	4.76814
1807.51	4.64518
1809.01	5.45681
1810.51	5.63885
1812.02	5.68476
1813.52	5.6522
1815.02	5.62752
1816.52	5.2604
1818.02	5.08926
1819.52	4.79386
1821.02	4.5204
1822.52	3.57181
1824.02	3.54608
1825.51	3.6248
1827.01	4.09274
1828.51	4.0065
1830.01	4.11428
1831.51	3.93104
1833	3.62845
1834.5	3.37044
1836	3.4509
1837.5	3.75939
1838.99	3.70548
1840.49	4.43564
1841.98	3.86042
1843.48	4.20125
1844.97	4.44304
1846.47	3.99934
1847.96	3.87006
1849.46	4.76361
1850.95	5.62004
1852.45	5.16766
1853.94	4.75926
1855.43	4.67747
1856.92	5.18193
1858.42	5.37612
1859.91	5.14298
1861.4	4.45833
1862.89	3.6595
1864.39	3.73487
1865.88	3.29206
1867.37	3.09762
1868.86	3.21761
1870.35	2.7978
1871.84	2.91211
1873.33	3.04657
1874.82	3.93317
1876.31	4.36886
1877.8	5.03263
1879.29	5.10692
1880.77	4.24409
1882.26	4.01434
1882.51	4.47132
1884	4.25738
1885.5	4.06347
1886.99	4.07545
1888.48	4.78107
1889.98	5.19098
1891.47	4.25486
1892.97	3.51124
1894.46	4.15008
1895.95	4.05012
1897.44	4.28168
1898.93	4.22104
1900.42	4.62233
1901.92	4.14493
1903.41	3.65853
1904.9	3.76001
1906.39	3.71868
1907.88	4.08282
1909.37	3.9825
1910.86	3.91475
1912.35	4.10962
1913.84	4.3125
1915.32	4.12889
1916.81	4.82089
1918.3	4.43555
1919.79	4.88553
1921.28	5.7944
1922.76	5.98033
1924.25	5.39667
1925.74	5.04106
1927.22	4.81823
1928.71	4.81165
1930.2	4.57308
1931.68	3.70224
1933.17	3.32098
1934.65	3.46556
1936.14	3.44022
1937.62	3.8923
1939.11	3.87532
1940.59	4.12228
1942.08	4.1735
1943.56	3.51257
1945.04	3.65459
1946.53	2.95656
1948.01	2.08434
1949.49	1.52228
1950.97	1.01165
1952.45	1.32617
1953.94	1.71318
1955.42	1.72
1956.9	1.89736
1958.38	1.61959
1959.86	1.66665
1961.34	2.09387
1962.82	2.52942
1964.3	2.27575
1965.78	1.83136
1967.26	2.39722
1968.74	2.58517
1970.22	2.064
1971.69	2.62494
1973.17	3.00589
1974.65	3.71357
1976.13	3.57991
1977.61	3.82571
1979.08	4.03765
1980.56	4.02906
1982.03	3.9689
1983.51	4.01236
1984.99	4.68383
1986.46	5.35922
1987.94	5.43604
1989.41	6.05069
1990.89	6.37251
1992.36	6.55664
1993.84	7.18951
1995.31	7.75463
1996.78	7.22132
1998.26	6.9334
1999.73	6.75917
2001.2	6.86233
2002.68	7.11864
2004.15	6.66368
2005.62	6.91971
2007.09	7.51601
2008.56	8.25471
2010.04	8.29925
2011.51	9.14021
2012.98	8.76142
2014.45	8.29675
2015.92	8.32339
2017.39	8.21968
2018.86	8.76997
2020.33	8.85644
2021.8	9.05939
2023.27	10.2966
2024.74	10.3032
2026.2	10.5445
2027.67	11.195
2029.14	10.5753
2030.61	11.1488
2032.07	11.2618
2033.54	11.7648
2035.01	12.0568
2036.47	12.6927
2037.94	13.0188
2039.41	13.962
2040.87	15.0995
2042.34	16.0599
2043.8	18.0376
2045.27	19.5136
2046.73	20.3882
2048.2	21.3842
2049.66	22.1969
2051.12	22.3871
2052.59	22.9734
2054.05	24.0438
2055.51	24.7586
2056.98	25.8964
2058.44	27.4965
2059.9	28.866
2061.36	29.2652
2062.82	30.9786
2064.29	32.2746
2065.75	33.5973
2067.21	34.9634
2068.67	35.49
2070.13	35.7348
2071.59	37.4866
2073.05	38.7545
2074.51	41.1592
2075.97	42.7156
2077.43	45.1455
2078.88	47.5091
2080.34	49.5589
2081.8	51.8469
2083.26	53.2328
2084.72	54.5863
2086.17	55.8614
2087.63	58.4594
2089.09	60.6872
2090.54	61.7945
2092	63.3725
2093.46	64.3081
2094.91	65.5933
2096.37	67.1336
2097.82	69.0555
2099.28	71.6876
2100.73	74.3977
2102.19	76.2914
2103.64	79.2815
2105.09	81.4641
2106.55	84.4377
2108	88.396
2109.46	92.8156
2110.91	96.3793
2112.36	99.9873
2113.81	103.648
2115.27	107.291
2116.72	110.665
2118.17	113.75
2119.62	116.547
2121.07	120.085
2122.52	122.711
2123.97	126.232
2125.42	130.81
2126.87	134.762
2128.32	139.402
2129.77	144.289
2131.22	148.019
2132.67	152.616
2134.12	156.651
2135.57	160.879
