#Acq. time (s)=	45
#Accumulations=	2
#Range (cm-¹)=	200...3150
#Windows=	2
#Auto scanning=	Off
#Autofocus=	Off
#Macrospot=	Off
#AutoExposure=	Off
#Spike filter=	Multiple accum.
#Delay time (s)=	0
#Binning=	1
#Readout mode=	Signal
#DeNoise=	Off
#ICS correction=	On
#Dark correction=	Off
#Inst. Process=	Off
#Detector Gain=	Best Dynamic Range
#Detector ADC=	20 kHz       
#Detector temperature (°C)=	-69.85
#Instrument=	LabRAM HR Evol
#Detector=	Synapse
#Objective=	x100
#Grating=	600 gr/mm
#ND Filter=	100%
#Laser (nm)=	532 
#Hole=	100.021
#Range=	Auto
#Laser Pol.=	No
#Raman. Pol.=	No
#Laser Pol. (°)=	-0.0007625
#Raman Pol. (°)=	89.9995
#Collection=	Microscope
#StageXY=	Marzhauser
#StageZ=	Marzhauser
#X (µm)=	28286.9
#Y (µm)=	-3220.1
#Z (µm)=	1041.05
#Full time(mm:ss)=	3:19
#Project=	
#Sample=	
#Site=	
#Title=	Mb_50_18_36_2x_45s_532 nm_x100_100%_600 gr_mm
#Remark=	
#Date=	12.07.2022 13:40
#Acquired=	12.07.2022 13:40:43
#Base:Fit=	10.08.2022 10:49:18
#Base:Sub=	10.08.2022 10:49:30
#Filter:Polynom=	16.08.2022 10:14:59
#AxisType[0]=Intens
#AxisUnit[0]=Cnt
#AxisType[1]=Spectr
#AxisUnit[1]=1/cm
200.388	89.6368
202.204	84.501
204.019	79.4957
205.832	75.0969
207.646	71.0278
209.459	67.316
211.274	63.9935
213.087	59.9105
214.899	55.7159
216.711	51.1367
218.524	47.0942
220.335	44.6768
222.146	42.0271
223.956	37.2349
225.766	35.1875
227.576	32.3943
229.388	29.4087
231.197	26.2471
233.005	23.2601
234.813	20.9853
236.621	19.0355
238.429	18.1156
240.236	16.5164
242.045	15.329
243.852	13.0244
245.658	12.087
247.464	11.3176
249.269	10.7245
251.074	10.6549
252.879	9.56275
254.683	9.88422
256.487	10.6944
258.291	9.56964
260.094	8.84195
261.897	7.96387
263.702	8.69901
265.504	7.84791
267.306	7.54963
269.108	7.39861
270.909	7.41537
272.71	6.63064
274.511	6.33245
276.311	5.76131
278.111	4.87907
279.91	5.58035
281.709	5.50046
283.508	4.68941
285.306	6.72045
287.105	6.45081
288.9	7.12327
290.698	7.08879
292.495	6.88593
294.291	8.83166
296.088	9.31565
297.884	10.5162
299.679	10.2988
301.475	8.79805
303.27	9.73107
305.064	9.78625
306.858	10.9089
308.652	12.0618
310.444	13.6959
312.237	12.7277
314.03	11.843
315.822	13.1733
317.615	13.5733
319.406	12.2871
321.198	12.3736
322.987	12.8115
324.778	12.9681
326.568	13.3561
328.358	13.6272
330.148	12.9257
331.935	11.573
333.724	9.68907
335.513	9.21913
337.301	8.42403
339.089	7.42082
340.875	6.56991
342.662	5.83816
344.449	4.77228
346.236	3.82649
348.02	2.28376
349.806	4.48375
351.592	6.31204
353.375	9.50409
355.16	11.5264
356.944	13.9062
358.728	17.3055
360.51	19.4149
362.294	21.5361
364.077	23.6952
365.858	25.6122
367.64	28.4072
369.422	30.9409
371.202	33.8711
372.983	37.0637
374.764	39.6848
376.543	40.7422
378.324	43.5547
380.102	45.7027
381.881	47.3015
383.661	49.3648
385.438	49.861
387.216	51.0719
388.993	50.0298
390.771	50.6805
392.548	51.3626
394.324	50.1959
396.101	50.8233
397.875	50.2694
399.651	49.5007
401.425	47.1593
403.201	44.8651
404.974	42.0831
406.749	39.1231
408.524	35.7959
410.296	33.7382
412.07	30.9777
413.841	27.3358
415.614	24.0692
417.385	19.4574
419.156	14.146
420.928	9.52464
422.698	6.50205
424.469	3.91487
426.238	2.1754
428.009	0.381616
429.777	-1.65362
431.548	-2.98497
433.315	-4.30017
435.083	-3.78554
436.852	-3.20045
438.618	-1.08227
440.387	-1.39199
442.153	-0.360815
443.919	-0.621104
445.686	0.400031
447.451	0.95861
449.218	1.07065
450.982	0.300226
452.746	0.459825
454.512	0.462385
456.275	2.27626
458.038	2.95476
459.803	3.54182
461.565	3.15125
463.327	3.86818
465.091	4.07214
466.852	3.1297
468.613	2.96321
470.374	2.50038
472.136	3.05818
473.896	4.76642
475.655	6.84696
477.415	7.7278
479.176	9.98467
480.934	13.3212
482.692	16.0158
484.45	18.7714
486.21	21.7972
487.967	24.4215
489.724	26.6164
491.481	29.5665
493.237	33.1389
494.995	37.0336
496.75	41.346
498.506	44.4259
500.26	48.1754
502.015	51.5675
503.771	54.4409
505.525	57.0025
507.279	60.3489
509.032	63.713
510.785	66.4224
512.537	68.4076
514.289	70.2313
516.041	70.9138
517.793	71.434
519.546	73.699
521.297	74.4916
523.047	75.3877
524.797	74.231
526.547	74.4148
528.297	73.204
530.046	72.2229
531.795	71.3873
533.543	68.992
535.291	65.0326
537.039	61.2584
538.787	58.2001
540.534	56.276
542.281	52.91
544.027	49.2957
545.773	44.5901
547.519	40.8921
549.264	37.3812
551.01	33.3515
552.754	28.9122
554.499	24.6761
556.243	22.6184
557.987	20.8504
559.73	19.988
561.474	18.4709
563.216	16.3352
564.959	14.7604
566.701	14.2438
568.441	13.2596
570.182	11.4743
571.923	12.3485
573.664	11.2609
575.405	10.9706
577.145	11.2119
578.885	10.9689
580.624	10.8198
582.361	9.73489
584.1	10.641
585.839	11.4254
587.577	11.3467
589.315	11.8692
591.052	11.1546
592.787	11.5536
594.524	11.8811
596.26	11.5331
597.997	13.1391
599.732	13.8391
601.466	13.9896
603.201	14.3461
604.936	14.5829
606.67	14.6996
608.403	13.8853
610.136	13.1052
611.87	13.1294
613.603	13.3902
615.334	12.4303
617.067	11.2251
618.799	10.8823
620.529	8.88544
622.26	8.09653
623.991	7.96053
625.72	8.36035
627.451	8.00527
629.181	8.08456
630.909	7.65416
632.638	8.09499
634.368	8.1958
636.095	7.75919
637.823	7.74973
639.551	7.08702
641.277	7.04475
643.005	7.39187
644.73	8.7347
646.457	9.17546
648.184	9.62323
649.908	9.56852
651.634	10.898
653.357	11.5735
655.083	12.3146
656.806	13.5786
658.53	15.587
660.253	15.205
661.977	16.5978
663.7	16.1102
665.422	15.1046
667.145	17.1774
668.865	18.7487
670.588	20.679
672.308	21.6594
674.027	21.2362
675.749	22.6269
677.468	23.4898
679.188	24.2055
680.907	24.1602
682.627	24.2587
684.345	24.0583
686.064	23.6788
687.781	22.8738
689.498	23.6576
691.216	23.7008
692.932	25.0623
694.65	25.1898
696.366	26.3839
698.081	27.5028
699.797	27.1526
701.512	26.7888
703.228	27.5743
704.942	28.0421
706.655	27.376
708.371	27.8428
710.083	27.6091
711.796	28.742
713.51	28.9284
715.222	29.5034
716.934	28.8897
718.645	29.3498
720.358	28.8353
722.068	28.137
723.779	27.5017
725.49	26.6435
727.2	27.3821
728.909	28.7948
730.618	31.234
732.329	32.4882
734.037	36.2013
735.745	39.6512
737.453	45.3668
739.16	51.034
740.869	55.9839
742.576	61.3572
744.282	67.9549
745.988	73.8459
747.694	80.2126
749.401	86.6784
751.107	94.1478
752.811	101.7
754.516	106.347
756.22	110.594
757.924	115.354
759.627	119.894
761.332	124.441
763.035	129.046
764.738	132.118
766.44	135.132
768.142	138.414
769.843	141.235
771.544	144.791
773.245	146.29
774.946	147.99
776.646	147.444
778.346	147.678
780.046	145.986
781.745	145.941
783.444	143.33
785.143	141.724
786.841	138.649
788.539	135.243
790.237	131.246
791.934	126.977
793.631	123.576
795.328	118.306
797.024	114.129
798.72	107.939
800.416	102.356
802.112	95.4037
803.807	90.412
805.502	84.6895
807.196	78.7167
808.89	74.0463
810.584	70.2534
812.278	68.0308
813.971	66.1393
815.664	64.4764
817.354	62.7186
819.047	63.1569
820.739	61.7537
822.43	61.2675
824.122	60.9128
825.813	61.4766
827.503	61.7972
829.192	61.7761
830.882	61.5934
832.571	60.7347
834.261	60.7368
835.95	59.4387
837.637	58.5744
839.325	57.8467
841.013	57.4907
842.701	55.0962
844.389	55.732
846.074	54.5205
847.761	53.9601
849.447	51.4314
851.131	49.2671
852.817	48.0713
854.503	47.2626
856.188	46.7098
857.871	45.606
859.556	44.1759
861.24	43.8876
862.922	43.2084
864.606	42.2394
866.289	41.8773
867.97	41.3536
869.653	40.9066
871.336	40.096
873.016	39.808
874.698	39.2817
876.379	38.4546
878.058	39.2822
879.739	37.1123
881.418	35.9007
883.098	35.2501
884.778	34.0136
886.456	33.2583
888.135	33.5976
889.812	31.9726
891.49	31.8044
893.167	31.6712
894.845	30.8633
896.523	31.5364
898.198	31.2245
899.875	30.888
901.55	30.9435
903.226	30.5414
904.901	28.8424
906.576	29.0139
908.25	29.0067
909.925	28.9884
911.598	26.8857
913.271	26.0177
914.945	25.7848
916.617	25.4913
918.291	24.6087
919.962	23.5878
921.635	24.1306
923.306	23.2551
924.978	21.5279
926.648	21.0503
928.318	20.8874
929.989	18.2346
931.659	16.4798
933.328	14.9494
934.998	15.5962
936.666	16.3449
938.336	16.4859
940.004	15.9336
941.671	15.1177
943.34	14.217
945.007	13.2503
946.673	11.9203
948.339	11.7876
950.007	12.1012
951.672	12.5589
953.337	12.2385
955.004	12.4773
956.669	11.8286
958.333	10.7455
959.997	10.1285
961.662	8.59543
963.326	6.53154
964.989	6.58192
966.651	5.75056
968.315	5.23945
969.977	6.02282
971.639	6.03285
973.301	5.19399
974.962	6.45063
976.624	5.66977
978.285	4.79617
979.945	4.52426
981.605	2.87472
983.264	2.52331
984.924	2.66109
986.583	2.50683
988.243	3.23862
989.901	4.78072
991.56	6.61404
993.217	8.4107
994.875	11.0126
996.532	14.4873
998.188	19.1293
999.845	23.872
1001.5	28.6844
1003.16	34.0113
1004.81	38.8785
1006.47	42.3097
1008.12	47.5636
1009.78	53.1028
1011.43	56.5876
1013.09	61.0668
1014.74	66.5492
1016.39	70.9585
1018.05	74.3227
1019.7	76.8358
1021.35	79.9206
1023	82.0187
1024.65	83.9015
1026.31	85.9677
1027.96	88.4493
1029.61	90.0274
1031.26	90.7915
1032.91	91.7023
1034.56	90.713
1036.21	89.3954
1037.86	87.188
1039.51	84.4882
1041.16	80.8717
1042.8	78.1563
1044.45	75.3733
1046.1	73.0451
1047.75	68.0117
1049.39	63.3433
1051.04	60.4838
1052.69	56.2073
1054.33	53.0258
1055.98	51.0723
1057.62	49.526
1059.27	47.0051
1060.91	44.9664
1062.56	44.4139
1064.2	43.6529
1065.85	42.7953
1067.49	42.9459
1069.13	42.294
1070.77	43.3624
1072.42	43.7744
1074.06	45.1391
1075.7	45.7121
1077.34	47.7297
1078.98	49.2058
1080.62	50.7575
1082.27	52.3443
1083.91	53.2875
1085.55	53.2265
1087.18	54.2141
1088.82	55.0732
1090.46	55.12
1092.1	53.1507
1093.74	52.5013
1095.38	51.9017
1097.02	51.7746
1098.65	50.276
1100.29	48.4826
1101.93	47.5066
1103.56	45.1538
1105.2	42.8994
1106.84	41.4305
1108.47	40.049
1110.11	37.2512
1111.74	34.7048
1113.38	32.6352
1115.01	30.0483
1116.64	26.536
1118.28	23.164
1119.91	20.0738
1121.54	16.5959
1123.18	14.3247
1124.81	13.3328
1126.44	11.3642
1128.07	9.95963
1129.7	7.80324
1131.33	7.47648
1132.97	8.51615
1134.6	9.48312
1136.23	10.8249
1137.86	10.561
1139.49	11.0652
1141.11	10.8734
1142.74	11.3179
1144.37	11.3708
1146	11.3077
1147.63	10.1668
1149.26	10.3691
1150.88	9.59343
1152.51	9.59721
1154.14	8.74073
1155.76	8.57417
1157.39	8.36157
1159.01	8.67552
1160.64	8.41716
1162.27	8.10178
1163.89	8.76158
1165.51	7.45569
1167.14	6.88578
1168.76	7.1751
1170.39	5.60014
1172.01	4.38117
1173.63	3.94163
1175.25	6.09678
1176.88	7.18567
1178.5	6.99097
1180.12	6.46409
1181.74	5.28045
1183.36	4.84109
1184.98	5.42403
1186.6	6.78808
1188.22	6.96223
1189.84	6.33754
1191.46	6.3587
1193.08	6.90028
1194.7	7.18831
1196.32	6.37671
1197.94	6.22825
1199.55	5.55103
1201.17	7.07578
1202.79	7.44108
1204.41	8.24464
1206.02	9.23617
1207.64	9.13197
1209.25	9.33766
1210.87	9.86532
1212.48	10.8745
1214.1	13.092
1215.71	14.6506
1217.33	14.2024
1218.94	14.9803
1220.56	16.5535
1222.17	17.911
1223.79	20.4054
1225.4	22.1034
1227.01	23.4493
1228.62	24.0784
1230.23	25.9529
1231.85	27.3706
1233.46	29.5509
1235.07	31.5444
1236.68	33.6489
1238.29	35.0422
1239.9	36.7369
1241.51	37.9893
1243.12	38.8181
1244.73	39.1072
1246.34	39.1219
1247.94	39.3385
1249.55	39.8985
1251.16	40.7946
1252.77	41.4024
1254.37	42.4703
1255.98	45.6188
1257.59	46.4849
1259.2	45.8439
1260.8	46.1322
1262.41	47.5632
1264.01	47.4471
1265.62	48.2536
1267.22	47.8664
1268.83	48.4423
1270.43	48.194
1272.03	49.5668
1273.64	49.7182
1275.24	50.5604
1276.85	50.1317
1278.45	50.7093
1280.05	50.6325
1281.65	52.8885
1283.25	52.2403
1284.85	52.2812
1286.46	53.9867
1288.06	53.347
1289.66	53.8483
1291.26	55.0984
1292.86	55.4607
1294.46	55.4532
1296.06	54.8471
1297.66	53.7712
1299.25	56.1467
1300.85	56.9126
1302.45	58.3752
1304.05	58.4857
1305.65	58.6176
1307.24	58.0759
1308.84	58.7417
1310.43	59.8535
1312.03	60.0813
1313.63	60.5144
1315.22	60.3797
1316.82	60.2594
1318.41	59.5662
1320.01	58.9893
1321.6	58.5898
1323.2	59.1474
1324.79	58.4388
1326.38	57.8662
1327.98	57.6434
1329.57	57.805
1331.16	58.0846
1332.76	57.534
1334.35	57.9057
1335.94	58.9267
1337.53	57.5234
1339.12	56.7079
1340.71	56.3787
1342.3	56.4012
1343.89	54.5735
1345.48	53.2421
1347.07	53.7236
1348.66	53.7812
1350.25	52.5033
1351.84	53.0042
1353.43	52.4588
1355.01	52.3968
1356.6	51.1656
1358.19	50.3676
1359.77	50.0417
1361.36	49.8624
1362.95	48.056
1364.53	47.8569
1366.12	47.4171
1367.71	45.9038
1369.29	45.4979
1370.88	45.2838
1372.46	43.492
1374.04	42.317
1375.63	41.5224
1377.21	41.5993
1378.8	40.7905
1380.38	39.3198
1381.96	38.4978
1383.54	37.5545
1385.13	36.835
1386.71	36.4716
1388.29	36.3232
1389.87	34.1935
1391.45	31.6383
1393.03	31.2435
1394.61	29.8634
1396.19	28.384
1397.77	26.7532
1399.35	25.7544
1400.93	25.9032
1402.51	25.7851
1404.09	25.4634
1405.67	26.2412
1407.24	27.0183
1408.82	28.0988
1410.4	30.1477
1411.98	32.8157
1413.55	35.7509
1415.13	38.1616
1416.71	40.217
1418.28	43.7066
1419.86	46.6996
1421.43	49.2851
1423.01	53.1075
1424.58	57.238
1426.16	62.2376
1427.73	65.1336
1429.31	70.0598
1430.88	74.7834
1432.45	78.1463
1434.02	80.4442
1435.6	82.9842
1437.17	86.6924
1438.74	88.8059
1440.31	90.5306
1441.88	92.5893
1443.45	94.0049
1445.03	95.4471
1446.6	97.1372
1448.17	98.8763
1449.74	98.9346
1451.3	99.0345
1452.87	100.144
1454.44	100.37
1456.01	99.7453
1457.58	99.294
1459.15	99.5822
1460.72	99.8955
1462.28	100.255
1463.85	99.412
1465.42	98.2688
1466.98	96.7712
1468.55	94.7143
1470.12	92.8294
1471.68	91.0726
1473.25	88.4637
1474.81	86.165
1476.38	84.0684
1477.94	83.3211
1479.51	82.1262
1481.07	81.3307
1482.63	81.1887
1484.2	80.2115
1485.76	78.5538
1487.32	77.5651
1488.88	76.4109
1490.45	74.6302
1492.01	72.4998
1493.57	69.8162
1495.13	68.5999
1496.69	66.4286
1498.25	63.6711
1499.81	62.858
1501.37	62.1321
1502.93	60.0212
1504.49	57.3819
1506.05	54.7391
1507.61	53.5874
1509.17	50.5792
1510.73	46.9175
1512.28	43.431
1513.84	41.5397
1515.4	39.4546
1516.96	36.5789
1518.51	34.5802
1520.07	32.7631
1521.63	30.9353
1523.18	30.8423
1524.74	29.7193
1526.29	28.8442
1527.85	27.2598
1529.4	27.4207
1530.96	27.6531
1532.51	27.436
1534.06	27.2989
1535.62	28.6088
1537.17	29.4282
1538.72	30.6711
1540.28	31.1236
1541.83	31.5837
1543.38	31.2688
1544.93	32.4277
1546.48	32.3421
1548.03	32.6805
1549.59	33.4051
1551.14	33.356
1552.69	32.9894
1554.24	33.9213
1555.79	35.4878
1557.34	37.3036
1558.88	38.1065
1560.43	39.4707
1561.98	40.7937
1563.53	40.9546
1565.08	42.0436
1566.62	42.7596
1568.17	44.0005
1569.72	46.4175
1571.27	48.1467
1572.81	50.1642
1574.36	51.1889
1575.9	53.2346
1577.45	56.1009
1579	57.3197
1580.54	58.7744
1582.09	60.0095
1583.63	62.0492
1585.17	63.5651
1586.72	64.1192
1588.26	65.2942
1589.8	67.4832
1591.35	69.3133
1592.89	70.3721
1594.43	71.4173
1595.97	72.6594
1597.52	73.7919
1599.06	74.7422
1600.6	76.2035
1602.14	75.3691
1603.68	76.3469
1605.22	76.7809
1606.76	77.3508
1608.3	78.0649
1609.84	78.2917
1611.38	78.8865
1612.92	79.9781
1614.46	79.903
1615.99	79.8703
1617.53	79.9632
1619.07	79.5643
1620.61	79.7947
1622.14	81.2311
1623.68	80.0796
1625.22	79.4132
1626.75	77.9952
1628.29	76.4594
1629.82	76.4912
1631.36	76.768
1632.9	77.4827
1634.43	78.5357
1635.96	78.009
1637.5	79.9325
1639.03	81.2296
1640.57	81.8928
1642.1	82.145
1643.63	82.8187
1645.16	84.1035
1646.7	84.7168
1648.23	84.186
1649.76	84.0593
1651.29	83.3799
1652.82	83.7663
1654.36	83.671
1655.89	83.5253
1657.42	82.8202
1658.95	82.3538
1660.48	81.2154
1662.01	79.3174
1663.53	78.2894
1665.06	77.9008
1666.59	76.4493
1668.12	74.3828
1669.65	73.5651
1671.18	71.6956
1672.7	70.0045
1674.23	67.8143
1675.76	65.646
1677.29	64.2311
1678.81	62.4148
1680.34	61.5538
1681.86	60.0382
1683.39	57.8965
1684.91	56.3035
1686.44	53.8239
1687.96	51.4962
1689.49	48.7643
1691.01	46.3736
1692.54	43.8036
1694.06	42.0081
1695.58	40.1865
1697.11	37.3262
1698.63	34.561
1700.15	31.0967
1701.67	28.303
1703.2	25.9123
1704.72	24.4239
1706.24	24.096
1707.76	23.3785
1709.28	22.4869
1710.8	21.7664
1712.32	19.4682
1713.84	18.4644
1715.36	16.6067
1716.88	15.2008
1718.4	12.7048
1719.91	11.8243
1721.43	11.8448
1722.95	11.5291
1724.47	10.4822
1725.99	9.51591
1727.5	9.56184
1729.02	9.41953
1730.54	8.97466
1732.05	8.98717
1733.57	8.21155
1735.09	7.3966
1736.6	5.95618
1738.12	5.54439
1739.63	5.18273
1741.15	5.37502
1742.66	5.25996
1744.18	4.97122
1745.69	4.57208
1747.2	3.55202
1748.72	3.69068
1750.23	3.93283
1751.74	4.28873
1753.25	4.74493
1754.77	4.27264
1756.28	4.00626
1757.79	4.17597
1759.3	3.55611
1760.81	3.20369
1762.32	2.48177
1763.83	2.49055
1765.34	1.51716
1766.85	1.16511
1768.36	0.601047
1769.87	0.702646
1771.38	0.526064
1772.89	-0.2781
1774.4	0.631013
1775.91	0.690002
1777.41	1.57645
1778.92	2.81872
1780.43	3.96704
1781.94	3.97146
1783.44	3.99616
1784.95	3.49992
1786.45	4.0893
1787.96	4.58899
1789.47	5.53176
1790.97	5.62801
1792.48	6.53314
1793.98	7.02098
1795.48	7.71041
1796.99	8.56009
1798.49	7.75054
1800	7.5586
1801.5	7.7158
1803	8.74696
1804.51	8.43078
1806.01	8.20737
1807.51	8.5224
1809.01	8.06943
1810.51	7.63505
1812.02	7.27903
1813.52	7.82278
1815.02	7.48392
1816.52	7.65164
1818.02	7.87625
1819.52	7.78388
1821.02	8.13628
1822.52	8.2788
1824.02	8.69071
1825.51	8.86395
1827.01	8.19804
1828.51	8.13996
1830.01	7.80195
1831.51	8.08806
1833	7.92186
1834.5	7.7599
1836	7.46642
1837.5	7.66825
1838.99	7.86548
1840.49	7.1857
1841.98	7.55159
1843.48	8.14319
1844.97	8.6195
1846.47	9.24556
1847.96	8.88736
1849.46	9.59074
1850.95	10.0404
1852.45	9.42293
1853.94	8.94305
1855.43	8.33219
1856.92	7.67492
1858.42	8.53707
1859.91	8.95642
1861.4	9.55868
1862.89	8.96303
1864.39	7.83769
1865.88	6.81731
1867.37	7.02047
1868.86	7.05798
1870.35	6.05012
1871.84	6.18435
1873.33	6.54114
1874.82	6.92675
1876.31	7.10788
1877.8	7.67889
1879.29	7.99698
1880.77	7.66084
1882.26	7.79533
1882.51	8.39187
1884	8.45894
1885.5	8.2658
1886.99	8.60458
1888.48	8.58871
1889.98	9.58459
1891.47	10.1396
1892.97	10.262
1894.46	10.7766
1895.95	10.3693
1897.44	10.5678
1898.93	10.4788
1900.42	11.1182
1901.92	11.4215
1903.41	11.0153
1904.9	11.7118
1906.39	12.2048
1907.88	12.1365
1909.37	12.668
1910.86	13.4848
1912.35	13.6105
1913.84	12.8894
1915.32	13.5635
1916.81	14.0819
1918.3	13.5341
1919.79	12.4498
1921.28	11.2976
1922.76	11.6527
1924.25	9.9604
1925.74	9.07411
1927.22	9.88581
1928.71	9.0102
1930.2	9.30756
1931.68	8.79335
1933.17	7.89327
1934.65	6.58793
1936.14	5.46134
1937.62	5.42392
1939.11	5.61547
1940.59	5.27609
1942.08	5.73465
1943.56	4.98453
1945.04	5.0688
1946.53	5.24973
1948.01	5.18408
1949.49	5.79018
1950.97	5.1898
1952.45	4.99023
1953.94	4.44166
1955.42	5.06311
1956.9	5.8517
1958.38	5.17609
1959.86	4.89142
1961.34	5.8023
1962.82	6.32368
1964.3	7.56261
1965.78	7.57957
1967.26	7.43582
1968.74	8.30392
1970.22	7.47909
1971.69	8.56047
1973.17	8.5101
1974.65	8.64166
1976.13	8.60802
1977.61	9.60032
1979.08	10.5065
1980.56	11.1451
1982.03	11.0013
1983.51	12.0413
1984.99	12.3737
1986.46	12.0584
1987.94	11.8973
1989.41	12.7336
1990.89	13.0555
1992.36	12.6997
1993.84	12.5573
1995.31	12.9851
1996.78	12.814
1998.26	12.4736
1999.73	13.2931
2001.2	13.5165
2002.68	13.3009
2004.15	14.1646
2005.62	14.0661
2007.09	14.0506
2008.56	14.3833
2010.04	13.8758
2011.51	14.1111
2012.98	14.2646
2014.45	14.0679
2015.92	14.9415
2017.39	14.6708
2018.86	15.2843
2020.33	15.7415
2021.8	15.5387
2023.27	15.0624
2024.74	14.7072
2026.2	15.134
2027.67	15.0939
2029.14	15.4224
2030.61	15.1541
2032.07	15.5881
2033.54	16.6075
2035.01	17.2729
2036.47	18.0878
2037.94	19.4126
2039.41	19.1536
2040.87	19.6898
2042.34	20.4749
2043.8	20.5713
2045.27	21.3616
2046.73	21.3219
2048.2	21.9943
2049.66	22.0648
2051.12	22.5491
2052.59	22.1071
2054.05	23.0545
2055.51	23.3965
2056.98	23.7529
2058.44	24.3919
2059.9	24.6963
2061.36	25.3384
2062.82	26.0676
2064.29	25.9122
2065.75	25.7971
2067.21	26.1133
2068.67	27.8219
2070.13	29.302
2071.59	29.8954
2073.05	30.7954
2074.51	31.4407
2075.97	32.274
2077.43	33.1665
2078.88	33.7896
2080.34	33.8178
2081.8	35.2609
2083.26	36.1067
2084.72	38.1078
2086.17	39.4294
2087.63	40.401
2089.09	41.8012
2090.54	42.5225
2092	43.405
2093.46	44.5366
2094.91	46.781
2096.37	48.7625
2097.82	50.8348
2099.28	53.3963
2100.73	55.589
2102.19	58.0796
2103.64	60.2816
2105.09	62.3198
2106.55	63.85
2108	65.1868
2109.46	67.5375
2110.91	69.4167
2112.36	71.3787
2113.81	72.5016
2115.27	74.3153
2116.72	75.4636
2118.17	76.7314
2119.62	77.9709
2121.07	78.5556
2122.52	80.3007
2123.97	82.6345
2125.42	84.8404
2126.87	87.8086
2128.32	88.892
2129.77	90.6636
2131.22	93.3049
2132.67	94.4161
2134.12	97.7164
