#Acq. time (s)=	45
#Accumulations=	2
#Range (cm-¹)=	200...3150
#Windows=	2
#Auto scanning=	Off
#Autofocus=	Off
#Macrospot=	Off
#AutoExposure=	Off
#Spike filter=	Multiple accum.
#Delay time (s)=	0
#Binning=	1
#Readout mode=	Signal
#DeNoise=	Off
#ICS correction=	On
#Dark correction=	Off
#Inst. Process=	Off
#Detector Gain=	Best Dynamic Range
#Detector ADC=	20 kHz       
#Detector temperature (°C)=	-69.85
#Instrument=	LabRAM HR Evol
#Detector=	Synapse
#Objective=	x100
#Grating=	600 gr/mm
#ND Filter=	100%
#Laser (nm)=	532 
#Hole=	100.021
#Range=	Auto
#Laser Pol.=	No
#Raman. Pol.=	No
#Laser Pol. (°)=	-0.0007625
#Raman Pol. (°)=	89.9995
#Collection=	Microscope
#StageXY=	Marzhauser
#StageZ=	Marzhauser
#X (µm)=	19303.1
#Y (µm)=	3083.9
#Z (µm)=	1046.85
#Full time(mm:ss)=	3:18
#Project=	
#Sample=	
#Site=	
#Title=	Mb_50_18_12_2x_45s_532 nm_x100_100%_600 gr_mm
#Remark=	
#Date=	12.07.2022 11:09
#Acquired=	12.07.2022 11:09:06
#Base:Fit=	10.08.2022 10:49:18
#Base:Sub=	10.08.2022 10:49:30
#Filter:Polynom=	16.08.2022 10:14:59
#AxisType[0]=Intens
#AxisUnit[0]=Cnt
#AxisType[1]=Spectr
#AxisUnit[1]=1/cm
200.388	1.33321
202.204	6.43643
204.019	8.02678
205.832	10.2857
207.646	11.6697
209.459	12.6486
211.274	13.8732
213.087	14.8814
214.899	14.5359
216.711	14.8753
218.524	14.1417
220.335	13.6082
222.146	13.4914
223.956	13.3218
225.766	12.9792
227.576	12.846
229.388	12.3713
231.197	13.1251
233.005	13.2151
234.813	11.89
236.621	11.3768
238.429	10.6537
240.236	9.80072
242.045	10.1067
243.852	8.70955
245.658	8.24953
247.464	7.48897
249.269	6.50836
251.074	5.03768
252.879	4.8847
254.683	4.48672
256.487	6.09456
258.291	5.71926
260.094	4.63965
261.897	4.48262
263.702	4.67623
265.504	3.98984
267.306	3.91394
269.108	3.34187
270.909	3.31763
272.71	3.29995
274.511	3.72498
276.311	3.4538
278.111	4.26151
279.91	4.89641
281.709	4.76749
283.508	4.98821
285.306	5.19383
287.105	4.19348
288.9	5.31233
290.698	5.93489
292.495	6.27256
294.291	7.27183
296.088	6.36814
297.884	7.38936
299.679	8.22086
301.475	9.50768
303.27	8.94044
305.064	9.21829
306.858	10.8371
308.652	11.3556
310.444	12.3244
312.237	13.1768
314.03	14.4702
315.822	14.9709
317.615	15.9654
319.406	16.3285
321.198	16.9163
322.987	16.3406
324.778	15.8577
326.568	15.7707
328.358	14.9578
330.148	14.6307
331.935	14.5891
333.724	13.5937
335.513	13.9758
337.301	14.3159
339.089	13.8468
340.875	13.2024
342.662	13.3118
344.449	12.7204
346.236	12.3766
348.02	12.3966
349.806	12.9937
351.592	13.6091
353.375	14.3765
355.16	14.2893
356.944	15.2445
358.728	15.4074
360.51	16.6975
362.294	18.5584
364.077	18.9811
365.858	18.2059
367.64	19.5848
369.422	20.4456
371.202	20.9924
372.983	21.0804
374.764	21.3066
376.543	21.5778
378.324	22.3523
380.102	22.3767
381.881	23.0491
383.661	22.7645
385.438	22.7766
387.216	23.8416
388.993	23.4629
390.771	23.2646
392.548	23.333
394.324	24.1673
396.101	24.6427
397.875	23.655
399.651	23.1896
401.425	23.8377
403.201	23.2185
404.974	22.4242
406.749	21.9016
408.524	19.5448
410.296	18.5685
412.07	16.5179
413.841	15.1828
415.614	13.0456
417.385	11.4535
419.156	11.1643
420.928	9.88812
422.698	8.51284
424.469	6.76431
426.238	5.7825
428.009	4.53133
429.777	4.10524
431.548	4.58036
433.315	4.03722
435.083	4.53507
436.852	5.2726
438.618	4.07807
440.387	4.01245
442.153	3.38043
443.919	3.54857
445.686	4.47298
447.451	4.89969
449.218	5.0147
450.982	4.86994
452.746	2.97988
454.512	3.3119
456.275	4.73188
458.038	5.05587
459.803	4.54621
461.565	4.61007
463.327	5.72813
465.091	7.33723
466.852	8.62307
468.613	9.42509
470.374	9.84911
472.136	10.0767
473.896	11.015
475.655	13.3873
477.415	14.0345
479.176	15.986
480.934	18.6783
482.692	20.5281
484.45	22.5053
486.21	23.8338
487.967	26.9568
489.724	29.1641
491.481	30.2252
493.237	32.1529
494.995	33.1067
496.75	34.6144
498.506	36.3459
500.26	36.9394
502.015	39.1946
503.771	40.7208
505.525	42.7232
507.279	44.238
509.032	44.7524
510.785	44.9749
512.537	45.7098
514.289	46.5645
516.041	47.0214
517.793	46.5815
519.546	47.4321
521.297	46.6601
523.047	46.4249
524.797	45.2517
526.547	43.9895
528.297	42.6338
530.046	41.0616
531.795	39.9037
533.543	37.6501
535.291	36.0016
537.039	33.9371
538.787	32.5736
540.534	30.1788
542.281	29.0076
544.027	26.8494
545.773	24.3364
547.519	21.5839
549.264	20.4784
551.01	18.4342
552.754	16.6397
554.499	13.9359
556.243	10.6755
557.987	8.26542
559.73	7.02088
561.474	6.33709
563.216	5.21472
564.959	3.9019
566.701	4.03798
568.441	3.39677
570.182	2.45624
571.923	2.30811
573.664	2.09136
575.405	1.69537
577.145	1.26766
578.885	0.52331
580.624	0.371352
582.361	1.54273
584.1	3.1628
585.839	2.42987
587.577	3.18127
589.315	3.96985
591.052	4.34299
592.787	4.68384
594.524	4.89636
596.26	5.40173
597.997	6.77496
599.732	7.94998
601.466	8.44077
603.201	8.6436
604.936	8.77521
606.67	10.5091
608.403	9.72768
610.136	9.20558
611.87	10.3817
613.603	11.0607
615.334	11.3698
617.067	12.3068
618.799	13.0953
620.529	13.6104
622.26	13.9836
623.991	13.3429
625.72	12.4578
627.451	11.9589
629.181	12.0562
630.909	11.5297
632.638	11.8535
634.368	11.7337
636.095	11.3657
637.823	10.7823
639.551	11.4845
641.277	12.0512
643.005	12.0007
644.73	11.5004
646.457	12.7704
648.184	13.3007
649.908	13.0787
651.634	13.3456
653.357	12.666
655.083	12.29
656.806	12.8756
658.53	13.7084
660.253	14.1956
661.977	14.9413
663.7	16.2369
665.422	16.6025
667.145	17.8426
668.865	18.4837
670.588	18.2007
672.308	16.8924
674.027	18.1315
675.749	19.1536
677.468	20.8242
679.188	21.7374
680.907	22.9747
682.627	24.1813
684.345	25.1885
686.064	25.0194
687.781	25.8969
689.498	26.9551
691.216	28.5873
692.932	30.3344
694.65	31.0807
696.366	32.1112
698.081	33.4283
699.797	33.938
701.512	34.4462
703.228	34.6553
704.942	34.9037
706.655	35.0162
708.371	35.2755
710.083	36.3097
711.796	37.1258
713.51	38.5434
715.222	39.2435
716.934	40.5411
718.645	41.6533
720.358	41.5501
722.068	42.1949
723.779	42.3723
725.49	42.7957
727.2	43.1423
728.909	42.5696
730.618	43.094
732.329	44.5609
734.037	44.8285
735.745	45.826
737.453	47.5162
739.16	49.6814
740.869	52.4278
742.576	55.7606
744.282	57.8143
745.988	60.2076
747.694	62.4047
749.401	64.6742
751.107	67.584
752.811	69.9137
754.516	72.552
756.22	76.2914
757.924	79.2335
759.627	82.9634
761.332	85.5006
763.035	87.6565
764.738	90.2042
766.44	92.2036
768.142	94.2745
769.843	96.3432
771.544	98.7196
773.245	99.7435
774.946	100.74
776.646	101.513
778.346	100.473
780.046	100.228
781.745	100.052
783.444	100.234
785.143	100.992
786.841	100.93
788.539	100.959
790.237	100.899
791.934	100.053
793.631	100.001
795.328	98.196
797.024	96.2442
798.72	95.2952
800.416	92.9162
802.112	91.1095
803.807	89.24
805.502	87.3679
807.196	86.5587
808.89	85.2179
810.584	84.388
812.278	82.8618
813.971	81.8219
815.664	80.5073
817.354	79.7963
819.047	79.0934
820.739	78.6407
822.43	78.6059
824.122	77.2136
825.813	77.0176
827.503	76.7748
829.192	75.3774
830.882	75.7519
832.571	76.093
834.261	76.8724
835.95	77.2685
837.637	76.0998
839.325	75.9737
841.013	74.8885
842.701	74.6058
844.389	73.102
846.074	72.1836
847.761	70.7936
849.447	69.9219
851.131	68.5562
852.817	68.1648
854.503	66.8935
856.188	65.8052
857.871	64.2951
859.556	63.4932
861.24	61.9927
862.922	59.9836
864.606	60.7795
866.289	60.2167
867.97	59.6658
869.653	58.328
871.336	57.8177
873.016	57.026
874.698	56.0794
876.379	55.2384
878.058	55.2613
879.739	53.8879
881.418	54.3074
883.098	54.0712
884.778	52.8443
886.456	53.6278
888.135	53.9404
889.812	53.6145
891.49	53.7442
893.167	53.1229
894.845	52.7987
896.523	51.5205
898.198	51.1807
899.875	50.4458
901.55	50.6625
903.226	50.4967
904.901	50.2841
906.576	50.4113
908.25	49.3588
909.925	50.1001
911.598	49.6169
913.271	48.7496
914.945	48.1989
916.617	47.1913
918.291	46.6685
919.962	45.9874
921.635	45.1457
923.306	44.7852
924.978	44.0741
926.648	44.1436
928.318	42.6862
929.989	42.2816
931.659	41.1016
933.328	40.7491
934.998	40.6278
936.666	40.5522
938.336	40.6016
940.004	41.0263
941.671	40.7887
943.34	39.4583
945.007	38.8903
946.673	39.0576
948.339	39.9416
950.007	40.1827
951.672	40.8639
953.337	41.4254
955.004	41.6928
956.669	40.9768
958.333	40.3285
959.997	39.796
961.662	39.3311
963.326	39.4549
964.989	39.4361
966.651	39.0606
968.315	38.3043
969.977	38.6087
971.639	38.7425
973.301	39.3592
974.962	39.8163
976.624	39.8184
978.285	39.2762
979.945	38.2429
981.605	38.8522
983.264	38.2876
984.924	36.4746
986.583	35.2878
988.243	33.7509
989.901	31.8012
991.56	31.873
993.217	33.0189
994.875	33.2732
996.532	34.3618
998.188	35.271
999.845	36.9565
1001.5	39.6873
1003.16	41.5339
1004.81	42.721
1006.47	44.3889
1008.12	46.2602
1009.78	48.3241
1011.43	50.1445
1013.09	51.9811
1014.74	54.7419
1016.39	57.6778
1018.05	60.3845
1019.7	61.8989
1021.35	63.619
1023	64.5751
1024.65	65.58
1026.31	66.4424
1027.96	68.1113
1029.61	69.6839
1031.26	70.3918
1032.91	70.9293
1034.56	70.7417
1036.21	68.5656
1037.86	66.5754
1039.51	66.0721
1041.16	64.9262
1042.8	64.4921
1044.45	63.3679
1046.1	62.9351
1047.75	61.0284
1049.39	59.7493
1051.04	58.2274
1052.69	57.6412
1054.33	56.4956
1055.98	54.438
1057.62	51.892
1059.27	49.6848
1060.91	47.8426
1062.56	46.1641
1064.2	44.4353
1065.85	42.851
1067.49	40.921
1069.13	40.2826
1070.77	40.032
1072.42	41.7849
1074.06	43.8183
1075.7	45.4327
1077.34	45.6925
1078.98	46.5647
1080.62	46.533
1082.27	47.1806
1083.91	47.709
1085.55	47.0237
1087.18	46.8771
1088.82	46.8845
1090.46	47.1509
1092.1	47.124
1093.74	47.6941
1095.38	47.8974
1097.02	47.717
1098.65	46.5619
1100.29	44.579
1101.93	42.794
1103.56	41.6151
1105.2	41.2144
1106.84	40.159
1108.47	38.8461
1110.11	37.4316
1111.74	35.88
1113.38	33.4368
1115.01	31.238
1116.64	29.0236
1118.28	26.5341
1119.91	26.0804
1121.54	25.5817
1123.18	23.9019
1124.81	23.1466
1126.44	21.8425
1128.07	21.5845
1129.7	20.1212
1131.33	19.0027
1132.97	17.4932
1134.6	16.9201
1136.23	15.8183
1137.86	14.215
1139.49	13.8679
1141.11	13.7159
1142.74	12.9676
1144.37	12.381
1146	11.919
1147.63	11.3187
1149.26	10.9981
1150.88	11.1156
1152.51	11.5312
1154.14	11.7584
1155.76	10.5349
1157.39	9.69224
1159.01	7.7656
1160.64	6.65421
1162.27	5.46841
1163.89	5.3376
1165.51	4.94217
1167.14	5.11305
1168.76	5.71226
1170.39	6.02149
1172.01	6.31391
1173.63	6.01968
1175.25	6.44032
1176.88	5.62776
1178.5	4.50026
1180.12	4.18433
1181.74	4.38079
1183.36	5.14786
1184.98	4.9859
1186.6	5.70709
1188.22	5.26802
1189.84	5.65172
1191.46	5.54656
1193.08	6.11276
1194.7	7.2223
1196.32	8.33722
1197.94	9.70224
1199.55	10.4782
1201.17	11.6687
1202.79	12.5184
1204.41	13.395
1206.02	14.2889
1207.64	14.89
1209.25	15.5675
1210.87	15.8695
1212.48	16.4185
1214.1	18.2989
1215.71	20.1324
1217.33	21.8335
1218.94	23.1501
1220.56	24.1924
1222.17	25.9373
1223.79	27.2016
1225.4	28.0108
1227.01	29.3699
1228.62	30.5169
1230.23	31.7165
1231.85	31.832
1233.46	33.2046
1235.07	34.3447
1236.68	35.353
1238.29	36.7518
1239.9	38.0866
1241.51	40.3951
1243.12	42.6317
1244.73	44.1966
1246.34	45.3324
1247.94	45.63
1249.55	46.4117
1251.16	47.326
1252.77	48.291
1254.37	49.3167
1255.98	49.4581
1257.59	50.2262
1259.2	50.9601
1260.8	52.5751
1262.41	53.8507
1264.01	54.9379
1265.62	54.2533
1267.22	55.0992
1268.83	55.7604
1270.43	56.9585
1272.03	58.6749
1273.64	60.5456
1275.24	61.1012
1276.85	61.5647
1278.45	62.4633
1280.05	63.3305
1281.65	64.4937
1283.25	65.7094
1284.85	66.1811
1286.46	65.6377
1288.06	66.8664
1289.66	67.6157
1291.26	68.4653
1292.86	68.7441
1294.46	70.2586
1296.06	69.8498
1297.66	69.7928
1299.25	68.3453
1300.85	67.756
1302.45	68.3378
1304.05	67.7599
1305.65	67.0832
1307.24	66.4419
1308.84	65.7656
1310.43	64.7265
1312.03	64.5615
1313.63	64.344
1315.22	63.385
1316.82	63.1418
1318.41	62.8041
1320.01	62.2105
1321.6	61.9647
1323.2	61.0192
1324.79	59.477
1326.38	58.0315
1327.98	57.5256
1329.57	56.9252
1331.16	56.2856
1332.76	55.1681
1334.35	53.2146
1335.94	51.8735
1337.53	51.7531
1339.12	50.2997
1340.71	48.6941
1342.3	47.6371
1343.89	46.241
1345.48	44.1138
1347.07	43.5877
1348.66	43.1317
1350.25	43.1697
1351.84	42.1325
1353.43	41.2067
1355.01	40.3404
1356.6	39.2054
1358.19	37.8782
1359.77	36.6062
1361.36	35.19
1362.95	34.6926
1364.53	32.4841
1366.12	31.1755
1367.71	30.607
1369.29	29.0581
1370.88	27.3939
1372.46	25.6954
1374.04	24.7843
1375.63	22.8578
1377.21	22.0669
1378.8	21.0687
1380.38	19.6046
1381.96	19.1437
1383.54	18.1441
1385.13	16.9817
1386.71	16.114
1388.29	16.7303
1389.87	16.7393
1391.45	17.3494
1393.03	17.4288
1394.61	17.1537
1396.19	18.1443
1397.77	18.0215
1399.35	18.3196
1400.93	18.5445
1402.51	19.1557
1404.09	18.6537
1405.67	19.2296
1407.24	20.3309
1408.82	20.8274
1410.4	23.1029
1411.98	24.6996
1413.55	25.7988
1415.13	28.0704
1416.71	30.2185
1418.28	32.1983
1419.86	35.1102
1421.43	38.1593
1423.01	40.8368
1424.58	42.5081
1426.16	45.6438
1427.73	48.6732
1429.31	51.6599
1430.88	54.1211
1432.45	56.59
1434.02	58.8548
1435.6	60.2616
1437.17	61.7804
1438.74	63.4216
1440.31	64.9029
1441.88	65.9186
1443.45	66.0291
1445.03	66.5388
1446.6	66.8151
1448.17	66.7454
1449.74	65.3811
1451.3	66.0932
1452.87	65.9304
1454.44	65.2945
1456.01	65.3483
1457.58	65.2228
1459.15	63.7795
1460.72	63.4318
1462.28	61.2988
1463.85	60.2594
1465.42	59.6445
1466.98	58.0928
1468.55	56.171
1470.12	53.9153
1471.68	51.8818
1473.25	49.9184
1474.81	48.4987
1476.38	45.1794
1477.94	43.349
1479.51	41.5928
1481.07	39.2869
1482.63	37.2338
1484.2	36.2272
1485.76	34.6088
1487.32	34.2739
1488.88	33.1908
1490.45	32.0823
1492.01	30.7167
1493.57	28.8763
1495.13	27.8641
1496.69	27.2137
1498.25	26.2123
1499.81	25.6221
1501.37	24.4712
1502.93	23.688
1504.49	23.6653
1506.05	22.1891
1507.61	21.7359
1509.17	20.6866
1510.73	18.9908
1512.28	17.7434
1513.84	16.4292
1515.4	14.9666
1516.96	14.0741
1518.51	12.8573
1520.07	12.5674
1521.63	12.3989
1523.18	11.3272
1524.74	10.9389
1526.29	10.6701
1527.85	10.2123
1529.4	11.1891
1530.96	10.974
1532.51	11.4099
1534.06	12.3339
1535.62	12.3563
1537.17	11.4576
1538.72	12.7792
1540.28	13.3109
1541.83	14.8604
1543.38	15.5304
1544.93	16.1486
1546.48	17.5342
1548.03	18.4509
1549.59	19.332
1551.14	19.5817
1552.69	20.1039
1554.24	21.096
1555.79	22.3433
1557.34	22.8416
1558.88	24.0356
1560.43	24.463
1561.98	25.5424
1563.53	26.3594
1565.08	27.8822
1566.62	28.3352
1568.17	29.225
1569.72	29.7212
1571.27	29.6025
1572.81	31.6899
1574.36	33.0369
1575.9	34.0864
1577.45	35.7879
1579	36.4517
1580.54	37.8555
1582.09	39.1429
1583.63	39.6281
1585.17	40.7148
1586.72	41.333
1588.26	41.9091
1589.8	42.8548
1591.35	43.5202
1592.89	43.6025
1594.43	44.6724
1595.97	45.59
1597.52	46.0259
1599.06	46.0107
1600.6	45.6615
1602.14	46.2561
1603.68	46.3304
1605.22	46.3448
1606.76	45.9922
1608.3	45.7304
1609.84	45.9317
1611.38	45.6579
1612.92	45.812
1614.46	46.807
1615.99	47.2618
1617.53	47.0195
1619.07	47.9622
1620.61	49.2375
1622.14	50.1866
1623.68	51.2234
1625.22	52.0411
1626.75	52.683
1628.29	53.7267
1629.82	55.3918
1631.36	56.4546
1632.9	57.8161
1634.43	59.486
1635.96	61.506
1637.5	62.553
1639.03	64.7941
1640.57	66.7255
1642.1	69.5796
1643.63	70.8576
1645.16	72.6718
1646.7	75.0737
1648.23	77.0364
1649.76	79.7985
1651.29	81.3636
1652.82	82.8796
1654.36	83.9108
1655.89	84.9398
1657.42	85.278
1658.95	85.8139
1660.48	85.1549
1662.01	84.5536
1663.53	83.6653
1665.06	81.9052
1666.59	80.066
1668.12	78.3236
1669.65	76.7834
1671.18	74.9017
1672.7	72.2282
1674.23	69.561
1675.76	67.2582
1677.29	63.9326
1678.81	61.2117
1680.34	57.845
1681.86	54.3617
1683.39	51.149
1684.91	48.9625
1686.44	46.9234
1687.96	44.7758
1689.49	42.2696
1691.01	39.7338
1692.54	36.7988
1694.06	35.4091
1695.58	34.3067
1697.11	32.3564
1698.63	30.133
1700.15	28.4181
1701.67	26.8049
1703.2	24.3312
1704.72	21.9795
1706.24	20.9334
1707.76	20.7081
1709.28	21.1902
1710.8	20.3812
1712.32	20.9625
1713.84	21.2538
1715.36	21.7872
1716.88	22.4227
1718.4	22.4956
1719.91	22.0099
1721.43	22.7032
1722.95	23.1579
1724.47	22.5142
1725.99	21.7886
1727.5	21.0011
1729.02	20.4419
1730.54	19.6843
1732.05	19.0161
1733.57	17.8389
1735.09	17.4837
1736.6	16.2754
1738.12	15.3828
1739.63	14.2527
1741.15	13.7204
1742.66	13.3565
1744.18	13.0609
1745.69	12.7322
1747.2	12.3061
1748.72	11.8004
1750.23	10.9075
1751.74	9.97266
1753.25	9.41008
1754.77	8.94358
1756.28	8.28459
1757.79	7.58417
1759.3	7.6656
1760.81	7.37036
1762.32	6.57762
1763.83	5.89541
1765.34	4.99541
1766.85	4.73976
1768.36	3.98085
1769.87	3.48501
1771.38	2.62091
1772.89	1.67567
1774.4	1.23369
1775.91	0.819635
1777.41	0.21357
1778.92	-0.307927
1780.43	0.168563
1781.94	1.7462
1783.44	2.98143
1784.95	3.17752
1786.45	3.49466
1787.96	4.67435
1789.47	4.88354
1790.97	4.59083
1792.48	4.39425
1793.98	4.32476
1795.48	4.54787
1796.99	4.42482
1798.49	4.21203
1800	3.49143
1801.5	3.7755
1803	3.93409
1804.51	3.98486
1806.01	4.11008
1807.51	4.62144
1809.01	5.41481
1810.51	5.75399
1812.02	6.02202
1813.52	6.69212
1815.02	7.03649
1816.52	7.5826
1818.02	8.03321
1819.52	8.26455
1821.02	8.36155
1822.52	7.98894
1824.02	7.70484
1825.51	7.37227
1827.01	7.27573
1828.51	7.3414
1830.01	6.81248
1831.51	6.30628
1833	5.9069
1834.5	5.55458
1836	5.35695
1837.5	4.81253
1838.99	4.73573
1840.49	4.50604
1841.98	4.30544
1843.48	3.92643
1844.97	3.78831
1846.47	3.62938
1847.96	3.18042
1849.46	2.70487
1850.95	2.13031
1852.45	2.18702
1853.94	2.45695
1855.43	2.23711
1856.92	3.01491
1858.42	3.51826
1859.91	3.17176
1861.4	2.98016
1862.89	3.13438
1864.39	2.85686
1865.88	2.45973
1867.37	2.80562
1868.86	3.04848
1870.35	3.90982
1871.84	4.04525
1873.33	4.42576
1874.82	5.10009
1876.31	5.52518
1877.8	5.58228
1879.29	5.59462
1880.77	6.61603
1882.26	6.94392
1882.51	6.95408
1884	6.84339
1885.5	7.4035
1886.99	7.22084
1888.48	7.58527
1889.98	7.56252
1891.47	7.38617
1892.97	6.89218
1894.46	6.49484
1895.95	5.97565
1897.44	5.72901
1898.93	5.27338
1900.42	4.69678
1901.92	4.41129
1903.41	3.9803
1904.9	3.79866
1906.39	3.82653
1907.88	3.55738
1909.37	3.77709
1910.86	3.79249
1912.35	3.40175
1913.84	4.05276
1915.32	4.29575
1916.81	3.6669
1918.3	3.34274
1919.79	3.56479
1921.28	3.49837
1922.76	3.25154
1924.25	3.49792
1925.74	4.57528
1927.22	4.42053
1928.71	4.56463
1930.2	5.29246
1931.68	4.83867
1933.17	4.80718
1934.65	5.4222
1936.14	6.35974
1937.62	6.70829
1939.11	6.91642
1940.59	8.09018
1942.08	9.10348
1943.56	9.38672
1945.04	8.64488
1946.53	8.80297
1948.01	9.23357
1949.49	9.1189
1950.97	9.41709
1952.45	9.31153
1953.94	10.1852
1955.42	9.60233
1956.9	9.46295
1958.38	9.25778
1959.86	9.24417
1961.34	9.03169
1962.82	9.71539
1964.3	9.18298
1965.78	8.62148
1967.26	8.22112
1968.74	8.12502
1970.22	7.53485
1971.69	7.12345
1973.17	7.11985
1974.65	6.94216
1976.13	7.07158
1977.61	6.74102
1979.08	7.02162
1980.56	6.93898
1982.03	7.09577
1983.51	6.92574
1984.99	6.62364
1986.46	6.44201
1987.94	6.90149
1989.41	6.29598
1990.89	6.36154
1992.36	6.55489
1993.84	6.63045
1995.31	6.48868
1996.78	6.6769
1998.26	7.53949
1999.73	7.76211
2001.2	7.48939
2002.68	7.88876
2004.15	7.92868
2005.62	7.38751
2007.09	7.96366
2008.56	8.53135
2010.04	8.31188
2011.51	8.378
2012.98	8.86144
2014.45	10.1167
2015.92	9.96339
2017.39	9.99872
2018.86	10.5287
2020.33	10.9673
2021.8	11.228
2023.27	11.013
2024.74	11.2969
2026.2	11.7874
2027.67	11.8384
2029.14	12.1538
2030.61	12.5203
2032.07	12.6046
2033.54	13.2709
2035.01	13.5362
2036.47	13.6956
2037.94	13.5381
2039.41	13.4783
2040.87	13.4627
2042.34	13.6731
2043.8	13.5698
2045.27	14.2815
2046.73	15.2143
2048.2	15.3855
2049.66	15.7588
2051.12	16.2364
2052.59	16.9471
2054.05	17.4006
2055.51	18.0442
2056.98	18.0814
2058.44	18.5095
2059.9	19.0403
2061.36	19.4296
2062.82	20.0477
2064.29	20.9822
2065.75	20.4687
2067.21	20.7789
2068.67	21.8564
2070.13	22.8062
2071.59	23.5078
2073.05	23.5205
2074.51	24.1742
2075.97	25.1181
2077.43	25.4482
2078.88	26.0816
2080.34	26.8151
2081.8	28.0534
2083.26	28.9464
2084.72	30.0962
2086.17	31.5931
2087.63	32.3861
2089.09	33.0264
2090.54	34.308
2092	35.3084
2093.46	35.9083
2094.91	36.9345
2096.37	38.3243
2097.82	40.2956
2099.28	41.4961
2100.73	42.0432
2102.19	43.6924
2103.64	44.1577
2105.09	45.2654
2106.55	47.2877
2108	48.7121
2109.46	49.9889
2110.91	51.9469
2112.36	53.8088
2113.81	55.3453
2115.27	57.2433
2116.72	59.6959
2118.17	62.4723
2119.62	64.3359
2121.07	66.0154
2122.52	68.4927
2123.97	71.1979
2125.42	74.1734
2126.87	76.22
2128.32	77.5917
2129.77	79.4361
2131.22	81.7545
2132.67	84.7054
2134.12	87.4032
2135.57	90.0694
