#Acq. time (s)=	45
#Accumulations=	2
#Range (cm-¹)=	200...3150
#Windows=	2
#Auto scanning=	Off
#Autofocus=	Off
#Macrospot=	Off
#AutoExposure=	Off
#Spike filter=	Multiple accum.
#Delay time (s)=	0
#Binning=	1
#Readout mode=	Signal
#DeNoise=	Off
#ICS correction=	On
#Dark correction=	Off
#Inst. Process=	Off
#Detector Gain=	Best Dynamic Range
#Detector ADC=	20 kHz       
#Detector temperature (°C)=	-69.85
#Instrument=	LabRAM HR Evol
#Detector=	Synapse
#Objective=	x100
#Grating=	600 gr/mm
#ND Filter=	100%
#Laser (nm)=	532 
#Hole=	100.021
#Range=	Auto
#Laser Pol.=	No
#Raman. Pol.=	No
#Laser Pol. (°)=	-0.0007625
#Raman Pol. (°)=	89.9995
#Collection=	Microscope
#StageXY=	Marzhauser
#StageZ=	Marzhauser
#X (µm)=	19279.6
#Y (µm)=	3038
#Z (µm)=	1047.7
#Full time(mm:ss)=	3:19
#Project=	
#Sample=	
#Site=	
#Title=	Mb_50_18_17_2x_45s_532 nm_x100_100%_600 gr_mm
#Remark=	
#Date=	12.07.2022 11:28
#Acquired=	12.07.2022 11:28:48
#Base:Fit=	10.08.2022 10:49:18
#Base:Sub=	10.08.2022 10:49:30
#Filter:Polynom=	16.08.2022 10:14:59
#AxisType[0]=Intens
#AxisUnit[0]=Cnt
#AxisType[1]=Spectr
#AxisUnit[1]=1/cm
200.388	19.8399
202.204	18.1568
204.019	15.9555
205.832	13.6524
207.646	12.3967
209.459	11.2346
211.274	10.4386
213.087	9.69915
214.899	9.25097
216.711	8.51053
218.524	7.7388
220.335	6.82619
222.146	6.14961
223.956	4.96403
225.766	4.38783
227.576	3.78069
229.388	3.38841
231.197	3.2313
233.005	3.19263
234.813	3.06606
236.621	3.86247
238.429	4.67427
240.236	4.95997
242.045	6.08374
243.852	6.52675
245.658	6.89506
247.464	6.47544
249.269	6.18011
251.074	6.31347
252.879	6.36448
254.683	6.98782
256.487	7.8554
258.291	9.16121
260.094	9.50197
261.897	10.2996
263.702	9.17132
265.504	9.04138
267.306	9.25478
269.108	8.63699
270.909	7.9105
272.71	7.6187
274.511	8.08766
276.311	7.67224
278.111	7.77116
279.91	7.47606
281.709	6.72241
283.508	7.05211
285.306	8.12376
287.105	8.71229
288.9	9.09672
290.698	8.31933
292.495	9.04048
294.291	10.3106
296.088	11.0922
297.884	10.694
299.679	11.0003
301.475	11.5355
303.27	11.5997
305.064	12.1297
306.858	11.8761
308.652	12.408
310.444	13.1552
312.237	14.342
314.03	15.0549
315.822	15.9362
317.615	16.9459
319.406	18.609
321.198	19.7804
322.987	21.0013
324.778	21.5
326.568	22.4299
328.358	22.0603
330.148	21.2001
331.935	21.1237
333.724	19.2434
335.513	17.957
337.301	16.8962
339.089	17.4034
340.875	17.3224
342.662	16.6773
344.449	16.9205
346.236	16.4706
348.02	15.9914
349.806	15.6392
351.592	15.3651
353.375	15.2033
355.16	14.9876
356.944	14.5995
358.728	14.6683
360.51	15.9918
362.294	17.4697
364.077	18.7516
365.858	19.7202
367.64	20.5427
369.422	21.7672
371.202	22.746
372.983	24.1369
374.764	25.3927
376.543	26.1845
378.324	27.6579
380.102	28.7828
381.881	29.8402
383.661	30.6026
385.438	30.6943
387.216	31.416
388.993	32.6601
390.771	33.4734
392.548	34.2323
394.324	35.4482
396.101	36.0772
397.875	36.4949
399.651	36.3276
401.425	36.4261
403.201	35.4278
404.974	34.2923
406.749	34.1957
408.524	32.9834
410.296	30.7759
412.07	29.2
413.841	27.5687
415.614	25.8843
417.385	24.5991
419.156	23.6671
420.928	21.2312
422.698	18.8198
424.469	18.0198
426.238	16.7627
428.009	15.0889
429.777	13.7367
431.548	12.8558
433.315	11.8267
435.083	9.78598
436.852	9.29031
438.618	9.52767
440.387	9.28669
442.153	8.90342
443.919	8.21681
445.686	8.29307
447.451	9.42237
449.218	10.5598
450.982	10.4322
452.746	10.9668
454.512	10.912
456.275	11.4353
458.038	11.2534
459.803	11.2611
461.565	12.1067
463.327	12.593
465.091	12.018
466.852	13.0541
468.613	13.8077
470.374	14.2544
472.136	15.9402
473.896	17.1111
475.655	18.3422
477.415	19.4069
479.176	20.8218
480.934	22.2952
482.692	23.4578
484.45	24.758
486.21	25.6024
487.967	26.6934
489.724	28.0063
491.481	29.0107
493.237	30.9616
494.995	32.9099
496.75	34.1832
498.506	36.3088
500.26	37.9115
502.015	39.2131
503.771	40.2664
505.525	40.6986
507.279	40.6175
509.032	40.9596
510.785	42.4974
512.537	43.5153
514.289	43.2072
516.041	43.4795
517.793	44.1631
519.546	43.3768
521.297	42.7565
523.047	43.1969
524.797	43.1056
526.547	42.8274
528.297	41.864
530.046	41.0057
531.795	39.975
533.543	38.4121
535.291	36.1274
537.039	33.912
538.787	31.2275
540.534	29.6761
542.281	26.7028
544.027	25.2302
545.773	22.9566
547.519	21.9564
549.264	19.7855
551.01	17.7018
552.754	16.1455
554.499	15.2351
556.243	14.1904
557.987	12.6663
559.73	12.2485
561.474	11.6911
563.216	10.8082
564.959	10.9203
566.701	10.8977
568.441	9.98288
570.182	9.84008
571.923	9.69432
573.664	9.28374
575.405	8.96591
577.145	9.62446
578.885	9.8467
580.624	9.1326
582.361	7.6904
584.1	7.63683
585.839	7.27773
587.577	6.87261
589.315	7.3517
591.052	7.76376
592.787	8.13415
594.524	9.65868
596.26	10.6955
597.997	11.0765
599.732	10.9756
601.466	10.8909
603.201	11.1338
604.936	11.0034
606.67	11.0237
608.403	11.0278
610.136	11.2721
611.87	11.8738
613.603	11.9269
615.334	11.8513
617.067	10.66
618.799	10.045
620.529	8.78099
622.26	8.31053
623.991	7.99506
625.72	8.28389
627.451	7.72439
629.181	6.75309
630.909	6.68872
632.638	6.1102
634.368	6.11828
636.095	5.47223
637.823	5.77062
639.551	5.70995
641.277	5.20856
643.005	6.25521
644.73	5.34026
646.457	5.61107
648.184	5.5084
649.908	5.56722
651.634	5.73175
653.357	5.48381
655.083	5.1906
656.806	5.6476
658.53	5.59483
660.253	5.56384
661.977	5.3131
663.7	5.40098
665.422	4.16443
667.145	3.63529
668.865	4.84801
670.588	5.95381
672.308	6.57054
674.027	8.62563
675.749	9.33598
677.468	10.2885
679.188	12.5491
680.907	14.1025
682.627	15.5923
684.345	16.1962
686.064	16.7703
687.781	17.5296
689.498	18.0752
691.216	19.9234
692.932	21.1269
694.65	22.3248
696.366	23.5666
698.081	24.1435
699.797	24.8506
701.512	25.777
703.228	26.6775
704.942	28.7036
706.655	29.4881
708.371	29.5249
710.083	30.3298
711.796	31.6161
713.51	30.954
715.222	31.5073
716.934	33.1608
718.645	34.5073
720.358	34.9067
722.068	34.4984
723.779	34.6472
725.49	33.9766
727.2	33.7532
728.909	34.4684
730.618	34.5099
732.329	36.6286
734.037	38.1589
735.745	41.041
737.453	42.9849
739.16	45.5451
740.869	48.2689
742.576	51.3583
744.282	53.6357
745.988	57.0543
747.694	60.2836
749.401	64.1018
751.107	67.7544
752.811	71.5414
754.516	75.1588
756.22	78.0728
757.924	81.7744
759.627	84.7532
761.332	85.8113
763.035	88.5916
764.738	91.8118
766.44	93.5327
768.142	95.7785
769.843	97.2221
771.544	98.8964
773.245	100.222
774.946	101.035
776.646	102.81
778.346	103.631
780.046	104.157
781.745	103.404
783.444	103.752
785.143	105.203
786.841	104.554
788.539	104.547
790.237	103.913
791.934	102.205
793.631	100.105
795.328	99.0047
797.024	97.5316
798.72	94.7788
800.416	92.8555
802.112	90.9183
803.807	88.4309
805.502	85.1966
807.196	82.0849
808.89	80.1556
810.584	78.0792
812.278	76.8492
813.971	76.4534
815.664	75.7478
817.354	75.2437
819.047	75.7439
820.739	75.8871
822.43	75.6798
824.122	74.5983
825.813	74.9071
827.503	75.0083
829.192	74.3618
830.882	73.8936
832.571	74.1073
834.261	73.9152
835.95	72.5837
837.637	70.823
839.325	71.0685
841.013	70.2409
842.701	69.0669
844.389	67.3217
846.074	66.6339
847.761	66.7491
849.447	66.537
851.131	64.885
852.817	63.4354
854.503	62.4395
856.188	60.097
857.871	58.7446
859.556	58.2246
861.24	58.2833
862.922	57.4417
864.606	55.75
866.289	55.0903
867.97	55.1195
869.653	53.9377
871.336	51.9419
873.016	51.1155
874.698	50.1058
876.379	48.5693
878.058	48.3084
879.739	47.3782
881.418	47.1179
883.098	46.6229
884.778	46.0065
886.456	46.1814
888.135	45.9846
889.812	45.6008
891.49	44.8938
893.167	45.4154
894.845	44.8067
896.523	44.9063
898.198	45.3838
899.875	45.6744
901.55	45.645
903.226	45.4708
904.901	44.7619
906.576	45.4069
908.25	44.6723
909.925	45.5343
911.598	45.7492
913.271	45.6779
914.945	46.311
916.617	46.7277
918.291	46.6605
919.962	46.5531
921.635	47.2167
923.306	47.7064
924.978	46.6779
926.648	46.0713
928.318	45.155
929.989	44.697
931.659	43.6361
933.328	41.8488
934.998	41.1725
936.666	40.7852
938.336	40.5399
940.004	39.325
941.671	39.8272
943.34	40.6159
945.007	39.7059
946.673	38.1958
948.339	37.6569
950.007	38.1595
951.672	38.4164
953.337	38.1077
955.004	38.3463
956.669	38.6193
958.333	38.7696
959.997	38.5026
961.662	38.6167
963.326	37.9808
964.989	38.1363
966.651	38.2288
968.315	37.7654
969.977	37.4261
971.639	36.7289
973.301	36.4715
974.962	35.5903
976.624	35.0547
978.285	34.4009
979.945	33.5686
981.605	33.0756
983.264	32.9803
984.924	31.0852
986.583	30.7304
988.243	30.617
989.901	31.2217
991.56	30.5213
993.217	31.5301
994.875	33.3366
996.532	33.6383
998.188	34.6192
999.845	35.9101
1001.5	38.3057
1003.16	40.3982
1004.81	42.9762
1006.47	44.6445
1008.12	46.8362
1009.78	48.4366
1011.43	50.2151
1013.09	51.0951
1014.74	53.5541
1016.39	55.7329
1018.05	58.0588
1019.7	59.4442
1021.35	61.8223
1023	64.7226
1024.65	66.8008
1026.31	68.1717
1027.96	68.9137
1029.61	71.2063
1031.26	73.8698
1032.91	74.25
1034.56	74.1831
1036.21	73.6904
1037.86	73.5628
1039.51	73.324
1041.16	72.6992
1042.8	71.4906
1044.45	71.0308
1046.1	69.844
1047.75	67.9534
1049.39	66.7378
1051.04	64.6143
1052.69	62.8406
1054.33	62.356
1055.98	61.4544
1057.62	60.393
1059.27	59.1767
1060.91	57.3211
1062.56	55.6288
1064.2	54.4232
1065.85	53.1167
1067.49	51.9518
1069.13	52.1975
1070.77	52.3926
1072.42	53.0134
1074.06	53.1061
1075.7	54.5956
1077.34	54.6767
1078.98	54.646
1080.62	55.375
1082.27	54.8431
1083.91	55.1785
1085.55	56.4147
1087.18	56.7864
1088.82	55.8206
1090.46	55.7752
1092.1	54.7795
1093.74	54.8208
1095.38	55.2197
1097.02	56.6578
1098.65	56.5349
1100.29	56.356
1101.93	56.1785
1103.56	56.5825
1105.2	55.7787
1106.84	55.1055
1108.47	54.4543
1110.11	54.1826
1111.74	53.5661
1113.38	50.1018
1115.01	46.7896
1116.64	45.6722
1118.28	43.3748
1119.91	41.107
1121.54	39.0817
1123.18	37.1222
1124.81	35.2371
1126.44	33.8711
1128.07	31.602
1129.7	30.0186
1131.33	29.0973
1132.97	28.1893
1134.6	27.0041
1136.23	25.6693
1137.86	24.6441
1139.49	23.6771
1141.11	22.3558
1142.74	20.5904
1144.37	19.632
1146	19.1364
1147.63	18.6924
1149.26	17.0346
1150.88	15.3918
1152.51	13.2198
1154.14	11.9969
1155.76	10.2743
1157.39	8.99647
1159.01	8.16851
1160.64	6.59262
1162.27	5.02126
1163.89	4.96879
1165.51	6.01027
1167.14	6.7041
1168.76	5.24771
1170.39	5.23481
1172.01	4.68523
1173.63	4.80323
1175.25	5.88575
1176.88	6.82861
1178.5	7.47708
1180.12	7.24498
1181.74	7.27695
1183.36	7.44155
1184.98	8.09442
1186.6	7.67122
1188.22	7.58967
1189.84	7.54052
1191.46	7.06449
1193.08	6.93993
1194.7	6.34416
1196.32	5.91737
1197.94	6.26825
1199.55	6.5965
1201.17	8.09233
1202.79	9.0565
1204.41	10.176
1206.02	10.5936
1207.64	10.7491
1209.25	11.5616
1210.87	12.5941
1212.48	13.9063
1214.1	14.8703
1215.71	15.7208
1217.33	18.2597
1218.94	20.0677
1220.56	20.9448
1222.17	21.8305
1223.79	22.4817
1225.4	23.5484
1227.01	24.6807
1228.62	25.0573
1230.23	24.8887
1231.85	26.163
1233.46	27.0201
1235.07	29.5898
1236.68	31.1939
1238.29	33.8002
1239.9	34.8223
1241.51	35.2331
1243.12	36.7262
1244.73	38.8839
1246.34	38.5281
1247.94	39.7183
1249.55	39.5121
1251.16	40.9104
1252.77	40.7197
1254.37	43.3803
1255.98	45.009
1257.59	45.1624
1259.2	45.9062
1260.8	46.0742
1262.41	47.4257
1264.01	48.312
1265.62	49.4577
1267.22	50.1622
1268.83	52.6787
1270.43	55.2473
1272.03	56.451
1273.64	58.4284
1275.24	59.9429
1276.85	61.4532
1278.45	63.5725
1280.05	64.6336
1281.65	65.5738
1283.25	65.9666
1284.85	66.9669
1286.46	67.9537
1288.06	69.593
1289.66	71.222
1291.26	72.14
1292.86	73.3846
1294.46	74.1145
1296.06	75.52
1297.66	75.7536
1299.25	75.1046
1300.85	75.068
1302.45	75.0509
1304.05	74.532
1305.65	74.6822
1307.24	74.2884
1308.84	74.6783
1310.43	73.3017
1312.03	73.5279
1313.63	73.9797
1315.22	74.5717
1316.82	73.7147
1318.41	72.7787
1320.01	70.0573
1321.6	69.7263
1323.2	69.0599
1324.79	67.8106
1326.38	65.9018
1327.98	65.9914
1329.57	64.4936
1331.16	64.2052
1332.76	62.7604
1334.35	62.4085
1335.94	61.3177
1337.53	59.8647
1339.12	59.5554
1340.71	59.195
1342.3	58.2366
1343.89	57.0347
1345.48	56.4741
1347.07	55.0115
1348.66	54.8543
1350.25	52.4599
1351.84	50.6176
1353.43	48.9715
1355.01	47.0551
1356.6	44.9959
1358.19	41.9205
1359.77	40.4323
1361.36	39.6479
1362.95	38.7041
1364.53	37.7101
1366.12	36.5183
1367.71	35.1484
1369.29	33.5353
1370.88	32.0162
1372.46	30.7767
1374.04	29.2202
1375.63	27.7203
1377.21	25.5556
1378.8	24.993
1380.38	24.021
1381.96	22.9932
1383.54	22.1698
1385.13	22.0815
1386.71	20.9471
1388.29	19.9051
1389.87	18.5601
1391.45	16.2372
1393.03	14.0818
1394.61	14.5739
1396.19	14.6539
1397.77	15.5767
1399.35	16.5107
1400.93	17.6935
1402.51	18.8208
1404.09	20.0702
1405.67	22.2202
1407.24	25.7334
1408.82	27.5766
1410.4	30.2577
1411.98	32.5084
1413.55	36.2153
1415.13	39.3172
1416.71	42.0119
1418.28	44.5015
1419.86	48.0903
1421.43	50.3447
1423.01	53.638
1424.58	57.4468
1426.16	60.1884
1427.73	63.1759
1429.31	65.7494
1430.88	69.5135
1432.45	72.5745
1434.02	76.3912
1435.6	78.313
1437.17	80.7126
1438.74	83.159
1440.31	84.6029
1441.88	85.3774
1443.45	85.0547
1445.03	84.7289
1446.6	85.3055
1448.17	84.4955
1449.74	83.5253
1451.3	83.0933
1452.87	82.5306
1454.44	81.2677
1456.01	80.447
1457.58	79.188
1459.15	76.421
1460.72	73.8449
1462.28	71.0147
1463.85	68.1459
1465.42	64.8357
1466.98	61.4807
1468.55	57.8488
1470.12	53.9845
1471.68	52.8549
1473.25	52.2827
1474.81	49.8765
1476.38	46.8002
1477.94	44.4106
1479.51	41.5545
1481.07	40.0833
1482.63	37.9557
1484.2	35.8562
1485.76	34.3538
1487.32	31.9745
1488.88	30.0705
1490.45	28.4243
1492.01	26.7603
1493.57	25.4075
1495.13	23.8697
1496.69	21.6759
1498.25	20.829
1499.81	19.6119
1501.37	18.9933
1502.93	18.0396
1504.49	16.7229
1506.05	15.7593
1507.61	15.0312
1509.17	14.0794
1510.73	12.6402
1512.28	11.6285
1513.84	9.69323
1515.4	9.15637
1516.96	7.87003
1518.51	6.81963
1520.07	6.46948
1521.63	6.46646
1523.18	6.47369
1524.74	6.18409
1526.29	5.62198
1527.85	6.52053
1529.4	6.95134
1530.96	7.20265
1532.51	7.19558
1534.06	8.51414
1535.62	8.367
1537.17	8.46886
1538.72	9.27261
1540.28	10.4311
1541.83	11.9124
1543.38	12.734
1544.93	12.9336
1546.48	13.0061
1548.03	14.5555
1549.59	15.6564
1551.14	16.8287
1552.69	17.516
1554.24	18.145
1555.79	19.5606
1557.34	19.6504
1558.88	20.4584
1560.43	20.4901
1561.98	20.7189
1563.53	21.8922
1565.08	23.7476
1566.62	24.046
1568.17	25.6102
1569.72	27.2939
1571.27	29.1621
1572.81	29.9948
1574.36	31.6849
1575.9	33.0503
1577.45	33.995
1579	34.7624
1580.54	35.9575
1582.09	36.5146
1583.63	37.1917
1585.17	38.324
1586.72	39.0939
1588.26	39.9566
1589.8	41.3921
1591.35	41.8574
1592.89	42.3852
1594.43	43.4406
1595.97	44.3381
1597.52	45.6515
1599.06	45.2876
1600.6	45.3386
1602.14	45.1284
1603.68	45.0608
1605.22	44.3557
1606.76	43.9384
1608.3	43.8594
1609.84	43.3064
1611.38	44.3598
1612.92	43.8576
1614.46	44.014
1615.99	45.0019
1617.53	45.209
1619.07	44.8687
1620.61	44.4934
1622.14	44.8054
1623.68	45.8006
1625.22	46.6856
1626.75	47.6405
1628.29	47.7414
1629.82	47.9292
1631.36	49.2155
1632.9	49.4712
1634.43	49.7103
1635.96	51.3535
1637.5	52.8181
1639.03	54.9868
1640.57	57.5326
1642.1	59.4162
1643.63	60.9029
1645.16	62.2985
1646.7	63.5814
1648.23	64.5681
1649.76	65.5576
1651.29	65.9784
1652.82	65.7662
1654.36	66.5095
1655.89	66.8498
1657.42	67.4406
1658.95	66.525
1660.48	66.8904
1662.01	66.9705
1663.53	65.1251
1665.06	64.5027
1666.59	63.7615
1668.12	61.9187
1669.65	61.5095
1671.18	60.6696
1672.7	58.951
1674.23	56.494
1675.76	53.6929
1677.29	51.4692
1678.81	48.1785
1680.34	45.416
1681.86	43.1532
1683.39	41.3332
1684.91	39.4973
1686.44	37.1854
1687.96	34.8297
1689.49	32.1363
1691.01	29.9998
1692.54	28.2531
1694.06	26.6038
1695.58	24.5331
1697.11	23.7921
1698.63	22.3107
1700.15	21.233
1701.67	19.5905
1703.2	17.8215
1704.72	15.9312
1706.24	14.6352
1707.76	13.8792
1709.28	12.6431
1710.8	11.8266
1712.32	11.6789
1713.84	10.9242
1715.36	10.1463
1716.88	9.86983
1718.4	8.92631
1719.91	8.55372
1721.43	7.24108
1722.95	6.74687
1724.47	6.55651
1725.99	6.44232
1727.5	5.46728
1729.02	5.39328
1730.54	5.35831
1732.05	4.88711
1733.57	4.99961
1735.09	5.04776
1736.6	5.48746
1738.12	5.19396
1739.63	4.14398
1741.15	4.52957
1742.66	4.19808
1744.18	3.90189
1745.69	4.25747
1747.2	3.64978
1748.72	3.00131
1750.23	2.8161
1751.74	2.81684
1753.25	2.89224
1754.77	2.62736
1756.28	2.71636
1757.79	2.7838
1759.3	2.2483
1760.81	2.33714
1762.32	1.47661
1763.83	2.14768
1765.34	2.34309
1766.85	1.79218
1768.36	1.91368
1769.87	2.1187
1771.38	1.56796
1772.89	1.96195
1774.4	1.53515
1775.91	1.5484
1777.41	0.847234
1778.92	1.02234
1780.43	1.61096
1781.94	1.46603
1783.44	1.33453
1784.95	1.40219
1786.45	1.35319
1787.96	1.45371
1789.47	1.13848
1790.97	1.12729
1792.48	1.1312
1793.98	0.669159
1795.48	0.983237
1796.99	1.24057
1798.49	1.13816
1800	2.19805
1801.5	2.27501
1803	2.13535
1804.51	2.84059
1806.01	2.90193
1807.51	3.01503
1809.01	3.51075
1810.51	3.39201
1812.02	2.75482
1813.52	2.63239
1815.02	1.97943
1816.52	2.15025
1818.02	2.26168
1819.52	2.37259
1821.02	2.08608
1822.52	1.63504
1824.02	1.31771
1825.51	1.74382
1827.01	1.77239
1828.51	1.71774
1830.01	1.40845
1831.51	0.790189
1833	0.217356
1834.5	-0.209249
1836	-0.00848692
1837.5	-0.28038
1838.99	0.0135959
1840.49	-0.495437
1841.98	-0.454261
1843.48	-0.103552
1844.97	-0.0531779
1846.47	-0.112553
1847.96	0.0711408
1849.46	-0.159787
1850.95	0.0698755
1852.45	-0.0561984
1853.94	0.462995
1855.43	0.443009
1856.92	0.461219
1858.42	0.0755022
1859.91	0.822277
1861.4	1.75645
1862.89	1.65695
1864.39	1.93016
1865.88	2.40364
1867.37	2.36174
1868.86	2.4392
1870.35	3.01518
1871.84	3.53304
1873.33	3.44204
1874.82	4.92918
1876.31	5.40981
1877.8	5.93611
1879.29	5.82588
1880.77	5.54301
1882.26	6.30676
1882.51	6.15875
1884	5.77402
1885.5	5.75507
1886.99	5.67953
1888.48	5.41721
1889.98	5.73303
1891.47	6.26914
1892.97	5.77889
1894.46	5.45235
1895.95	5.64624
1897.44	5.76998
1898.93	5.94869
1900.42	4.87145
1901.92	4.42051
1903.41	3.98103
1904.9	3.65135
1906.39	3.90208
1907.88	3.85937
1909.37	4.31624
1910.86	4.45271
1912.35	4.8748
1913.84	4.90068
1915.32	4.32864
1916.81	4.43965
1918.3	4.42443
1919.79	4.00342
1921.28	4.00828
1922.76	4.39323
1924.25	4.54709
1925.74	4.29055
1927.22	4.95216
1928.71	4.89354
1930.2	4.49419
1931.68	4.28829
1933.17	4.55941
1934.65	4.21447
1936.14	3.60654
1937.62	4.16359
1939.11	4.49201
1940.59	4.36723
1942.08	4.31663
1943.56	5.16933
1945.04	5.60467
1946.53	6.1071
1948.01	7.00954
1949.49	6.11327
1950.97	5.37817
1952.45	4.87078
1953.94	5.24439
1955.42	6.01079
1956.9	5.67988
1958.38	5.69953
1959.86	6.16909
1961.34	6.46106
1962.82	6.62355
1964.3	7.29243
1965.78	7.59335
1967.26	7.50505
1968.74	8.2131
1970.22	8.69358
1971.69	8.49376
1973.17	8.67327
1974.65	8.44681
1976.13	9.48799
1977.61	9.93009
1979.08	10.3101
1980.56	11.0468
1982.03	11.61
1983.51	12.7958
1984.99	12.9224
1986.46	13.2082
1987.94	12.8431
1989.41	12.5253
1990.89	12.2381
1992.36	11.9723
1993.84	12.1412
1995.31	12.5922
1996.78	12.6402
1998.26	12.061
1999.73	11.7672
2001.2	11.2079
2002.68	10.3633
2004.15	10.0409
2005.62	9.56656
2007.09	9.19777
2008.56	9.27116
2010.04	9.17553
2011.51	8.88984
2012.98	8.31489
2014.45	7.65571
2015.92	7.14546
2017.39	7.30269
2018.86	7.31617
2020.33	7.41621
2021.8	7.16182
2023.27	6.75013
2024.74	6.61984
2026.2	7.1698
2027.67	7.41413
2029.14	7.89136
2030.61	7.19785
2032.07	7.34081
2033.54	7.42371
2035.01	7.78848
2036.47	8.47399
2037.94	9.48608
2039.41	10.0075
2040.87	10.9688
2042.34	10.7935
2043.8	11.252
2045.27	11.9249
2046.73	13.1704
2048.2	13.8906
2049.66	15.5511
2051.12	16.4902
2052.59	17.7429
2054.05	19.2231
2055.51	19.6893
2056.98	20.9409
2058.44	21.8836
2059.9	22.8064
2061.36	23.6395
2062.82	24.4139
2064.29	25.2014
2065.75	26.6123
2067.21	28.0483
2068.67	28.8683
2070.13	30.0555
2071.59	30.7612
2073.05	31.7746
2074.51	32.322
2075.97	33.6347
2077.43	35.3115
2078.88	36.3685
2080.34	38.8072
2081.8	40.1798
2083.26	41.0343
2084.72	42.1858
2086.17	43.342
2087.63	44.3412
2089.09	45.753
2090.54	47.6248
2092	50.0812
2093.46	51.111
2094.91	52.4356
2096.37	54.5229
2097.82	56.0047
2099.28	58.0698
2100.73	59.4648
2102.19	62.0635
2103.64	63.48
2105.09	66.5291
2106.55	68.5518
2108	70.909
2109.46	73.4513
2110.91	75.4283
2112.36	78.6502
2113.81	81.3454
2115.27	83.65
2116.72	86.6939
2118.17	89.2475
2119.62	92.0944
2121.07	94.3325
2122.52	98.2327
2123.97	100.948
2125.42	104.311
2126.87	106.73
2128.32	108.77
2129.77	111.888
2131.22	114.388
2132.67	116.329
2134.12	118.233
