#Acq. time (s)=	45
#Accumulations=	2
#Range (cm-¹)=	200...3150
#Windows=	2
#Auto scanning=	Off
#Autofocus=	Off
#Macrospot=	Off
#AutoExposure=	Off
#Spike filter=	Multiple accum.
#Delay time (s)=	0
#Binning=	1
#Readout mode=	Signal
#DeNoise=	Off
#ICS correction=	On
#Dark correction=	Off
#Inst. Process=	Off
#Detector Gain=	Best Dynamic Range
#Detector ADC=	20 kHz       
#Detector temperature (°C)=	-69.85
#Instrument=	LabRAM HR Evol
#Detector=	Synapse
#Objective=	x100
#Grating=	600 gr/mm
#ND Filter=	100%
#Laser (nm)=	532 
#Hole=	100.021
#Range=	Auto
#Laser Pol.=	No
#Raman. Pol.=	No
#Laser Pol. (°)=	-0.0007625
#Raman Pol. (°)=	89.9995
#Collection=	Microscope
#StageXY=	Marzhauser
#StageZ=	Marzhauser
#X (µm)=	28454.7
#Y (µm)=	-2968.7
#Z (µm)=	1043.55
#Full time(mm:ss)=	3:18
#Project=	
#Sample=	
#Site=	
#Title=	Mb_50_18_46_2x_45s_532 nm_x100_100%_600 gr_mm
#Remark=	
#Date=	12.07.2022 14:37
#Acquired=	12.07.2022 14:37:40
#Base:Fit=	10.08.2022 10:49:18
#Base:Sub=	10.08.2022 10:49:30
#Filter:Polynom=	16.08.2022 10:14:59
#AxisType[0]=Intens
#AxisUnit[0]=Cnt
#AxisType[1]=Spectr
#AxisUnit[1]=1/cm
200.388	48.398
202.204	45.733
204.019	44.221
205.832	43.1047
207.646	41.3765
209.459	40.4273
211.274	39.5248
213.087	37.3233
214.899	35.3377
216.711	34.1209
218.524	32.8213
220.335	32.0038
222.146	30.8776
223.956	29.8123
225.766	28.794
227.576	26.8639
229.388	25.5927
231.197	24.8981
233.005	22.3932
234.813	22.036
236.621	20.586
238.429	19.3609
240.236	18.7315
242.045	18.0083
243.852	16.6725
245.658	16.5744
247.464	15.817
249.269	14.9081
251.074	13.6088
252.879	14.0712
254.683	12.9035
256.487	11.8037
258.291	10.4558
260.094	10.1249
261.897	9.14352
263.702	8.7067
265.504	7.63496
267.306	7.42987
269.108	6.62599
270.909	5.54541
272.71	4.90372
274.511	3.72718
276.311	3.12054
278.111	4.40827
279.91	4.34655
281.709	3.39043
283.508	2.72319
285.306	2.58302
287.105	2.75528
288.9	2.44513
290.698	2.84917
292.495	3.74612
294.291	4.02209
296.088	4.52233
297.884	5.75006
299.679	4.30372
301.475	4.29526
303.27	4.0517
305.064	4.91002
306.858	5.09587
308.652	5.77956
310.444	5.75865
312.237	5.053
314.03	5.20505
315.822	4.84955
317.615	5.1657
319.406	5.06463
321.198	5.1726
322.987	4.5187
324.778	5.82832
326.568	6.13852
328.358	5.43114
330.148	5.56039
331.935	5.25153
333.724	5.22078
335.513	5.68638
337.301	5.89302
339.089	6.00934
340.875	6.00534
342.662	6.72892
344.449	5.87439
346.236	6.43658
348.02	7.9181
349.806	9.0623
351.592	9.9776
353.375	10.7442
355.16	12.2954
356.944	14.109
358.728	15.2773
360.51	17.2704
362.294	19.133
364.077	21.3682
365.858	24.6305
367.64	26.9864
369.422	28.6686
371.202	29.3297
372.983	32.6001
374.764	35.2368
376.543	36.1883
378.324	37.1407
380.102	38.014
381.881	39.2665
383.661	39.8683
385.438	40.1592
387.216	40.3562
388.993	40.0103
390.771	39.983
392.548	40.0003
394.324	38.1715
396.101	37.2496
397.875	35.9389
399.651	33.9548
401.425	32.1632
403.201	30.6803
404.974	28.9724
406.749	26.7725
408.524	24.5609
410.296	22.7061
412.07	20.8099
413.841	19.5762
415.614	17.3163
417.385	14.4672
419.156	13.5066
420.928	12.457
422.698	11.172
424.469	10.1828
426.238	9.45411
428.009	7.72574
429.777	5.38735
431.548	4.65183
433.315	3.92916
435.083	5.03632
436.852	5.13665
438.618	4.90326
440.387	5.1346
442.153	4.2598
443.919	4.84682
445.686	5.24454
447.451	5.63035
449.218	6.81789
450.982	7.13029
452.746	8.6677
454.512	9.27249
456.275	9.45509
458.038	9.58984
459.803	9.87321
461.565	11.4982
463.327	11.1137
465.091	10.8336
466.852	12.0102
468.613	11.97
470.374	13.4009
472.136	13.6287
473.896	15.1652
475.655	16.3467
477.415	17.7111
479.176	18.4342
480.934	19.5832
482.692	21.0696
484.45	23.0003
486.21	24.4828
487.967	27.038
489.724	29.692
491.481	33.253
493.237	35.2833
494.995	37.0832
496.75	40.1615
498.506	42.2906
500.26	45.6556
502.015	47.9498
503.771	49.1143
505.525	50.9094
507.279	52.0184
509.032	53.1116
510.785	54.255
512.537	55.6535
514.289	55.2544
516.041	55.2575
517.793	55.9473
519.546	56.8424
521.297	56.7547
523.047	56.9646
524.797	55.6753
526.547	54.0016
528.297	52.4097
530.046	50.8372
531.795	50.3904
533.543	48.5598
535.291	46.8011
537.039	44.9949
538.787	42.5501
540.534	39.709
542.281	35.8788
544.027	33.4255
545.773	30.4294
547.519	27.7816
549.264	25.1297
551.01	21.6215
552.754	19.4624
554.499	16.774
556.243	14.37
557.987	13.4381
559.73	11.7641
561.474	12.2839
563.216	11.1549
564.959	9.98205
566.701	9.03917
568.441	8.99277
570.182	7.971
571.923	6.88632
573.664	7.09146
575.405	6.80248
577.145	6.54412
578.885	6.11793
580.624	4.88832
582.361	6.00503
584.1	6.50308
585.839	6.80665
587.577	7.99365
589.315	7.54808
591.052	7.14803
592.787	7.65207
594.524	8.04467
596.26	8.64895
597.997	9.8133
599.732	10.5348
601.466	10.6736
603.201	11.7389
604.936	13.056
606.67	12.8485
608.403	12.985
610.136	12.2144
611.87	12.4154
613.603	11.8366
615.334	12.6013
617.067	11.9743
618.799	11.7131
620.529	10.8595
622.26	10.0709
623.991	9.34835
625.72	8.21816
627.451	7.42374
629.181	8.00074
630.909	8.11032
632.638	7.68182
634.368	7.61992
636.095	8.10868
637.823	7.63871
639.551	8.76321
641.277	8.55349
643.005	8.68566
644.73	8.06781
646.457	8.67802
648.184	8.90446
649.908	7.61962
651.634	7.25764
653.357	6.75937
655.083	5.6546
656.806	4.43527
658.53	5.26019
660.253	5.84742
661.977	6.60867
663.7	7.5008
665.422	9.3771
667.145	9.88734
668.865	10.8548
670.588	10.9217
672.308	12.3411
674.027	12.8062
675.749	11.9841
677.468	12.3282
679.188	13.1668
680.907	13.6843
682.627	13.9905
684.345	14.758
686.064	15.537
687.781	15.6225
689.498	16.704
691.216	16.9198
692.932	16.3717
694.65	16.4099
696.366	17.0484
698.081	17.9741
699.797	17.2714
701.512	18.262
703.228	18.047
704.942	19.113
706.655	19.448
708.371	21.0177
710.083	22.1222
711.796	23.308
713.51	25.1641
715.222	26.4316
716.934	25.3712
718.645	26.2252
720.358	26.4026
722.068	27.0207
723.779	26.9599
725.49	26.969
727.2	26.559
728.909	27.1835
730.618	28.5903
732.329	31.0944
734.037	33.1094
735.745	35.2569
737.453	38.8629
739.16	43.1052
740.869	48.1737
742.576	52.9512
744.282	58.9487
745.988	63.3176
747.694	68.1337
749.401	72.1821
751.107	76.7172
752.811	80.7062
754.516	85.1821
756.22	89.2347
757.924	93.7434
759.627	96.3147
761.332	99.6527
763.035	103.112
764.738	105.26
766.44	107.035
768.142	109.191
769.843	110.889
771.544	112.929
773.245	114.318
774.946	115.16
776.646	114.606
778.346	115.805
780.046	116.641
781.745	116.462
783.444	115.801
785.143	115.146
786.841	114.192
788.539	112.963
790.237	110.487
791.934	108.945
793.631	105.922
795.328	102.233
797.024	99.1867
798.72	95.8847
800.416	92.3193
802.112	88.5237
803.807	86.4482
805.502	83.3978
807.196	81.1914
808.89	78.9714
810.584	76.5392
812.278	75.2403
813.971	74.6872
815.664	74.1083
817.354	73.8962
819.047	74.7775
820.739	75.1268
822.43	75.6744
824.122	75.5595
825.813	76.1823
827.503	75.3091
829.192	75.1505
830.882	74.893
832.571	74.3327
834.261	73.2718
835.95	71.9943
837.637	71.6768
839.325	71.1196
841.013	70.3556
842.701	69.3779
844.389	67.0086
846.074	65.1336
847.761	62.8546
849.447	60.8171
851.131	59.3579
852.817	58.1945
854.503	56.7942
856.188	56.1168
857.871	55.7835
859.556	55.0178
861.24	55.1991
862.922	54.4855
864.606	54.7156
866.289	53.3877
867.97	53.5207
869.653	51.9809
871.336	51.1411
873.016	50.903
874.698	49.6667
876.379	48.8256
878.058	48.0504
879.739	48.2838
881.418	48.2713
883.098	48.1301
884.778	47.924
886.456	47.6238
888.135	47.9445
889.812	47.9724
891.49	47.9258
893.167	47.9361
894.845	47.4963
896.523	47.1228
898.198	46.6841
899.875	47.6971
901.55	47.8527
903.226	48.2857
904.901	47.4058
906.576	47.4853
908.25	47.6742
909.925	47.8611
911.598	46.7407
913.271	46.5814
914.945	46.1417
916.617	43.4905
918.291	42.0508
919.962	41.6071
921.635	41.9034
923.306	41.5653
924.978	40.5305
926.648	39.6423
928.318	38.7125
929.989	37.3602
931.659	36.8786
933.328	37.4818
934.998	37.8952
936.666	37.9022
938.336	38.579
940.004	39.7746
941.671	39.8384
943.34	39.2734
945.007	38.5612
946.673	37.4093
948.339	38.543
950.007	36.926
951.672	37.2124
953.337	35.2197
955.004	34.5008
956.669	32.8794
958.333	30.5349
959.997	28.566
961.662	29.363
963.326	28.045
964.989	27.6695
966.651	27.6772
968.315	27.2088
969.977	26.8821
971.639	26.9693
973.301	27.0742
974.962	26.6167
976.624	26.9197
978.285	26.9405
979.945	27.2086
981.605	28.1523
983.264	29.4224
984.924	29.1345
986.583	29.1657
988.243	29.0714
989.901	30.6063
991.56	30.6308
993.217	31.9146
994.875	33.7678
996.532	36.0913
998.188	38.3135
999.845	40.4283
1001.5	45.3877
1003.16	50.1282
1004.81	53.9528
1006.47	57.9303
1008.12	61.4513
1009.78	64.6766
1011.43	68.0939
1013.09	71.1521
1014.74	74.9903
1016.39	78.7544
1018.05	80.5456
1019.7	82.7843
1021.35	85.2662
1023	87.4712
1024.65	87.7589
1026.31	89.0716
1027.96	88.8465
1029.61	90.5807
1031.26	90.8703
1032.91	89.5499
1034.56	89.3115
1036.21	87.4654
1037.86	85.7779
1039.51	83.5476
1041.16	82.6521
1042.8	82.1948
1044.45	81.6825
1046.1	80.1096
1047.75	78.5635
1049.39	76.9197
1051.04	74.6107
1052.69	73.7896
1054.33	72.9409
1055.98	70.6747
1057.62	68.3321
1059.27	66.7007
1060.91	65.1107
1062.56	62.6997
1064.2	60.847
1065.85	58.6096
1067.49	57.6367
1069.13	56.1517
1070.77	55.5788
1072.42	55.5001
1074.06	54.6226
1075.7	55.4826
1077.34	55.844
1078.98	56.4569
1080.62	56.997
1082.27	57.0258
1083.91	57.6708
1085.55	57.0893
1087.18	56.1974
1088.82	56.322
1090.46	55.7332
1092.1	54.8022
1093.74	54.2892
1095.38	53.7841
1097.02	53.859
1098.65	53.7369
1100.29	53.2782
1101.93	53.2822
1103.56	52.8427
1105.2	51.8206
1106.84	49.6753
1108.47	47.7396
1110.11	46.3043
1111.74	46.0148
1113.38	42.6816
1115.01	41.4306
1116.64	40.0172
1118.28	37.5903
1119.91	36.2572
1121.54	35.2053
1123.18	33.961
1124.81	32.9655
1126.44	33.2105
1128.07	32.6836
1129.7	31.5407
1131.33	31.6145
1132.97	31.2708
1134.6	31.5521
1136.23	30.1071
1137.86	29.1607
1139.49	27.3077
1141.11	26.2954
1142.74	25.136
1144.37	24.195
1146	22.4947
1147.63	21.5446
1149.26	20.6751
1150.88	18.2885
1152.51	17.1728
1154.14	16.0827
1155.76	15.2456
1157.39	15.2953
1159.01	13.9832
1160.64	13.2896
1162.27	13.1463
1163.89	12.1423
1165.51	11.5148
1167.14	11.5581
1168.76	11.9107
1170.39	12.0925
1172.01	12.4179
1173.63	12.0742
1175.25	12.7707
1176.88	13.8592
1178.5	14.224
1180.12	14.1925
1181.74	14.9728
1183.36	14.9619
1184.98	15.8775
1186.6	15.9783
1188.22	16.3369
1189.84	17.053
1191.46	18.8134
1193.08	18.5265
1194.7	18.3449
1196.32	19.3227
1197.94	19.6225
1199.55	20.3862
1201.17	22.4924
1202.79	22.8261
1204.41	23.7995
1206.02	25.7653
1207.64	27.5067
1209.25	27.8301
1210.87	30.3434
1212.48	31.9548
1214.1	32.7024
1215.71	33.3782
1217.33	33.8326
1218.94	34.5151
1220.56	34.9103
1222.17	36.3262
1223.79	37.1963
1225.4	39.122
1227.01	39.3565
1228.62	40.7937
1230.23	41.8104
1231.85	42.7754
1233.46	45.1366
1235.07	46.6796
1236.68	48.5999
1238.29	49.9871
1239.9	50.3016
1241.51	50.7682
1243.12	52.6041
1244.73	53.8794
1246.34	55.3801
1247.94	57.1038
1249.55	56.7479
1251.16	57.2236
1252.77	59.1453
1254.37	59.4436
1255.98	60.6052
1257.59	61.9635
1259.2	63.5559
1260.8	65.5784
1262.41	68.0211
1264.01	68.9638
1265.62	70.0896
1267.22	71.1888
1268.83	73.0465
1270.43	74.3469
1272.03	75.3305
1273.64	75.388
1275.24	77.6043
1276.85	79.0468
1278.45	80.4861
1280.05	81.7848
1281.65	83.2388
1283.25	84.4327
1284.85	85.5213
1286.46	87.6742
1288.06	89.5165
1289.66	89.9638
1291.26	90.7798
1292.86	90.7243
1294.46	90.727
1296.06	91.6934
1297.66	92.6885
1299.25	92.8524
1300.85	93.5622
1302.45	94.0768
1304.05	94.4853
1305.65	94.5121
1307.24	94.3736
1308.84	94.2329
1310.43	94.795
1312.03	95.2532
1313.63	95.735
1315.22	95.1214
1316.82	94.9441
1318.41	93.7584
1320.01	92.6489
1321.6	91.2493
1323.2	91.2849
1324.79	90.1088
1326.38	89.1833
1327.98	87.6283
1329.57	86.0709
1331.16	85.1283
1332.76	83.4984
1334.35	81.7374
1335.94	80.6718
1337.53	80.3049
1339.12	79.3337
1340.71	77.4832
1342.3	76.8175
1343.89	74.9492
1345.48	74.0116
1347.07	73.9717
1348.66	72.3765
1350.25	69.9582
1351.84	68.545
1353.43	67.3588
1355.01	66.4327
1356.6	64.189
1358.19	63.315
1359.77	62.7996
1361.36	61.3404
1362.95	60.5542
1364.53	58.4283
1366.12	57.1365
1367.71	54.8764
1369.29	52.968
1370.88	52.0209
1372.46	51.6921
1374.04	51.1217
1375.63	50.5997
1377.21	49.8561
1378.8	48.4425
1380.38	47.8286
1381.96	46.2693
1383.54	44.4667
1385.13	43.3056
1386.71	43.742
1388.29	43.0108
1389.87	42.4133
1391.45	41.8262
1393.03	40.4018
1394.61	40.1788
1396.19	40.1148
1397.77	39.1228
1399.35	38.3903
1400.93	37.8247
1402.51	39.5921
1404.09	40.5732
1405.67	41.2167
1407.24	41.6378
1408.82	42.3042
1410.4	43.8922
1411.98	46.4366
1413.55	49.1561
1415.13	51.8433
1416.71	54.9319
1418.28	57.6815
1419.86	61.6009
1421.43	65.8906
1423.01	68.7096
1424.58	71.5265
1426.16	75.2245
1427.73	78.6209
1429.31	82.9724
1430.88	86.7766
1432.45	90.7124
1434.02	93.474
1435.6	96.5822
1437.17	99.4463
1438.74	101.418
1440.31	102.545
1441.88	103.879
1443.45	104.239
1445.03	105.295
1446.6	107.006
1448.17	108.241
1449.74	108.896
1451.3	109.561
1452.87	109.833
1454.44	109.301
1456.01	109.708
1457.58	108.396
1459.15	108.565
1460.72	107.481
1462.28	107.074
1463.85	106.022
1465.42	105.618
1466.98	103.848
1468.55	102.775
1470.12	101.413
1471.68	99.8141
1473.25	98.121
1474.81	95.6193
1476.38	92.9163
1477.94	91.0394
1479.51	89.6271
1481.07	87.6152
1482.63	83.8725
1484.2	81.6438
1485.76	78.8905
1487.32	76.9372
1488.88	74.6093
1490.45	71.9359
1492.01	70.4847
1493.57	68.5331
1495.13	66.2626
1496.69	63.7887
1498.25	61.8778
1499.81	58.5245
1501.37	55.7601
1502.93	53.0508
1504.49	51.5962
1506.05	49.449
1507.61	46.1532
1509.17	42.3173
1510.73	39.5541
1512.28	35.8147
1513.84	32.8128
1515.4	29.6505
1516.96	27.9247
1518.51	25.9838
1520.07	24.403
1521.63	22.9685
1523.18	23.2024
1524.74	23.2187
1526.29	22.5898
1527.85	22.4941
1529.4	22.8188
1530.96	23.2328
1532.51	24.4917
1534.06	25.4316
1535.62	25.3812
1537.17	26.6307
1538.72	27.0591
1540.28	27.4772
1541.83	28.3013
1543.38	30.1724
1544.93	31.2228
1546.48	33.077
1548.03	34.1459
1549.59	35.2632
1551.14	36.3538
1552.69	37.649
1554.24	39.1878
1555.79	40.5206
1557.34	40.9664
1558.88	41.3849
1560.43	42.3141
1561.98	43.5775
1563.53	44.535
1565.08	45.6452
1566.62	46.7828
1568.17	48.0949
1569.72	49.7353
1571.27	50.5106
1572.81	51.9787
1574.36	53.1674
1575.9	54.3877
1577.45	55.0903
1579	55.9836
1580.54	57.2249
1582.09	59.6611
1583.63	60.8623
1585.17	61.0634
1586.72	61.3805
1588.26	62.2509
1589.8	62.9622
1591.35	63.1971
1592.89	63.8446
1594.43	65.4485
1595.97	65.5803
1597.52	66.0914
1599.06	66.6823
1600.6	67.4245
1602.14	67.1233
1603.68	66.2008
1605.22	65.8819
1606.76	65.8611
1608.3	66.5971
1609.84	66.5857
1611.38	65.8514
1612.92	65.3819
1614.46	65.5482
1615.99	65.3269
1617.53	65.9726
1619.07	66.9908
1620.61	68.5846
1622.14	68.659
1623.68	69.9772
1625.22	70.8489
1626.75	71.9414
1628.29	73.4591
1629.82	74.2077
1631.36	75.9316
1632.9	76.4753
1634.43	78.0769
1635.96	80.1051
1637.5	81.4996
1639.03	83.8835
1640.57	85.7244
1642.1	87.597
1643.63	90.2254
1645.16	92.1413
1646.7	94.4223
1648.23	96.6589
1649.76	98.4941
1651.29	99.699
1652.82	100.741
1654.36	100.914
1655.89	101.214
1657.42	101.983
1658.95	100.755
1660.48	98.8727
1662.01	97.0804
1663.53	94.7885
1665.06	92.915
1666.59	91.0322
1668.12	88.4678
1669.65	86.6197
1671.18	84.2901
1672.7	81.2163
1674.23	78.6779
1675.76	75.5734
1677.29	71.6057
1678.81	68.4349
1680.34	65.4876
1681.86	62.4011
1683.39	59.8551
1684.91	57.3088
1686.44	53.0707
1687.96	50.0549
1689.49	46.9843
1691.01	43.6383
1692.54	40.5526
1694.06	38.3485
1695.58	35.6515
1697.11	33.9897
1698.63	31.2764
1700.15	30.4245
1701.67	28.6256
1703.2	27.296
1704.72	25.8564
1706.24	24.2945
1707.76	23.4319
1709.28	22.1023
1710.8	21.7001
1712.32	20.7964
1713.84	20.2888
1715.36	20.3727
1716.88	20.3359
1718.4	20.8889
1719.91	20.9637
1721.43	20.6078
1722.95	20.4838
1724.47	20.0354
1725.99	19.2879
1727.5	18.3689
1729.02	16.8672
1730.54	15.3278
1732.05	14.6917
1733.57	13.627
1735.09	12.5819
1736.6	12.432
1738.12	11.834
1739.63	10.8136
1741.15	10.4747
1742.66	9.82167
1744.18	8.96052
1745.69	8.55774
1747.2	8.28472
1748.72	8.37463
1750.23	8.20676
1751.74	8.07135
1753.25	7.40495
1754.77	7.32591
1756.28	7.29448
1757.79	6.19086
1759.3	6.41993
1760.81	5.71006
1762.32	4.41272
1763.83	3.89908
1765.34	2.732
1766.85	2.24859
1768.36	2.13513
1769.87	2.16382
1771.38	1.73261
1772.89	1.87622
1774.4	1.31447
1775.91	1.04984
1777.41	0.333792
1778.92	0.597543
1780.43	0.898459
1781.94	1.01076
1783.44	0.92406
1784.95	1.20487
1786.45	1.24943
1787.96	1.81666
1789.47	2.36926
1790.97	1.96691
1792.48	1.82598
1793.98	1.88307
1795.48	1.49039
1796.99	0.974506
1798.49	0.480961
1800	0.107516
1801.5	-0.0278009
1803	-0.164341
1804.51	-0.27805
1806.01	-0.227845
1807.51	0.201955
1809.01	0.242067
1810.51	0.469958
1812.02	0.193766
1813.52	0.212808
1815.02	0.261734
1816.52	0.0616938
1818.02	0.403093
1819.52	0.587253
1821.02	0.833431
1822.52	1.26896
1824.02	1.66786
1825.51	1.91792
1827.01	1.33454
1828.51	1.08427
1830.01	1.34843
1831.51	1.3934
1833	1.03144
1834.5	1.48571
1836	1.06336
1837.5	1.26943
1838.99	1.62102
1840.49	2.34387
1841.98	2.89456
1843.48	2.8353
1844.97	2.49549
1846.47	2.39242
1847.96	3.21904
1849.46	3.07142
1850.95	3.2862
1852.45	3.24501
1853.94	4.18252
1855.43	4.65654
1856.92	4.83965
1858.42	4.93405
1859.91	5.63227
1861.4	5.58543
1862.89	5.98932
1864.39	6.35621
1865.88	5.90525
1867.37	6.54716
1868.86	6.7864
1870.35	6.9372
1871.84	7.5407
1873.33	7.5197
1874.82	7.98033
1876.31	8.27887
1877.8	8.65694
1879.29	8.37299
1880.77	8.21387
1882.26	8.30278
1882.51	7.57538
1884	7.45935
1885.5	7.27911
1886.99	7.70473
1888.48	8.11759
1889.98	8.52395
1891.47	8.13559
1892.97	8.25097
1894.46	8.40986
1895.95	8.44469
1897.44	8.18132
1898.93	7.89845
1900.42	7.45854
1901.92	8.07727
1903.41	7.82142
1904.9	7.04334
1906.39	7.3792
1907.88	7.03394
1909.37	6.5216
1910.86	6.99508
1912.35	7.3197
1913.84	6.87723
1915.32	6.59857
1916.81	6.31286
1918.3	6.1728
1919.79	6.3431
1921.28	6.21728
1922.76	6.01624
1924.25	6.57661
1925.74	7.0132
1927.22	7.57404
1928.71	7.34469
1930.2	7.4259
1931.68	7.83277
1933.17	7.50476
1934.65	7.0674
1936.14	7.52489
1937.62	7.03255
1939.11	6.24593
1940.59	5.81662
1942.08	5.75387
1943.56	5.86528
1945.04	5.09409
1946.53	3.92175
1948.01	3.71392
1949.49	3.84107
1950.97	3.46935
1952.45	2.75112
1953.94	2.40014
1955.42	2.04283
1956.9	1.6182
1958.38	2.03044
1959.86	2.11026
1961.34	2.08122
1962.82	2.12852
1964.3	1.25676
1965.78	0.309829
1967.26	0.465145
1968.74	-0.258516
1970.22	-0.500081
1971.69	-0.953389
1973.17	-1.04082
1974.65	-1.46153
1976.13	-1.35081
1977.61	-1.58278
1979.08	-1.56956
1980.56	-0.387504
1982.03	-0.437722
1983.51	0.0892046
1984.99	0.787414
1986.46	1.58817
1987.94	1.42429
1989.41	1.9878
1990.89	2.18192
1992.36	2.10076
1993.84	2.09251
1995.31	2.24796
1996.78	2.99253
1998.26	3.38169
1999.73	3.70413
2001.2	4.3747
2002.68	4.54243
2004.15	5.29481
2005.62	5.8125
2007.09	5.26099
2008.56	5.3321
2010.04	5.80718
2011.51	6.10941
2012.98	6.43296
2014.45	6.96943
2015.92	7.41776
2017.39	7.61168
2018.86	7.89365
2020.33	8.47173
2021.8	8.90539
2023.27	9.93917
2024.74	9.5858
2026.2	9.76715
2027.67	9.66671
2029.14	10.2225
2030.61	10.6289
2032.07	10.5579
2033.54	10.6764
2035.01	10.8378
2036.47	11.5923
2037.94	11.7635
2039.41	12.3428
2040.87	12.8433
2042.34	12.9797
2043.8	13.0293
2045.27	13.1261
2046.73	14.1767
2048.2	15.4839
2049.66	16.4478
2051.12	16.5306
2052.59	17.2248
2054.05	18.4404
2055.51	18.7874
2056.98	19.7394
2058.44	20.078
2059.9	21.0439
2061.36	21.3475
2062.82	21.8204
2064.29	22.3048
2065.75	22.5325
2067.21	23.7143
2068.67	24.8863
2070.13	26.0691
2071.59	27.3104
2073.05	29.0988
2074.51	30.5445
2075.97	31.0241
2077.43	32.4066
2078.88	32.8989
2080.34	33.4934
2081.8	35.297
2083.26	36.7926
2084.72	38.1948
2086.17	39.5798
2087.63	41.0479
2089.09	42.6071
2090.54	44.5642
2092	45.9512
2093.46	46.9836
2094.91	47.8953
2096.37	49.8077
2097.82	51.1907
2099.28	53.2895
2100.73	54.5575
2102.19	56.3417
2103.64	57.8554
2105.09	59.2917
2106.55	61.7154
2108	63.8975
2109.46	65.4006
2110.91	66.9059
2112.36	68.2698
2113.81	69.7019
2115.27	70.7961
2116.72	72.6714
2118.17	75.2342
2119.62	78.0031
2121.07	80.7968
2122.52	82.9523
2123.97	85.0638
2125.42	87.869
2126.87	90.6387
2128.32	93.0045
2129.77	96.1964
2131.22	98.7682
2132.67	101.291
