#Acq. time (s)=	45
#Accumulations=	2
#Range (cm-¹)=	200...3150
#Windows=	2
#Auto scanning=	Off
#Autofocus=	Off
#Macrospot=	Off
#AutoExposure=	Off
#Spike filter=	Multiple accum.
#Delay time (s)=	0
#Binning=	1
#Readout mode=	Signal
#DeNoise=	Off
#ICS correction=	On
#Dark correction=	Off
#Inst. Process=	Off
#Detector Gain=	Best Dynamic Range
#Detector ADC=	20 kHz       
#Detector temperature (°C)=	-69.85
#Instrument=	LabRAM HR Evol
#Detector=	Synapse
#Objective=	x100
#Grating=	600 gr/mm
#ND Filter=	100%
#Laser (nm)=	532 
#Hole=	100.021
#Range=	Auto
#Laser Pol.=	No
#Raman. Pol.=	No
#Laser Pol. (°)=	-0.0007625
#Raman Pol. (°)=	89.9995
#Collection=	Microscope
#StageXY=	Marzhauser
#StageZ=	Marzhauser
#X (µm)=	28332.7
#Y (µm)=	-3308.3
#Z (µm)=	1040.6
#Full time(mm:ss)=	3:19
#Project=	
#Sample=	
#Site=	
#Title=	Mb_50_18_23_2x_45s_532 nm_x100_100%_600 gr_mm
#Remark=	
#Date=	12.07.2022 12:34
#Acquired=	12.07.2022 12:34:11
#Base:Fit=	10.08.2022 10:49:18
#Base:Sub=	10.08.2022 10:49:30
#Filter:Polynom=	16.08.2022 10:14:59
#AxisType[0]=Intens
#AxisUnit[0]=Cnt
#AxisType[1]=Spectr
#AxisUnit[1]=1/cm
200.388	0.430091
202.204	4.39584
204.019	7.6275
205.832	10.4443
207.646	13.0212
209.459	15.2334
211.274	17.5408
213.087	20.0746
214.899	21.6767
216.711	23.1442
218.524	23.9666
220.335	23.0504
222.146	23.1491
223.956	23.3312
225.766	22.814
227.576	22.6569
229.388	21.9605
231.197	22.1569
233.005	21.437
234.813	22.5363
236.621	21.4139
238.429	21.0976
240.236	21.7271
242.045	22.1665
243.852	21.9861
245.658	22.0911
247.464	21.357
249.269	21.4587
251.074	21.5139
252.879	20.9948
254.683	20.5806
256.487	20.1971
258.291	19.6934
260.094	20.055
261.897	17.9561
263.702	17.5192
265.504	17.0176
267.306	15.0121
269.108	14.9015
270.909	14.1127
272.71	14.5048
274.511	11.5474
276.311	12.2233
278.111	12.0175
279.91	10.3087
281.709	9.67023
283.508	9.23953
285.306	9.80895
287.105	10.2648
288.9	10.5776
290.698	10.0491
292.495	11.6011
294.291	12.333
296.088	14.6997
297.884	16.1915
299.679	18.0795
301.475	19.9976
303.27	20.6603
305.064	21.6108
306.858	23.0221
308.652	25.085
310.444	26.5448
312.237	28.9832
314.03	30.5637
315.822	32.3147
317.615	33.8873
319.406	35.4451
321.198	37.263
322.987	37.9852
324.778	40.0573
326.568	40.611
328.358	42.7074
330.148	44.2182
331.935	44.4556
333.724	45.1443
335.513	45.5416
337.301	45.5906
339.089	45.4184
340.875	44.1081
342.662	42.481
344.449	42.6369
346.236	42.4496
348.02	43.2578
349.806	44.7238
351.592	45.0805
353.375	47.0392
355.16	49.2116
356.944	52.5594
358.728	55.3728
360.51	59.2283
362.294	62.4659
364.077	63.821
365.858	66.8484
367.64	67.9636
369.422	70.1838
371.202	73.7773
372.983	76.542
374.764	78.6378
376.543	81.4497
378.324	82.6214
380.102	86.0328
381.881	89.0272
383.661	90.3856
385.438	92.9613
387.216	93.1626
388.993	93.4989
390.771	94.0442
392.548	93.1896
394.324	93.342
396.101	93.4616
397.875	92.7865
399.651	91.241
401.425	88.9116
403.201	85.6132
404.974	82.5747
406.749	79.3124
408.524	76.3291
410.296	73.6267
412.07	69.8649
413.841	65.6242
415.614	61.5183
417.385	56.5326
419.156	51.1683
420.928	45.9624
422.698	39.9893
424.469	34.0891
426.238	31.0324
428.009	27.2435
429.777	23.6934
431.548	20.4657
433.315	19.6572
435.083	17.685
436.852	16.7114
438.618	15.5711
440.387	14.7112
442.153	14.8159
443.919	15.0306
445.686	13.7875
447.451	12.5399
449.218	11.8362
450.982	10.7247
452.746	9.54099
454.512	9.85373
456.275	9.34706
458.038	10.4609
459.803	10.0947
461.565	9.59016
463.327	9.23462
465.091	9.76487
466.852	8.98236
468.613	9.92898
470.374	9.71205
472.136	10.3003
473.896	10.6499
475.655	11.6643
477.415	12.1649
479.176	15.5524
480.934	17.7675
482.692	20.7631
484.45	23.9662
486.21	26.1682
487.967	30.456
489.724	33.9676
491.481	38.7323
493.237	44.2005
494.995	49.1127
496.75	54.2079
498.506	58.3071
500.26	61.2789
502.015	64.3229
503.771	68.3644
505.525	71.5576
507.279	74.3082
509.032	75.8001
510.785	78.0291
512.537	81.3556
514.289	84.5165
516.041	84.7649
517.793	84.7276
519.546	85.5693
521.297	86.7003
523.047	85.3918
524.797	84.8321
526.547	83.068
528.297	82.2557
530.046	80.6837
531.795	77.7751
533.543	74.3863
535.291	71.7463
537.039	68.5534
538.787	65.93
540.534	61.5235
542.281	56.9268
544.027	53.4767
545.773	48.9189
547.519	43.6593
549.264	39.9563
551.01	35.2959
552.754	30.4601
554.499	25.7499
556.243	22.491
557.987	19.0397
559.73	15.0161
561.474	12.2587
563.216	10.2825
564.959	8.8839
566.701	8.54759
568.441	6.96294
570.182	6.14506
571.923	6.82181
573.664	7.48735
575.405	9.03924
577.145	9.63589
578.885	9.84964
580.624	10.2752
582.361	11.5065
584.1	12.4263
585.839	12.3224
587.577	13.7962
589.315	15.3549
591.052	15.5307
592.787	16.5009
594.524	16.572
596.26	18.048
597.997	19.9095
599.732	20.3368
601.466	20.652
603.201	19.8866
604.936	19.7819
606.67	18.799
608.403	18.555
610.136	18.824
611.87	19.7222
613.603	19.6381
615.334	19.6928
617.067	19.8648
618.799	18.861
620.529	18.6529
622.26	17.0886
623.991	16.5785
625.72	15.798
627.451	13.857
629.181	12.7297
630.909	12.699
632.638	11.2636
634.368	10.2431
636.095	9.97857
637.823	7.89324
639.551	7.37964
641.277	6.83167
643.005	6.41932
644.73	5.40782
646.457	5.36575
648.184	6.33695
649.908	6.23811
651.634	6.0013
653.357	5.14653
655.083	6.69026
656.806	6.19403
658.53	5.4508
660.253	4.81092
661.977	4.38836
663.7	4.37757
665.422	4.69749
667.145	5.1236
668.865	5.16994
670.588	4.51384
672.308	4.71106
674.027	5.6868
675.749	6.10616
677.468	6.20678
679.188	7.85627
680.907	8.35416
682.627	9.63937
684.345	8.75499
686.064	8.98351
687.781	9.47341
689.498	9.44567
691.216	9.80014
692.932	9.29172
694.65	10.859
696.366	11.5199
698.081	11.6464
699.797	10.792
701.512	11.0125
703.228	11.4139
704.942	10.967
706.655	11.8939
708.371	11.9783
710.083	13.4933
711.796	14.6829
713.51	14.6172
715.222	15.6877
716.934	16.5686
718.645	18.5447
720.358	18.4803
722.068	19.2405
723.779	18.9535
725.49	20.0116
727.2	19.8371
728.909	21.4446
730.618	22.5567
732.329	23.8987
734.037	25.7217
735.745	25.9919
737.453	28.5772
739.16	33.2391
740.869	37.7825
742.576	40.8698
744.282	46.1143
745.988	51.9375
747.694	59.1632
749.401	67.2088
751.107	75.0873
752.811	82.0924
754.516	89.1472
756.22	96.5631
757.924	104.788
759.627	111.618
761.332	117.996
763.035	124.577
764.738	129.844
766.44	134.888
768.142	138.566
769.843	141.674
771.544	144.804
773.245	145.843
774.946	147.099
776.646	148.334
778.346	148.237
780.046	148.139
781.745	147.349
783.444	145.931
785.143	143.118
786.841	140.131
788.539	137.569
790.237	134.224
791.934	130.628
793.631	125.674
795.328	120.975
797.024	113.834
798.72	107.422
800.416	101.077
802.112	94.1223
803.807	87.8919
805.502	77.8723
807.196	70.7146
808.89	63.6484
810.584	57.801
812.278	52.2818
813.971	48.1455
815.664	42.8267
817.354	38.6083
819.047	35.0738
820.739	33.1901
822.43	33.4655
824.122	33.1419
825.813	32.3359
827.503	32.9514
829.192	33.4081
830.882	33.2975
832.571	34.9828
834.261	36.1095
835.95	36.4835
837.637	36.7401
839.325	36.9613
841.013	38.3558
842.701	38.1205
844.389	37.4762
846.074	38.3211
847.761	38.0623
849.447	36.7768
851.131	36.0302
852.817	35.1509
854.503	34.8605
856.188	33.339
857.871	32.3731
859.556	31.7488
861.24	30.3444
862.922	28.399
864.606	27.194
866.289	26.4291
867.97	26.4497
869.653	26.1547
871.336	24.6444
873.016	25.2643
874.698	25.0461
876.379	24.8185
878.058	23.8601
879.739	22.7396
881.418	20.7647
883.098	20.5941
884.778	19.7866
886.456	18.7376
888.135	17.4634
889.812	16.9006
891.49	17.9931
893.167	18.0552
894.845	19.0195
896.523	19.248
898.198	18.6682
899.875	18.105
901.55	18.7598
903.226	19.9823
904.901	21.947
906.576	21.1907
908.25	21.01
909.925	21.6048
911.598	22.1028
913.271	20.7329
914.945	21.1809
916.617	21.565
918.291	21.7699
919.962	20.8967
921.635	20.7758
923.306	21.4076
924.978	22.3958
926.648	21.5688
928.318	22.6328
929.989	23.2285
931.659	21.9153
933.328	22.2931
934.998	21.7682
936.666	20.5494
938.336	19.5148
940.004	18.9555
941.671	19.269
943.34	17.6547
945.007	17.3635
946.673	16.4154
948.339	17.1792
950.007	17.744
951.672	18.4427
953.337	17.0748
955.004	14.6825
956.669	14.5899
958.333	13.7328
959.997	12.1228
961.662	11.1617
963.326	9.63116
964.989	8.38228
966.651	7.41627
968.315	7.06375
969.977	5.15921
971.639	3.75063
973.301	4.46862
974.962	3.86958
976.624	2.52545
978.285	1.82202
979.945	-0.00721451
981.605	-0.347888
983.264	-0.384174
984.924	0.658305
986.583	0.0727953
988.243	0.117422
989.901	-1.43153
991.56	-0.846646
993.217	-0.113789
994.875	0.564835
996.532	1.30595
998.188	3.29585
999.845	6.76354
1001.5	11.0267
1003.16	15.4815
1004.81	20.3405
1006.47	23.7441
1008.12	28.1655
1009.78	32.7099
1011.43	37.3533
1013.09	40.8335
1014.74	44.7364
1016.39	48.6793
1018.05	52.7222
1019.7	55.6503
1021.35	58.8725
1023	62.6974
1024.65	64.8897
1026.31	66.9475
1027.96	69.2793
1029.61	69.9371
1031.26	72.2946
1032.91	73.0886
1034.56	72.8416
1036.21	72.0443
1037.86	71.9888
1039.51	71.3024
1041.16	69.9166
1042.8	68.1215
1044.45	66.5535
1046.1	63.9836
1047.75	63.0481
1049.39	61.1631
1051.04	58.583
1052.69	57.2382
1054.33	56.9795
1055.98	57.2919
1057.62	55.8952
1059.27	54.8564
1060.91	55.4444
1062.56	56.429
1064.2	58.1476
1065.85	57.5768
1067.49	58.1253
1069.13	58.1578
1070.77	59.9726
1072.42	60.8069
1074.06	62.9497
1075.7	65.3571
1077.34	68.6137
1078.98	70.9434
1080.62	72.2158
1082.27	75.3761
1083.91	77.3822
1085.55	78.0975
1087.18	78.4333
1088.82	79.0423
1090.46	80.6204
1092.1	80.8138
1093.74	78.9956
1095.38	77.0023
1097.02	76.5447
1098.65	73.7418
1100.29	71.7889
1101.93	68.3861
1103.56	66.0751
1105.2	62.8247
1106.84	58.1423
1108.47	55.168
1110.11	48.8841
1111.74	44.3868
1113.38	40.4659
1115.01	34.9425
1116.64	30.3409
1118.28	26.7016
1119.91	21.8053
1121.54	15.1525
1123.18	11.0398
1124.81	8.12324
1126.44	6.38245
1128.07	4.1107
1129.7	2.40121
1131.33	1.00013
1132.97	0.890738
1134.6	2.30213
1136.23	2.23872
1137.86	2.41909
1139.49	3.29445
1141.11	4.03148
1142.74	4.18103
1144.37	5.18437
1146	5.73839
1147.63	5.23627
1149.26	6.90292
1150.88	7.56138
1152.51	8.53065
1154.14	9.42224
1155.76	10.0309
1157.39	10.744
1159.01	11.9536
1160.64	12.5709
1162.27	13.5673
1163.89	15.506
1165.51	16.5782
1167.14	17.0003
1168.76	18.4788
1170.39	19.0533
1172.01	20.0618
1173.63	20.5911
1175.25	21.6844
1176.88	23.1432
1178.5	26.1173
1180.12	26.7252
1181.74	26.1429
1183.36	26.5304
1184.98	27.314
1186.6	26.8005
1188.22	27.6949
1189.84	28.6506
1191.46	28.6015
1193.08	30.0411
1194.7	30.5853
1196.32	31.7204
1197.94	32.6831
1199.55	32.0093
1201.17	31.9322
1202.79	32.2297
1204.41	33.7481
1206.02	35.5889
1207.64	36.9621
1209.25	37.0329
1210.87	36.8301
1212.48	37.9867
1214.1	38.4718
1215.71	38.5218
1217.33	38.9779
1218.94	38.8412
1220.56	39.1087
1222.17	38.1339
1223.79	38.3023
1225.4	37.6074
1227.01	36.4719
1228.62	35.5323
1230.23	34.4309
1231.85	33.8876
1233.46	32.9144
1235.07	33.023
1236.68	32.4821
1238.29	33.1913
1239.9	33.7717
1241.51	33.4813
1243.12	32.8582
1244.73	32.3855
1246.34	33.3337
1247.94	33.1755
1249.55	32.4598
1251.16	32.7111
1252.77	33.4197
1254.37	32.7007
1255.98	33.2496
1257.59	32.299
1259.2	32.0663
1260.8	30.8379
1262.41	30.0482
1264.01	32.3906
1265.62	32.7839
1267.22	33.026
1268.83	33.4799
1270.43	34.9969
1272.03	35.7535
1273.64	35.8494
1275.24	36.8428
1276.85	36.9744
1278.45	36.1207
1280.05	36.0759
1281.65	36.5833
1283.25	37.1675
1284.85	37.6357
1286.46	38.816
1288.06	38.5514
1289.66	38.6002
1291.26	39.3791
1292.86	40.6166
1294.46	42.0631
1296.06	43.4923
1297.66	44.4284
1299.25	45.3544
1300.85	46.3926
1302.45	45.76
1304.05	45.0264
1305.65	44.2646
1307.24	44.3432
1308.84	44.4986
1310.43	44.8717
1312.03	45.5292
1313.63	45.6298
1315.22	46.6277
1316.82	46.5706
1318.41	46.5512
1320.01	47.1569
1321.6	47.2758
1323.2	46.9883
1324.79	47.6164
1326.38	47.8305
1327.98	47.722
1329.57	47.8924
1331.16	47.9546
1332.76	47.1729
1334.35	46.919
1335.94	47.1731
1337.53	47.6127
1339.12	47.875
1340.71	48.7907
1342.3	48.7746
1343.89	49.0182
1345.48	49.0946
1347.07	48.9515
1348.66	48.9268
1350.25	48.8058
1351.84	47.4107
1353.43	46.3507
1355.01	46.0127
1356.6	44.5904
1358.19	43.3693
1359.77	43.0297
1361.36	42.4753
1362.95	41.4201
1364.53	40.1746
1366.12	40.1275
1367.71	39.7602
1369.29	38.9083
1370.88	38.5153
1372.46	37.7712
1374.04	37.7332
1375.63	36.9773
1377.21	36.0402
1378.8	35.322
1380.38	32.5625
1381.96	31.8325
1383.54	31.6298
1385.13	31.885
1386.71	31.3218
1388.29	30.7951
1389.87	29.9558
1391.45	27.5999
1393.03	26.2863
1394.61	24.9989
1396.19	25.3298
1397.77	25.2001
1399.35	25.2793
1400.93	25.2092
1402.51	26.1705
1404.09	27.3012
1405.67	28.6172
1407.24	29.7625
1408.82	30.7374
1410.4	32.6477
1411.98	34.8979
1413.55	37.227
1415.13	39.5716
1416.71	42.2183
1418.28	44.2952
1419.86	47.095
1421.43	49.0686
1423.01	50.8599
1424.58	54.7999
1426.16	56.9151
1427.73	60.3334
1429.31	62.1181
1430.88	64.9604
1432.45	67.4759
1434.02	69.0467
1435.6	71.0606
1437.17	72.7816
1438.74	73.9751
1440.31	74.3338
1441.88	74.5582
1443.45	75.1463
1445.03	75.5026
1446.6	75.4341
1448.17	75.1174
1449.74	75.5347
1451.3	76.2301
1452.87	74.9966
1454.44	75.1346
1456.01	75.3051
1457.58	74.8214
1459.15	75.0552
1460.72	75.8376
1462.28	75.9879
1463.85	74.9393
1465.42	74.373
1466.98	74.1942
1468.55	74.1142
1470.12	72.8911
1471.68	73.7215
1473.25	74.06
1474.81	73.9942
1476.38	72.5149
1477.94	72.8181
1479.51	72.39
1481.07	71.082
1482.63	69.6626
1484.2	69.1437
1485.76	67.1942
1487.32	66.7511
1488.88	66.5958
1490.45	65.3222
1492.01	64.0501
1493.57	63.2247
1495.13	61.3873
1496.69	59.9136
1498.25	57.663
1499.81	57.2184
1501.37	55.8137
1502.93	54.7126
1504.49	52.3179
1506.05	50.2937
1507.61	46.9106
1509.17	44.0884
1510.73	41.4887
1512.28	38.3273
1513.84	36.2611
1515.4	33.3271
1516.96	30.9427
1518.51	27.4338
1520.07	25.4562
1521.63	22.8223
1523.18	21.9185
1524.74	20.8356
1526.29	18.9704
1527.85	17.6345
1529.4	16.4132
1530.96	15.5911
1532.51	17.0867
1534.06	16.2435
1535.62	16.6666
1537.17	17.786
1538.72	19.4851
1540.28	20.7534
1541.83	21.5017
1543.38	22.1607
1544.93	22.3367
1546.48	21.6291
1548.03	21.852
1549.59	21.0504
1551.14	20.7166
1552.69	21.3272
1554.24	21.3194
1555.79	22.1547
1557.34	21.5245
1558.88	22.896
1560.43	22.9212
1561.98	22.9662
1563.53	23.4763
1565.08	25.4013
1566.62	26.7116
1568.17	27.4461
1569.72	28.8797
1571.27	30.1715
1572.81	30.7029
1574.36	31.6006
1575.9	32.0928
1577.45	34.018
1579	33.8104
1580.54	33.84
1582.09	35.6756
1583.63	37.0201
1585.17	37.3549
1586.72	39.6579
1588.26	41.59
1589.8	42.8918
1591.35	44.1669
1592.89	44.2338
1594.43	44.9422
1595.97	45.3348
1597.52	47.146
1599.06	47.955
1600.6	48.4046
1602.14	48.3414
1603.68	48.9587
1605.22	48.8951
1606.76	49.1046
1608.3	50.4123
1609.84	50.7514
1611.38	50.4721
1612.92	50.458
1614.46	50.6082
1615.99	50.6284
1617.53	48.7268
1619.07	48.5295
1620.61	46.9181
1622.14	45.9809
1623.68	45.0653
1625.22	44.7653
1626.75	43.4525
1628.29	44.4721
1629.82	44.208
1631.36	42.8611
1632.9	43.6623
1634.43	43.3201
1635.96	43.3109
1637.5	41.2568
1639.03	41.8996
1640.57	43.1561
1642.1	43.7803
1643.63	43.331
1645.16	42.9926
1646.7	42.5271
1648.23	41.976
1649.76	41.4656
1651.29	41.7426
1652.82	42.1032
1654.36	42.5682
1655.89	42.8498
1657.42	42.875
1658.95	43.8517
1660.48	44.0989
1662.01	43.2934
1663.53	43.286
1665.06	42.8906
1666.59	41.8698
1668.12	40.2565
1669.65	38.9948
1671.18	39.6642
1672.7	39.5706
1674.23	37.4204
1675.76	36.3295
1677.29	34.8157
1678.81	34.6123
1680.34	33.7351
1681.86	32.2614
1683.39	32.365
1684.91	31.8858
1686.44	31.901
1687.96	30.8427
1689.49	29.5215
1691.01	29.813
1692.54	28.9954
1694.06	27.5259
1695.58	26.9164
1697.11	25.3767
1698.63	23.9344
1700.15	23.6217
1701.67	23.2395
1703.2	22.711
1704.72	21.6605
1706.24	21.3979
1707.76	21.2752
1709.28	21.2671
1710.8	20.3629
1712.32	18.9789
1713.84	17.9793
1715.36	17.8416
1716.88	16.8106
1718.4	14.8844
1719.91	13.9269
1721.43	13.4194
1722.95	12.2361
1724.47	11.1809
1725.99	10.1811
1727.5	9.26
1729.02	7.29156
1730.54	6.50978
1732.05	6.14099
1733.57	5.13854
1735.09	5.1867
1736.6	5.32152
1738.12	4.45179
1739.63	4.34575
1741.15	4.96081
1742.66	3.84621
1744.18	3.42283
1745.69	3.40922
1747.2	3.81063
1748.72	3.3902
1750.23	3.01831
1751.74	4.33817
1753.25	4.48172
1754.77	5.12065
1756.28	5.77567
1757.79	6.43901
1759.3	7.62065
1760.81	8.0615
1762.32	9.01072
1763.83	8.52906
1765.34	8.1414
1766.85	8.45701
1768.36	7.83513
1769.87	7.339
1771.38	7.71374
1772.89	8.18898
1774.4	7.9987
1775.91	8.64575
1777.41	8.69284
1778.92	9.38419
1780.43	9.7086
1781.94	10.174
1783.44	9.96034
1784.95	10.7353
1786.45	10.4702
1787.96	9.90792
1789.47	10.4148
1790.97	10.1226
1792.48	9.96783
1793.98	9.2596
1795.48	9.29216
1796.99	8.25684
1798.49	7.90201
1800	7.92177
1801.5	7.56303
1803	7.86628
1804.51	7.71751
1806.01	8.65048
1807.51	9.19345
1809.01	10.086
1810.51	11.1457
1812.02	12.3511
1813.52	12.2231
1815.02	13.0401
1816.52	13.5739
1818.02	12.8732
1819.52	13.4676
1821.02	13.3467
1822.52	13.2442
1824.02	12.4992
1825.51	12.4645
1827.01	12.5807
1828.51	12.4917
1830.01	12.5619
1831.51	12.5591
1833	12.1461
1834.5	11.7291
1836	11.8143
1837.5	11.515
1838.99	11.2755
1840.49	11.2108
1841.98	11.3779
1843.48	11.0456
1844.97	10.6848
1846.47	10.3346
1847.96	10.6265
1849.46	10.0528
1850.95	11.0329
1852.45	10.9445
1853.94	11.3456
1855.43	10.7695
1856.92	8.74738
1858.42	6.95371
1859.91	8.23767
1861.4	7.90182
1862.89	9.5639
1864.39	9.95726
1865.88	10.9434
1867.37	11.9392
1868.86	13.067
1870.35	12.8245
1871.84	13.6147
1873.33	14.3947
1874.82	15.5121
1876.31	16.7678
1877.8	17.4954
1879.29	17.5422
1880.77	18.4783
1882.26	19.2861
1882.51	19.864
1884	20.9208
1885.5	20.7376
1886.99	20.9773
1888.48	22.0962
1889.98	22.8179
1891.47	21.9434
1892.97	21.8078
1894.46	21.5086
1895.95	21.1562
1897.44	19.4104
1898.93	19.0561
1900.42	18.2762
1901.92	17.1407
1903.41	16.6088
1904.9	16.3661
1906.39	15.7481
1907.88	15.544
1909.37	15.6839
1910.86	14.9654
1912.35	13.8477
1913.84	13.437
1915.32	12.5091
1916.81	11.5128
1918.3	10.1637
1919.79	9.23891
1921.28	9.07862
1922.76	6.90084
1924.25	6.50202
1925.74	4.44149
1927.22	3.19932
1928.71	2.49961
1930.2	1.24481
1931.68	2.42795
1933.17	4.73233
1934.65	4.7124
1936.14	5.59145
1937.62	5.51635
1939.11	6.5683
1940.59	6.01634
1942.08	5.54201
1943.56	5.4548
1945.04	6.34124
1946.53	6.90284
1948.01	7.84562
1949.49	7.46292
1950.97	6.9443
1952.45	7.05834
1953.94	6.50559
1955.42	5.46661
1956.9	6.06084
1958.38	6.4486
1959.86	5.48589
1961.34	6.3547
1962.82	5.71714
1964.3	5.03926
1965.78	4.13647
1967.26	4.88273
1968.74	5.07291
1970.22	3.67381
1971.69	3.1399
1973.17	3.06437
1974.65	2.34595
1976.13	2.71069
1977.61	3.03629
1979.08	3.47673
1980.56	4.75433
1982.03	5.15773
1983.51	5.1728
1984.99	5.86082
1986.46	5.78712
1987.94	7.10109
1989.41	6.8253
1990.89	7.20192
1992.36	6.35698
1993.84	6.45806
1995.31	7.30892
1996.78	6.73661
1998.26	7.71941
1999.73	7.74138
2001.2	7.95561
2002.68	8.48097
2004.15	7.51039
2005.62	7.58102
2007.09	7.94609
2008.56	8.34786
2010.04	8.59764
2011.51	9.25243
2012.98	9.14583
2014.45	8.11697
2015.92	8.57334
2017.39	8.92352
2018.86	8.34217
2020.33	8.11142
2021.8	7.24043
2023.27	7.21172
2024.74	7.57209
2026.2	7.31251
2027.67	6.91605
2029.14	6.29916
2030.61	7.37115
2032.07	7.67832
2033.54	7.91325
2035.01	8.31447
2036.47	8.64941
2037.94	9.1412
2039.41	9.59531
2040.87	9.47591
2042.34	8.68477
2043.8	9.07853
2045.27	9.71097
2046.73	9.78912
2048.2	10.4073
2049.66	12.2746
2051.12	13.5738
2052.59	14.5715
2054.05	15.1667
2055.51	14.4856
2056.98	14.5795
2058.44	15.7424
2059.9	15.6016
2061.36	16.562
2062.82	16.3387
2064.29	16.5131
2065.75	17.303
2067.21	18.2066
2068.67	19.0379
2070.13	18.2822
2071.59	18.4674
2073.05	18.5714
2074.51	18.9194
2075.97	18.5085
2077.43	18.0818
2078.88	18.0924
2080.34	18.4615
2081.8	18.9867
2083.26	19.3028
2084.72	19.0118
2086.17	18.2441
2087.63	18.4205
2089.09	19.7205
2090.54	20.5808
2092	21.3974
2093.46	21.2257
2094.91	22.2384
2096.37	23.6987
2097.82	24.6289
2099.28	24.4526
2100.73	25.1448
2102.19	25.1302
2103.64	26.2048
2105.09	26.8405
2106.55	27.594
2108	27.5381
2109.46	28.3351
2110.91	29.2825
2112.36	29.9433
2113.81	30.3173
2115.27	31.3938
2116.72	33.6839
2118.17	34.1655
2119.62	35.8167
2121.07	36.6261
2122.52	37.7866
2123.97	38.6127
2125.42	39.3638
2126.87	40.9166
2128.32	42.5429
2129.77	43.6773
2131.22	45.2822
2132.67	45.5515
2134.12	47.6982
2135.57	48.3736
