#Acq. time (s)=	45
#Accumulations=	2
#Range (cm-¹)=	200...3150
#Windows=	2
#Auto scanning=	Off
#Autofocus=	Off
#Macrospot=	Off
#AutoExposure=	Off
#Spike filter=	Multiple accum.
#Delay time (s)=	0
#Binning=	1
#Readout mode=	Signal
#DeNoise=	Off
#ICS correction=	On
#Dark correction=	Off
#Inst. Process=	Off
#Detector Gain=	Best Dynamic Range
#Detector ADC=	20 kHz       
#Detector temperature (°C)=	-69.85
#Instrument=	LabRAM HR Evol
#Detector=	Synapse
#Objective=	x100
#Grating=	600 gr/mm
#ND Filter=	100%
#Laser (nm)=	532 
#Hole=	100.021
#Range=	Auto
#Laser Pol.=	No
#Raman. Pol.=	No
#Laser Pol. (°)=	-0.0007625
#Raman Pol. (°)=	89.9995
#Collection=	Microscope
#StageXY=	Marzhauser
#StageZ=	Marzhauser
#X (µm)=	28307.3
#Y (µm)=	-3221.3
#Z (µm)=	1041.05
#Full time(mm:ss)=	3:19
#Project=	
#Sample=	
#Site=	
#Title=	Mb_50_18_35_2x_45s_532 nm_x100_100%_600 gr_mm
#Remark=	
#Date=	12.07.2022 13:35
#Acquired=	12.07.2022 13:35:37
#Base:Fit=	10.08.2022 10:49:18
#Base:Sub=	10.08.2022 10:49:30
#Filter:Polynom=	16.08.2022 10:14:59
#AxisType[0]=Intens
#AxisUnit[0]=Cnt
#AxisType[1]=Spectr
#AxisUnit[1]=1/cm
200.388	7.80457
202.204	12.2231
204.019	14.4264
205.832	17.1806
207.646	18.1456
209.459	19.3968
211.274	20.1105
213.087	20.3521
214.899	21.7337
216.711	22.2073
218.524	24.6224
220.335	25.8062
222.146	24.6212
223.956	25.1215
225.766	26.4473
227.576	27.1059
229.388	28.003
231.197	29.7093
233.005	30.6429
234.813	31.8392
236.621	33.436
238.429	35.2449
240.236	36.3248
242.045	37.3521
243.852	36.9837
245.658	37.8385
247.464	38.0691
249.269	37.3631
251.074	37.5996
252.879	36.6364
254.683	36.5651
256.487	37.4953
258.291	37.7992
260.094	37.125
261.897	37.5685
263.702	37.5075
265.504	37.2554
267.306	38.6013
269.108	36.0187
270.909	34.2697
272.71	33.8469
274.511	35.403
276.311	34.4346
278.111	35.0484
279.91	34.7167
281.709	34.334
283.508	33.1479
285.306	31.6112
287.105	30.501
288.9	29.6006
290.698	29.7542
292.495	30.3647
294.291	30.4509
296.088	30.3867
297.884	31.5412
299.679	31.7405
301.475	31.1213
303.27	31.7927
305.064	33.4498
306.858	33.5599
308.652	33.6051
310.444	32.0062
312.237	30.4976
314.03	32.3361
315.822	31.7763
317.615	32.4511
319.406	34.0081
321.198	34.2205
322.987	33.9921
324.778	34.8835
326.568	34.975
328.358	34.0801
330.148	32.5568
331.935	30.9139
333.724	27.8139
335.513	26.7847
337.301	23.949
339.089	21.8649
340.875	21.1771
342.662	19.8505
344.449	19.9633
346.236	20.2302
348.02	19.9585
349.806	21.251
351.592	22.2857
353.375	24.2507
355.16	26.8459
356.944	29.7381
358.728	33.5094
360.51	38.4555
362.294	44.0224
364.077	47.0541
365.858	51.0651
367.64	55.6151
369.422	58.8759
371.202	62.3734
372.983	65.9541
374.764	70.3149
376.543	75.031
378.324	77.879
380.102	79.3313
381.881	81.163
383.661	82.1816
385.438	83.6716
387.216	84.5505
388.993	83.9651
390.771	82.8066
392.548	82.1278
394.324	80.1264
396.101	78.5624
397.875	76.6281
399.651	74.7618
401.425	74.2119
403.201	72.8914
404.974	69.3651
406.749	67.5593
408.524	63.7289
410.296	57.4598
412.07	53.2518
413.841	47.6462
415.614	40.7549
417.385	34.4047
419.156	28.7734
420.928	22.7791
422.698	17.7721
424.469	14.6043
426.238	11.2143
428.009	8.40783
429.777	6.4743
431.548	3.95762
433.315	2.96407
435.083	2.68064
436.852	2.66046
438.618	2.6387
440.387	1.08127
442.153	2.49518
443.919	2.72269
445.686	2.76098
447.451	4.48585
449.218	4.38124
450.982	4.98965
452.746	4.21123
454.512	5.16623
456.275	4.72921
458.038	4.7151
459.803	4.18541
461.565	3.4607
463.327	3.7765
465.091	3.82349
466.852	2.22454
468.613	0.957864
470.374	1.39215
472.136	1.93938
473.896	1.91046
475.655	2.98429
477.415	3.08761
479.176	6.01823
480.934	8.84213
482.692	10.322
484.45	15.5495
486.21	18.9506
487.967	24.2427
489.724	29.7249
491.481	33.3916
493.237	37.1287
494.995	41.6803
496.75	46.1502
498.506	50.1499
500.26	53.6076
502.015	57.2124
503.771	61.8531
505.525	67.1461
507.279	70.8447
509.032	75.2589
510.785	80.1176
512.537	84.2905
514.289	86.2121
516.041	88.1742
517.793	90.2377
519.546	91.8312
521.297	93.3718
523.047	92.2496
524.797	91.6295
526.547	89.3082
528.297	87.2729
530.046	85.7487
531.795	83.2085
533.543	81.2076
535.291	79.0717
537.039	75.4026
538.787	70.8858
540.534	65.859
542.281	61.0069
544.027	56.3329
545.773	52.232
547.519	46.8396
549.264	42.0536
551.01	38.0692
552.754	32.8957
554.499	28.0656
556.243	23.2638
557.987	20.9512
559.73	18.5994
561.474	16.2017
563.216	15.5158
564.959	13.558
566.701	14.9214
568.441	15.0011
570.182	14.7259
571.923	18.0476
573.664	18.5157
575.405	20.1947
577.145	19.3003
578.885	20.2479
580.624	21.5023
582.361	22.6604
584.1	23.2627
585.839	24.1427
587.577	24.8782
589.315	28.1118
591.052	28.6846
592.787	29.1912
594.524	30.9261
596.26	31.7331
597.997	32.8636
599.732	32.2744
601.466	31.4092
603.201	31.2572
604.936	30.8283
606.67	29.5286
608.403	27.9788
610.136	26.2919
611.87	26.9008
613.603	24.8699
615.334	24.6076
617.067	23.3721
618.799	21.7041
620.529	19.1552
622.26	17.7511
623.991	15.4254
625.72	13.7291
627.451	11.9615
629.181	10.8114
630.909	8.94001
632.638	6.70662
634.368	4.91793
636.095	4.20306
637.823	3.47695
639.551	3.5583
641.277	3.08247
643.005	2.65463
644.73	3.80415
646.457	5.27563
648.184	5.28604
649.908	6.70724
651.634	7.22246
653.357	8.3182
655.083	8.22786
656.806	7.41488
658.53	7.75655
660.253	8.07248
661.977	8.22862
663.7	8.95366
665.422	9.87474
667.145	9.95993
668.865	11.5633
670.588	13.0745
672.308	15.731
674.027	16.5281
675.749	18.1989
677.468	17.5986
679.188	19.2312
680.907	21.9518
682.627	22.9075
684.345	25.1005
686.064	26.4265
687.781	28.0027
689.498	29.271
691.216	31.5716
692.932	32.5578
694.65	34.6726
696.366	35.445
698.081	36.123
699.797	36.2941
701.512	36.298
703.228	36.5013
704.942	36.35
706.655	36.8139
708.371	37.4782
710.083	36.345
711.796	36.4002
713.51	36.1751
715.222	37.2136
716.934	35.8752
718.645	35.674
720.358	36.4652
722.068	37.3572
723.779	37.4235
725.49	37.0577
727.2	36.9083
728.909	38.2625
730.618	39.3426
732.329	41.8833
734.037	44.0152
735.745	48.697
737.453	53.3789
739.16	59.6988
740.869	67.7864
742.576	75.4218
744.282	84.2249
745.988	94.4788
747.694	104.392
749.401	115.358
751.107	125.816
752.811	136.93
754.516	147.998
756.22	158.244
757.924	167.057
759.627	174.748
761.332	183.46
763.035	190.613
764.738	198.535
766.44	206.072
768.142	211.555
769.843	215.185
771.544	219.957
773.245	222.467
774.946	225.348
776.646	226.752
778.346	226.945
780.046	225.749
781.745	224.169
783.444	221.381
785.143	220.002
786.841	217.05
788.539	212.9
790.237	208.435
791.934	201.987
793.631	197.157
795.328	191.299
797.024	185.373
798.72	176.6
800.416	168.341
802.112	159.494
803.807	152.304
805.502	146.395
807.196	139.688
808.89	132.266
810.584	124.387
812.278	119.143
813.971	115.425
815.664	112.23
817.354	109.602
819.047	107.968
820.739	105.94
822.43	105.334
824.122	107.224
825.813	109.35
827.503	108.665
829.192	109.643
830.882	109.936
832.571	110.267
834.261	109.881
835.95	110.564
837.637	108.327
839.325	109.064
841.013	106.596
842.701	104.795
844.389	104.271
846.074	103.579
847.761	102.814
849.447	101.419
851.131	99.8576
852.817	97.2999
854.503	96.3447
856.188	95.091
857.871	93.141
859.556	91.628
861.24	88.6969
862.922	86.5593
864.606	84.9892
866.289	84.9287
867.97	82.7957
869.653	82.3558
871.336	81.5552
873.016	79.272
874.698	78.3813
876.379	76.742
878.058	76.4008
879.739	74.1662
881.418	70.5519
883.098	68.8487
884.778	68.4091
886.456	68.4577
888.135	66.4152
889.812	63.8129
891.49	61.8718
893.167	59.5525
894.845	57.4416
896.523	57.8164
898.198	57.6656
899.875	57.0881
901.55	56.1403
903.226	56.0383
904.901	56.65
906.576	57.7684
908.25	58.5882
909.925	57.7509
911.598	56.2643
913.271	56.5391
914.945	55.2683
916.617	55.8003
918.291	54.7703
919.962	54.4268
921.635	51.5556
923.306	52.9899
924.978	51.5507
926.648	52.6809
928.318	51.93
929.989	51.1839
931.659	49.5042
933.328	47.9361
934.998	46.8179
936.666	46.0327
938.336	45.4357
940.004	43.2643
941.671	41.8833
943.34	39.7953
945.007	37.3658
946.673	37.1862
948.339	37.9073
950.007	36.9331
951.672	35.1047
953.337	34.6611
955.004	33.9111
956.669	31.5154
958.333	30.0949
959.997	27.394
961.662	25.2138
963.326	22.7983
964.989	18.5222
966.651	17.8535
968.315	15.3092
969.977	14.6027
971.639	13.1033
973.301	12.8442
974.962	12.8658
976.624	11.3148
978.285	10.7625
979.945	8.92524
981.605	5.69298
983.264	4.20061
984.924	1.55297
986.583	1.23466
988.243	1.64338
989.901	1.10613
991.56	1.89901
993.217	3.4757
994.875	4.15707
996.532	7.60735
998.188	10.0506
999.845	14.0945
1001.5	17.573
1003.16	21.8849
1004.81	26.3053
1006.47	32.0402
1008.12	36.9106
1009.78	43.044
1011.43	50.3522
1013.09	56.3301
1014.74	60.2865
1016.39	66.0447
1018.05	71.7869
1019.7	76.6331
1021.35	81.7415
1023	87.3048
1024.65	90.6627
1026.31	94.0501
1027.96	99.5811
1029.61	103.522
1031.26	105.653
1032.91	105.375
1034.56	105.832
1036.21	105.067
1037.86	104.548
1039.51	101.869
1041.16	100.42
1042.8	98.2146
1044.45	96.7173
1046.1	93.4542
1047.75	90.4746
1049.39	89.2407
1051.04	87.1163
1052.69	84.1636
1054.33	82.7707
1055.98	80.4964
1057.62	77.4607
1059.27	75.3559
1060.91	72.8622
1062.56	71.6311
1064.2	72.1829
1065.85	74.7914
1067.49	75.7136
1069.13	76.3745
1070.77	77.0355
1072.42	77.3135
1074.06	78.6445
1075.7	80.0945
1077.34	82.5035
1078.98	84.8004
1080.62	85.6271
1082.27	86.6438
1083.91	88.9892
1085.55	89.7903
1087.18	90.6867
1088.82	90.921
1090.46	90.8152
1092.1	89.6321
1093.74	88.1175
1095.38	84.9999
1097.02	82.1547
1098.65	81.2541
1100.29	79.9306
1101.93	77.9004
1103.56	76.3525
1105.2	72.1318
1106.84	66.9068
1108.47	63.5471
1110.11	58.6956
1111.74	51.3204
1113.38	46.0089
1115.01	40.1962
1116.64	35.3396
1118.28	29.323
1119.91	25.4709
1121.54	21.8838
1123.18	19.9634
1124.81	17.1512
1126.44	14.3637
1128.07	12.666
1129.7	10.3717
1131.33	9.67689
1132.97	8.5421
1134.6	7.84884
1136.23	10.8551
1137.86	10.8462
1139.49	10.6517
1141.11	12.1742
1142.74	12.2312
1144.37	15.1394
1146	15.0418
1147.63	15.209
1149.26	14.4876
1150.88	13.9361
1152.51	14.5668
1154.14	15.6511
1155.76	15.5685
1157.39	15.3877
1159.01	15.4889
1160.64	14.674
1162.27	14.7402
1163.89	13.2266
1165.51	15.0386
1167.14	13.7093
1168.76	13.0716
1170.39	13.2062
1172.01	13.7245
1173.63	14.1389
1175.25	15.6775
1176.88	15.0523
1178.5	13.8875
1180.12	15.3977
1181.74	15.5062
1183.36	16.2532
1184.98	15.5025
1186.6	14.1246
1188.22	15.2636
1189.84	15.0865
1191.46	14.4008
1193.08	15.4792
1194.7	15.6154
1196.32	14.9072
1197.94	15.3429
1199.55	16.4599
1201.17	17.953
1202.79	19.2091
1204.41	19.4742
1206.02	19.9112
1207.64	19.1776
1209.25	19.0719
1210.87	19.7421
1212.48	20.6012
1214.1	21.4732
1215.71	22.5084
1217.33	24.3236
1218.94	22.7359
1220.56	22.8252
1222.17	24.1568
1223.79	24.469
1225.4	26.7673
1227.01	26.538
1228.62	26.3434
1230.23	26.1239
1231.85	25.7472
1233.46	24.6444
1235.07	24.9775
1236.68	24.283
1238.29	26.0163
1239.9	27.2286
1241.51	27.7698
1243.12	28.2151
1244.73	29.2983
1246.34	30.1779
1247.94	29.0397
1249.55	28.9172
1251.16	29.4913
1252.77	30.1612
1254.37	30.8454
1255.98	31.8229
1257.59	30.5151
1259.2	31.9918
1260.8	34.7484
1262.41	33.9353
1264.01	35.1775
1265.62	36.3528
1267.22	38.8768
1268.83	39.4715
1270.43	40.3368
1272.03	41.2524
1273.64	41.4263
1275.24	40.5764
1276.85	41.7778
1278.45	43.3573
1280.05	44.8087
1281.65	45.6849
1283.25	46.166
1284.85	46.8079
1286.46	47.922
1288.06	48.3812
1289.66	50.6167
1291.26	52.0658
1292.86	51.3018
1294.46	52.3854
1296.06	52.4849
1297.66	52.5595
1299.25	52.9296
1300.85	53.6827
1302.45	54.703
1304.05	53.4337
1305.65	52.4326
1307.24	51.0599
1308.84	50.2002
1310.43	50.5568
1312.03	50.8619
1313.63	52.2574
1315.22	52.1332
1316.82	52.3046
1318.41	52.7393
1320.01	51.252
1321.6	49.0499
1323.2	48.2089
1324.79	47.5625
1326.38	46.3315
1327.98	45.6376
1329.57	45.9727
1331.16	45.6465
1332.76	46.3691
1334.35	46.3866
1335.94	45.4869
1337.53	44.4519
1339.12	45.6942
1340.71	45.7875
1342.3	46.0808
1343.89	47.5557
1345.48	47.8739
1347.07	47.7381
1348.66	45.213
1350.25	44.1718
1351.84	43.6183
1353.43	44.0901
1355.01	43.2048
1356.6	42.6649
1358.19	41.6032
1359.77	40.0312
1361.36	39.1249
1362.95	37.5133
1364.53	36.7304
1366.12	35.6811
1367.71	35.038
1369.29	34.3734
1370.88	32.8468
1372.46	30.735
1374.04	29.647
1375.63	30.6693
1377.21	30.5744
1378.8	29.7337
1380.38	28.5882
1381.96	28.4342
1383.54	27.0256
1385.13	28.0357
1386.71	28.7383
1388.29	28.3422
1389.87	27.0912
1391.45	28.0463
1393.03	27.6789
1394.61	26.4728
1396.19	28.0966
1397.77	29.8078
1399.35	29.9731
1400.93	30.479
1402.51	32.0182
1404.09	34.0254
1405.67	34.4641
1407.24	36.2888
1408.82	38.7773
1410.4	41.7654
1411.98	45.583
1413.55	49.1057
1415.13	52.3809
1416.71	55.7291
1418.28	60.7298
1419.86	62.5855
1421.43	66.6322
1423.01	68.923
1424.58	71.6681
1426.16	75.2747
1427.73	77.7651
1429.31	81.9707
1430.88	85.6857
1432.45	86.6446
1434.02	86.8216
1435.6	88.9355
1437.17	89.5464
1438.74	90.6165
1440.31	92.1593
1441.88	90.7682
1443.45	91.3353
1445.03	90.136
1446.6	89.6303
1448.17	89.7725
1449.74	89.5337
1451.3	88.2063
1452.87	89.1538
1454.44	88.5913
1456.01	86.5043
1457.58	84.2488
1459.15	83.7647
1460.72	81.6272
1462.28	80.6607
1463.85	79.9057
1465.42	77.2058
1466.98	76.3931
1468.55	74.9861
1470.12	73.9814
1471.68	72.6732
1473.25	70.6873
1474.81	67.637
1476.38	66.2545
1477.94	63.5901
1479.51	60.5046
1481.07	58.5801
1482.63	57.809
1484.2	54.2635
1485.76	54.1866
1487.32	52.978
1488.88	52.217
1490.45	51.3885
1492.01	49.6822
1493.57	47.9188
1495.13	45.9886
1496.69	45.3263
1498.25	42.6012
1499.81	42.4813
1501.37	40.4656
1502.93	39.9157
1504.49	38.0969
1506.05	35.3679
1507.61	32.559
1509.17	29.6688
1510.73	25.8357
1512.28	23.56
1513.84	20.1811
1515.4	16.6662
1516.96	14.6661
1518.51	10.9349
1520.07	8.66171
1521.63	7.84642
1523.18	5.47405
1524.74	4.97798
1526.29	5.01701
1527.85	1.97172
1529.4	1.26573
1530.96	1.99863
1532.51	2.373
1534.06	3.03147
1535.62	4.15562
1537.17	4.24469
1538.72	5.26954
1540.28	7.5959
1541.83	9.1019
1543.38	9.98829
1544.93	12.7057
1546.48	12.7199
1548.03	14.3035
1549.59	17.7043
1551.14	18.4572
1552.69	21.5192
1554.24	24.8833
1555.79	25.7096
1557.34	26.7346
1558.88	30.5078
1560.43	31.6889
1561.98	32.9723
1563.53	36.4856
1565.08	40.1468
1566.62	43.1886
1568.17	45.2602
1569.72	46.7977
1571.27	49.2814
1572.81	49.5502
1574.36	51.2451
1575.9	51.2789
1577.45	52.2526
1579	53.7302
1580.54	54.0513
1582.09	55.3697
1583.63	55.9226
1585.17	56.9121
1586.72	58.5048
1588.26	56.9605
1589.8	56.6524
1591.35	57.2403
1592.89	57.612
1594.43	57.6006
1595.97	56.1667
1597.52	56.9004
1599.06	55.4274
1600.6	53.5586
1602.14	53.4535
1603.68	53.5894
1605.22	52.5798
1606.76	54.0929
1608.3	53.6694
1609.84	54.3324
1611.38	53.1167
1612.92	53.556
1614.46	52.3264
1615.99	54.0485
1617.53	54.2921
1619.07	55.2828
1620.61	55.3107
1622.14	55.7978
1623.68	55.595
1625.22	56.5332
1626.75	57.1554
1628.29	56.5882
1629.82	55.1565
1631.36	54.5378
1632.9	55.6663
1634.43	55.9029
1635.96	56.7695
1637.5	55.0112
1639.03	55.2551
1640.57	56.6392
1642.1	56.3648
1643.63	54.8183
1645.16	53.5924
1646.7	52.6998
1648.23	52.4473
1649.76	51.7129
1651.29	52.385
1652.82	52.781
1654.36	54.6685
1655.89	54.8822
1657.42	54.9398
1658.95	55.7409
1660.48	54.3071
1662.01	53.1241
1663.53	53.1458
1665.06	50.1414
1666.59	49.7409
1668.12	49.0257
1669.65	48.0373
1671.18	46.4874
1672.7	45.9829
1674.23	45.5422
1675.76	44.2872
1677.29	42.9246
1678.81	42.5327
1680.34	39.9073
1681.86	39.5281
1683.39	38.725
1684.91	36.574
1686.44	36.3785
1687.96	33.4544
1689.49	33.126
1691.01	32.033
1692.54	32.0064
1694.06	31.2774
1695.58	30.2335
1697.11	28.278
1698.63	25.9928
1700.15	25.4472
1701.67	23.5441
1703.2	22.5004
1704.72	20.0251
1706.24	19.0838
1707.76	18.482
1709.28	17.1502
1710.8	13.3152
1712.32	12.5405
1713.84	10.2868
1715.36	10.7455
1716.88	11.5923
1718.4	10.4604
1719.91	10.0315
1721.43	8.79787
1722.95	7.9808
1724.47	8.25751
1725.99	7.72298
1727.5	7.62989
1729.02	7.21308
1730.54	6.39007
1732.05	4.81492
1733.57	5.30161
1735.09	5.07522
1736.6	4.14045
1738.12	4.71707
1739.63	4.68561
1741.15	2.91676
1742.66	3.39317
1744.18	3.66746
1745.69	5.18896
1747.2	4.92438
1748.72	5.13155
1750.23	4.60423
1751.74	4.69875
1753.25	3.68202
1754.77	3.53783
1756.28	4.2983
1757.79	5.43977
1759.3	4.58158
1760.81	4.67567
1762.32	5.85184
1763.83	6.76907
1765.34	7.44283
1766.85	8.25568
1768.36	8.91962
1769.87	9.29427
1771.38	8.97936
1772.89	9.23163
1774.4	9.23771
1775.91	10.8503
1777.41	11.0524
1778.92	12.2596
1780.43	12.0576
1781.94	13.5222
1783.44	13.8836
1784.95	14.8856
1786.45	15.116
1787.96	16.5339
1789.47	17.1807
1790.97	19.0146
1792.48	19.4212
1793.98	18.9132
1795.48	19.3903
1796.99	19.092
1798.49	20.0734
1800	20.7318
1801.5	21.2787
1803	22.0058
1804.51	22.5759
1806.01	22.7719
1807.51	23.9519
1809.01	25.0821
1810.51	24.4296
1812.02	23.7941
1813.52	23.6708
1815.02	22.8579
1816.52	22.6652
1818.02	22.8736
1819.52	22.2295
1821.02	22.1347
1822.52	21.7759
1824.02	20.6338
1825.51	20.5216
1827.01	20.0235
1828.51	19.6849
1830.01	20.5883
1831.51	21.2348
1833	20.5837
1834.5	19.7582
1836	20.2237
1837.5	20.3032
1838.99	20.7703
1840.49	19.6019
1841.98	20.3139
1843.48	18.8873
1844.97	18.868
1846.47	18.7432
1847.96	18.5382
1849.46	18.3068
1850.95	18.6397
1852.45	18.8627
1853.94	18.8713
1855.43	18.3589
1856.92	18.4058
1858.42	18.117
1859.91	18.3179
1861.4	18.7779
1862.89	19.7469
1864.39	21.0042
1865.88	22.24
1867.37	22.3851
1868.86	23.7819
1870.35	23.7154
1871.84	24.01
1873.33	24.9826
1874.82	25.7014
1876.31	26.4559
1877.8	26.8964
1879.29	27.5952
1880.77	26.8013
1882.26	27.4013
1882.51	27.5218
1884	25.885
1885.5	25.9443
1886.99	25.1514
1888.48	25.0834
1889.98	24.6461
1891.47	25.2184
1892.97	24.6508
1894.46	25.5727
1895.95	25.1332
1897.44	24.3174
1898.93	25.1017
1900.42	24.2535
1901.92	24.0826
1903.41	22.5737
1904.9	21.2159
1906.39	20.2667
1907.88	20.3936
1909.37	21.1302
1910.86	20.0114
1912.35	18.4145
1913.84	16.7324
1915.32	14.943
1916.81	13.9839
1918.3	14.2212
1919.79	13.8744
1921.28	12.6588
1922.76	11.8922
1924.25	10.5555
1925.74	10.3267
1927.22	8.78784
1928.71	7.15399
1930.2	6.98628
1931.68	7.16611
1933.17	8.45684
1934.65	8.53011
1936.14	9.00054
1937.62	8.57513
1939.11	8.42091
1940.59	8.34851
1942.08	8.10689
1943.56	6.9587
1945.04	7.29304
1946.53	6.28116
1948.01	6.24551
1949.49	6.34406
1950.97	6.84408
1952.45	6.75865
1953.94	6.48628
1955.42	7.09878
1956.9	7.88019
1958.38	6.88887
1959.86	8.16919
1961.34	7.75689
1962.82	9.59697
1964.3	8.70274
1965.78	9.16477
1967.26	8.11972
1968.74	9.05351
1970.22	7.3764
1971.69	7.60054
1973.17	7.50758
1974.65	7.00182
1976.13	7.30165
1977.61	5.56516
1979.08	5.47244
1980.56	5.13645
1982.03	4.75305
1983.51	3.19915
1984.99	2.20252
1986.46	1.51653
1987.94	2.84385
1989.41	2.17504
1990.89	3.28026
1992.36	3.02678
1993.84	2.73008
1995.31	2.09695
1996.78	1.99786
1998.26	1.91376
1999.73	3.21045
2001.2	2.02665
2002.68	1.17054
2004.15	1.37297
2005.62	2.1395
2007.09	2.26086
2008.56	1.6795
2010.04	1.50045
2011.51	0.823235
2012.98	1.54656
2014.45	1.60357
2015.92	1.2863
2017.39	1.04663
2018.86	1.85275
2020.33	4.19761
2021.8	6.79639
2023.27	7.97146
2024.74	8.85733
2026.2	9.7668
2027.67	11.1359
2029.14	13.0784
2030.61	12.9233
2032.07	13.4365
2033.54	15.1373
2035.01	15.1006
2036.47	16.4904
2037.94	16.5603
2039.41	18.552
2040.87	18.8431
2042.34	20.6951
2043.8	20.4308
2045.27	21.1619
2046.73	21.8645
2048.2	22.7501
2049.66	22.4223
2051.12	22.429
2052.59	23.7275
2054.05	25.3129
2055.51	26.0937
2056.98	26.6332
2058.44	28.4452
2059.9	28.8647
2061.36	29.2392
2062.82	29.0982
2064.29	29.3978
2065.75	28.9397
2067.21	29.9746
2068.67	31.0659
2070.13	31.5101
2071.59	30.5306
2073.05	31.1435
2074.51	31.0456
2075.97	31.1127
2077.43	32.6377
2078.88	35.229
2080.34	36.4844
2081.8	37.5702
2083.26	39.3211
2084.72	40.868
2086.17	43.3409
2087.63	45.2627
2089.09	47.4504
2090.54	49.3163
2092	53.2746
2093.46	55.4846
2094.91	56.819
2096.37	57.2811
2097.82	60.3426
2099.28	63.1848
2100.73	65.5373
2102.19	68.4606
2103.64	69.3066
2105.09	71.5487
2106.55	73.584
2108	74.8183
2109.46	76.1956
2110.91	78.2706
2112.36	79.8427
2113.81	81.8048
2115.27	83.3766
2116.72	84.673
2118.17	85.8278
2119.62	88.3405
2121.07	89.1721
2122.52	90.5624
2123.97	93.1374
2125.42	96.1052
2126.87	97.5433
2128.32	97.8462
2129.77	99.668
2131.22	101.709
2132.67	102.761
2134.12	103.131
2135.57	106.585
