#Acq. time (s)=	45
#Accumulations=	2
#Range (cm-¹)=	200...3150
#Windows=	2
#Auto scanning=	Off
#Autofocus=	Off
#Macrospot=	Off
#AutoExposure=	Off
#Spike filter=	Multiple accum.
#Delay time (s)=	0
#Binning=	1
#Readout mode=	Signal
#DeNoise=	Off
#ICS correction=	On
#Dark correction=	Off
#Inst. Process=	Off
#Detector Gain=	Best Dynamic Range
#Detector ADC=	20 kHz       
#Detector temperature (°C)=	-69.85
#Instrument=	LabRAM HR Evol
#Detector=	Synapse
#Objective=	x100
#Grating=	600 gr/mm
#ND Filter=	100%
#Laser (nm)=	532 
#Hole=	100.021
#Range=	Auto
#Laser Pol.=	No
#Raman. Pol.=	No
#Laser Pol. (°)=	-0.0007625
#Raman Pol. (°)=	89.9995
#Collection=	Microscope
#StageXY=	Marzhauser
#StageZ=	Marzhauser
#X (µm)=	28233.8
#Y (µm)=	-3245.5
#Z (µm)=	1040.6
#Full time(mm:ss)=	3:19
#Project=	
#Sample=	
#Site=	
#Title=	Mb_50_18_41_2x_45s_532 nm_x100_100%_600 gr_mm
#Remark=	
#Date=	12.07.2022 14:10
#Acquired=	12.07.2022 14:10:39
#Base:Fit=	10.08.2022 10:49:18
#Base:Sub=	10.08.2022 10:49:30
#Filter:Polynom=	16.08.2022 10:14:59
#AxisType[0]=Intens
#AxisUnit[0]=Cnt
#AxisType[1]=Spectr
#AxisUnit[1]=1/cm
200.388	0.761814
202.204	4.56077
204.019	7.75688
205.832	8.59503
207.646	9.16431
209.459	9.39685
211.274	9.3761
213.087	9.05315
214.899	8.12869
216.711	7.60635
218.524	7.66375
220.335	8.33877
222.146	7.78401
223.956	8.54036
225.766	8.47864
227.576	8.60666
229.388	8.84758
231.197	9.9581
233.005	10.3314
234.813	10.3629
236.621	10.1034
238.429	10.4985
240.236	10.7056
242.045	10.0584
243.852	9.78428
245.658	10.3324
247.464	10.5596
249.269	9.78815
251.074	9.77509
252.879	10.4822
254.683	9.26347
256.487	9.70685
258.291	9.92455
260.094	9.27104
261.897	9.15013
263.702	9.50403
265.504	8.66513
267.306	9.08331
269.108	9.62953
270.909	10.2364
272.71	9.87818
274.511	9.22626
276.311	9.56498
278.111	8.348
279.91	8.63172
281.709	9.01398
283.508	9.23695
285.306	9.7489
287.105	9.55645
288.9	8.89675
290.698	9.61843
292.495	9.46649
294.291	9.30923
296.088	10.1903
297.884	10.9471
299.679	11.7161
301.475	12.4764
303.27	12.916
305.064	13.9928
306.858	14.8497
308.652	15.9943
310.444	16.7742
312.237	16.8832
314.03	17.9838
315.822	19.0664
317.615	20.9975
319.406	21.975
321.198	22.1535
322.987	21.9993
324.778	21.7245
326.568	21.6379
328.358	21.303
330.148	20.3336
331.935	19.0719
333.724	18.5011
335.513	18.8394
337.301	18.2502
339.089	17.6979
340.875	17.9042
342.662	17.555
344.449	17.6483
346.236	18.5564
348.02	19.42
349.806	19.8004
351.592	20.9072
353.375	21.5218
355.16	22.72
356.944	24.1755
358.728	24.2832
360.51	25.6821
362.294	26.1769
364.077	28.3521
365.858	29.2847
367.64	30.3889
369.422	32.8567
371.202	33.326
372.983	34.7366
374.764	36.4292
376.543	38.36
378.324	39.7396
380.102	42.1792
381.881	43.6218
383.661	44.7291
385.438	46.4087
387.216	47.4893
388.993	47.9179
390.771	48.0846
392.548	48.2102
394.324	48.2127
396.101	47.6984
397.875	48.2043
399.651	47.1456
401.425	45.7453
403.201	45.0452
404.974	43.9349
406.749	41.7214
408.524	38.6577
410.296	35.4469
412.07	33.0937
413.841	29.5815
415.614	26.725
417.385	23.856
419.156	21.1532
420.928	18.2409
422.698	16.627
424.469	15.3443
426.238	13.5675
428.009	11.2747
429.777	9.52336
431.548	8.46648
433.315	7.52544
435.083	6.24645
436.852	5.79994
438.618	4.07362
440.387	3.31099
442.153	2.72364
443.919	2.78211
445.686	3.04787
447.451	4.0331
449.218	4.86547
450.982	4.98834
452.746	5.50507
454.512	5.34076
456.275	6.34379
458.038	6.54175
459.803	7.18412
461.565	8.35174
463.327	9.29831
465.091	9.91726
466.852	10.6135
468.613	12.1373
470.374	12.8998
472.136	14.0843
473.896	15.612
475.655	16.8721
477.415	18.0897
479.176	19.2766
480.934	21.7486
482.692	24.1458
484.45	26.1213
486.21	28.0917
487.967	29.6433
489.724	31.4274
491.481	33.0038
493.237	35.125
494.995	36.631
496.75	37.6356
498.506	39.0831
500.26	40.4208
502.015	41.3559
503.771	41.9116
505.525	42.476
507.279	41.9748
509.032	42.3522
510.785	43.1256
512.537	42.7643
514.289	43.23
516.041	42.198
517.793	42.7918
519.546	43.1107
521.297	42.6507
523.047	41.8282
524.797	41.0287
526.547	40.1568
528.297	39.7749
530.046	39.6881
531.795	39.2123
533.543	38.9342
535.291	37.2162
537.039	35.7152
538.787	33.9498
540.534	31.9666
542.281	29.5889
544.027	26.9468
545.773	24.6554
547.519	22.8877
549.264	20.0138
551.01	18.5159
552.754	17.0839
554.499	16.2
556.243	15.4411
557.987	14.6056
559.73	14.0146
561.474	13.5847
563.216	12.5385
564.959	11.9664
566.701	12.7479
568.441	14.3583
570.182	14.1365
571.923	14.0496
573.664	14.461
575.405	13.6035
577.145	13.3712
578.885	13.0214
580.624	13.7615
582.361	12.3448
584.1	11.793
585.839	12.0883
587.577	10.707
589.315	9.92884
591.052	9.59808
592.787	9.05074
594.524	7.9184
596.26	9.08958
597.997	8.66119
599.732	8.6434
601.466	8.39989
603.201	7.09954
604.936	6.8117
606.67	6.56114
608.403	5.72614
610.136	5.03529
611.87	5.49541
613.603	5.26034
615.334	4.76243
617.067	4.85043
618.799	4.57891
620.529	4.24997
622.26	2.97677
623.991	2.55395
625.72	1.71491
627.451	2.03693
629.181	2.15146
630.909	2.50043
632.638	3.59244
634.368	3.77255
636.095	3.30083
637.823	4.18301
639.551	4.21707
641.277	4.32365
643.005	4.91322
644.73	5.12103
646.457	6.45105
648.184	6.62113
649.908	7.18407
651.634	8.23195
653.357	9.3394
655.083	9.93971
656.806	9.52384
658.53	9.80521
660.253	10.6488
661.977	9.997
663.7	9.92765
665.422	10.1053
667.145	10.3253
668.865	10.3127
670.588	10.8837
672.308	11.1794
674.027	10.6843
675.749	12.2627
677.468	12.8449
679.188	12.2341
680.907	13.009
682.627	13.8861
684.345	13.4263
686.064	14.0427
687.781	14.455
689.498	15.0373
691.216	15.9258
692.932	17.1866
694.65	17.4531
696.366	17.1625
698.081	18.366
699.797	18.4843
701.512	19.1475
703.228	19.9544
704.942	20.2993
706.655	20.2736
708.371	20.6692
710.083	22.6691
711.796	23.8964
713.51	24.1949
715.222	24.4399
716.934	24.9712
718.645	26.1099
720.358	26.1159
722.068	26.3588
723.779	27.5758
725.49	27.2742
727.2	27.826
728.909	28.8735
730.618	29.5881
732.329	29.6679
734.037	30.3021
735.745	31.888
737.453	34.7847
739.16	36.5442
740.869	38.7169
742.576	42.2335
744.282	45.2921
745.988	48.4962
747.694	50.2114
749.401	53.666
751.107	56.8514
752.811	59.3345
754.516	63.0823
756.22	65.2705
757.924	67.783
759.627	70.8458
761.332	74.1296
763.035	77.1747
764.738	78.8053
766.44	81.0019
768.142	83.827
769.843	85.6133
771.544	87.968
773.245	89.1828
774.946	89.4723
776.646	89.8807
778.346	89.4871
780.046	89.3451
781.745	88.2524
783.444	87.9495
785.143	87.6458
786.841	86.8346
788.539	86.5942
790.237	85.7677
791.934	84.8466
793.631	84.1982
795.328	82.9849
797.024	80.4644
798.72	78.7697
800.416	78.0595
802.112	75.8366
803.807	74.4684
805.502	73.6545
807.196	71.9779
808.89	70.0071
810.584	68.6909
812.278	67.5117
813.971	66.3101
815.664	65.271
817.354	64.2283
819.047	63.9915
820.739	63.5141
822.43	63.4475
824.122	61.7051
825.813	61.8637
827.503	61.3486
829.192	59.4335
830.882	59.1409
832.571	57.5279
834.261	56.1136
835.95	54.4779
837.637	53.3817
839.325	52.1347
841.013	50.6403
842.701	49.2468
844.389	47.6093
846.074	46.4983
847.761	45.654
849.447	43.5104
851.131	41.4476
852.817	40.6937
854.503	38.4598
856.188	37.9462
857.871	36.0115
859.556	34.9733
861.24	33.4683
862.922	32.4755
864.606	31.6289
866.289	30.4184
867.97	30.188
869.653	30.284
871.336	29.0456
873.016	29.1233
874.698	29.3061
876.379	28.7639
878.058	28.4646
879.739	27.8993
881.418	27.6216
883.098	28.2065
884.778	28.5069
886.456	28.3757
888.135	30.1016
889.812	30.5551
891.49	29.2713
893.167	30.3215
894.845	30.7025
896.523	29.5357
898.198	28.8467
899.875	29.2954
901.55	29.6078
903.226	29.6324
904.901	30.0477
906.576	30.0784
908.25	29.5588
909.925	29.9411
911.598	28.9959
913.271	28.6997
914.945	28.2373
916.617	26.6217
918.291	26.0337
919.962	25.6286
921.635	24.9781
923.306	24.2689
924.978	23.8498
926.648	21.7863
928.318	21.3703
929.989	21.4811
931.659	20.8929
933.328	19.0488
934.998	17.6031
936.666	17.9228
938.336	16.8571
940.004	15.9416
941.671	13.7705
943.34	12.622
945.007	11.7076
946.673	10.2878
948.339	9.1547
950.007	8.48004
951.672	7.25518
953.337	6.35892
955.004	6.05919
956.669	5.43692
958.333	4.46722
959.997	3.49803
961.662	3.86937
963.326	3.50687
964.989	3.45492
966.651	3.9166
968.315	4.2718
969.977	4.21589
971.639	4.6041
973.301	4.68746
974.962	4.7644
976.624	4.70667
978.285	3.90643
979.945	3.85228
981.605	4.13804
983.264	4.33691
984.924	3.1353
986.583	3.0004
988.243	1.99683
989.901	3.20937
991.56	3.6898
993.217	4.07852
994.875	4.66927
996.532	5.87346
998.188	6.39982
999.845	8.02724
1001.5	9.9986
1003.16	11.4023
1004.81	13.8624
1006.47	15.3077
1008.12	16.8287
1009.78	17.7858
1011.43	19.8585
1013.09	20.9001
1014.74	21.79
1016.39	22.0833
1018.05	24.2218
1019.7	25.8924
1021.35	27.2451
1023	28.9462
1024.65	29.4456
1026.31	30.911
1027.96	31.915
1029.61	31.2116
1031.26	32.4097
1032.91	32.5718
1034.56	32.1096
1036.21	32.5424
1037.86	32.3125
1039.51	31.2206
1041.16	30.8489
1042.8	30.4064
1044.45	29.3935
1046.1	28.7633
1047.75	28.3247
1049.39	28.0392
1051.04	26.675
1052.69	25.2544
1054.33	23.9756
1055.98	22.6276
1057.62	21.2335
1059.27	20.0258
1060.91	20.1471
1062.56	19.2811
1064.2	17.9112
1065.85	17.7187
1067.49	17.9341
1069.13	17.6279
1070.77	16.341
1072.42	16.9153
1074.06	16.727
1075.7	17.6835
1077.34	17.9579
1078.98	18.221
1080.62	18.1598
1082.27	19.6828
1083.91	19.3555
1085.55	19.5012
1087.18	19.6114
1088.82	19.8158
1090.46	20.1753
1092.1	20.5876
1093.74	21.3126
1095.38	21.3863
1097.02	21.221
1098.65	21.3743
1100.29	21.6677
1101.93	21.229
1103.56	20.7119
1105.2	20.1727
1106.84	19.5549
1108.47	19.0515
1110.11	18.7658
1111.74	17.8178
1113.38	16.752
1115.01	15.3335
1116.64	14.2238
1118.28	13.9952
1119.91	12.4141
1121.54	11.8179
1123.18	11.9673
1124.81	11.2029
1126.44	11.192
1128.07	11.3968
1129.7	10.5844
1131.33	10.0789
1132.97	9.77884
1134.6	8.95157
1136.23	8.61216
1137.86	8.54157
1139.49	9.17637
1141.11	8.68292
1142.74	8.46189
1144.37	7.77081
1146	7.28798
1147.63	7.0251
1149.26	4.8308
1150.88	3.82402
1152.51	3.54347
1154.14	4.06849
1155.76	3.72543
1157.39	2.8939
1159.01	1.26993
1160.64	0.791895
1162.27	0.360199
1163.89	1.02116
1165.51	1.2648
1167.14	1.73666
1168.76	1.70429
1170.39	3.20154
1172.01	2.65804
1173.63	2.0606
1175.25	1.19885
1176.88	-0.042923
1178.5	-0.550367
1180.12	0.211506
1181.74	0.136591
1183.36	0.484416
1184.98	1.08672
1186.6	1.16636
1188.22	1.72141
1189.84	1.36184
1191.46	2.44395
1193.08	2.68125
1194.7	3.00205
1196.32	4.60406
1197.94	5.13119
1199.55	5.54622
1201.17	5.63591
1202.79	6.03582
1204.41	6.65893
1206.02	6.09874
1207.64	7.24089
1209.25	7.76678
1210.87	8.12608
1212.48	9.4675
1214.1	9.48685
1215.71	8.87645
1217.33	9.93776
1218.94	10.5125
1220.56	12.261
1222.17	13.0863
1223.79	14.0953
1225.4	15.3284
1227.01	15.8277
1228.62	16.1424
1230.23	16.1358
1231.85	17.5482
1233.46	17.2291
1235.07	17.8194
1236.68	18.5208
1238.29	19.9122
1239.9	20.1596
1241.51	20.7717
1243.12	21.9595
1244.73	22.8586
1246.34	23.0113
1247.94	22.68
1249.55	22.9482
1251.16	23.5908
1252.77	22.6501
1254.37	22.119
1255.98	21.0008
1257.59	20.4875
1259.2	21.2061
1260.8	21.33
1262.41	21.2315
1264.01	21.7965
1265.62	23.6207
1267.22	24.0385
1268.83	25.3179
1270.43	26.3839
1272.03	28.1785
1273.64	28.1724
1275.24	28.9548
1276.85	29.1932
1278.45	29.4444
1280.05	30.3281
1281.65	31.0501
1283.25	31.0166
1284.85	32.4945
1286.46	33.4804
1288.06	34.8277
1289.66	36.1377
1291.26	37.2026
1292.86	38.2783
1294.46	38.7221
1296.06	39.5611
1297.66	40.1264
1299.25	40.53
1300.85	42.1159
1302.45	42.8639
1304.05	42.8118
1305.65	44.098
1307.24	44.3616
1308.84	44.8034
1310.43	44.3784
1312.03	44.3333
1313.63	44.9485
1315.22	45.9546
1316.82	46.3449
1318.41	45.6511
1320.01	44.9384
1321.6	45.2263
1323.2	45.1155
1324.79	45.3155
1326.38	45.0236
1327.98	44.4814
1329.57	42.8724
1331.16	41.9857
1332.76	40.6239
1334.35	39.2745
1335.94	38.2903
1337.53	38.2416
1339.12	38.2998
1340.71	37.4063
1342.3	37.9222
1343.89	38.0632
1345.48	38.4108
1347.07	36.5259
1348.66	36.2229
1350.25	36.2956
1351.84	36.2221
1353.43	35.7016
1355.01	36.5057
1356.6	36.2769
1358.19	37.213
1359.77	36.6311
1361.36	36.4701
1362.95	36.4283
1364.53	37.0092
1366.12	36.9823
1367.71	36.595
1369.29	36.6721
1370.88	36.0737
1372.46	35.5531
1374.04	34.4555
1375.63	33.7915
1377.21	33.4381
1378.8	33.0199
1380.38	32.9499
1381.96	32.386
1383.54	31.6015
1385.13	31.8455
1386.71	30.3364
1388.29	29.226
1389.87	28.4136
1391.45	27.7415
1393.03	27.5323
1394.61	26.2043
1396.19	24.834
1397.77	24.3891
1399.35	24.7975
1400.93	24.7112
1402.51	24.4181
1404.09	24.8209
1405.67	24.5967
1407.24	24.7903
1408.82	24.5537
1410.4	24.9247
1411.98	24.9099
1413.55	25.6041
1415.13	26.9213
1416.71	28.1685
1418.28	29.218
1419.86	31.5091
1421.43	34.0898
1423.01	35.7255
1424.58	37.9151
1426.16	40.1229
1427.73	42.2804
1429.31	44.7972
1430.88	47.3795
1432.45	48.6248
1434.02	51.4241
1435.6	52.9971
1437.17	55.4527
1438.74	56.3264
1440.31	58.3078
1441.88	59.4075
1443.45	61.0854
1445.03	62.3537
1446.6	62.9961
1448.17	63.7346
1449.74	63.7617
1451.3	64.261
1452.87	63.7511
1454.44	64.8792
1456.01	64.766
1457.58	64.0614
1459.15	65.1059
1460.72	65.9868
1462.28	66.3061
1463.85	65.9453
1465.42	65.0603
1466.98	64.7431
1468.55	65.0404
1470.12	64.6497
1471.68	64.4185
1473.25	64.6619
1474.81	64.1258
1476.38	64.3112
1477.94	62.8446
1479.51	61.4336
1481.07	60.5639
1482.63	59.7158
1484.2	58.4304
1485.76	56.6272
1487.32	54.9969
1488.88	53.8897
1490.45	52.9709
1492.01	52.2014
1493.57	51.4987
1495.13	50.3791
1496.69	48.8398
1498.25	48.1118
1499.81	46.6609
1501.37	45.2019
1502.93	43.6882
1504.49	42.494
1506.05	39.5323
1507.61	38.1699
1509.17	37.1554
1510.73	35.0025
1512.28	34.7736
1513.84	32.8709
1515.4	31.1093
1516.96	28.9506
1518.51	27.7491
1520.07	26.2319
1521.63	25.2792
1523.18	23.1561
1524.74	22.2858
1526.29	21.6211
1527.85	20.9358
1529.4	20.6771
1530.96	19.7641
1532.51	20.7357
1534.06	20.11
1535.62	19.7176
1537.17	21.0574
1538.72	21.0701
1540.28	21.2309
1541.83	21.2463
1543.38	21.8782
1544.93	22.2366
1546.48	22.8287
1548.03	22.6382
1549.59	22.2947
1551.14	22.3329
1552.69	21.2925
1554.24	21.0865
1555.79	21.1497
1557.34	21.7967
1558.88	22.256
1560.43	22.7404
1561.98	22.8695
1563.53	23.7428
1565.08	24.3757
1566.62	25.9879
1568.17	26.5328
1569.72	27.6042
1571.27	29.0408
1572.81	31.0496
1574.36	32.4366
1575.9	33.2541
1577.45	35.1987
1579	37.2167
1580.54	39.0373
1582.09	40.1591
1583.63	39.8049
1585.17	41.2991
1586.72	42.9599
1588.26	43.4491
1589.8	44.8156
1591.35	44.9519
1592.89	45.2672
1594.43	46.3548
1595.97	46.3169
1597.52	46.5704
1599.06	47.2758
1600.6	47.8381
1602.14	48.5973
1603.68	47.8893
1605.22	47.3515
1606.76	47.3619
1608.3	47.2138
1609.84	47.1222
1611.38	46.9575
1612.92	46.697
1614.46	46.924
1615.99	47.1716
1617.53	46.9686
1619.07	46.547
1620.61	46.0846
1622.14	45.8348
1623.68	45.339
1625.22	45.485
1626.75	45.6047
1628.29	45.8026
1629.82	45.8445
1631.36	46.1053
1632.9	45.9731
1634.43	46.1343
1635.96	47.1036
1637.5	47.7978
1639.03	48.5529
1640.57	49.286
1642.1	49.8591
1643.63	50.6423
1645.16	50.5363
1646.7	51.2283
1648.23	52.2908
1649.76	52.7619
1651.29	52.1962
1652.82	51.7538
1654.36	52.4813
1655.89	51.5708
1657.42	50.2692
1658.95	48.9533
1660.48	48.5653
1662.01	48.1841
1663.53	46.9095
1665.06	45.6012
1666.59	44.5468
1668.12	43.5521
1669.65	42.6389
1671.18	41.449
1672.7	39.745
1674.23	40.1392
1675.76	38.2351
1677.29	36.7365
1678.81	34.163
1680.34	32.6217
1681.86	31.1281
1683.39	28.6492
1684.91	27.0333
1686.44	25.3633
1687.96	24.4016
1689.49	22.591
1691.01	21.0236
1692.54	20.2713
1694.06	18.4806
1695.58	17.4625
1697.11	16.4763
1698.63	15.595
1700.15	14.2118
1701.67	13.4215
1703.2	12.7279
1704.72	11.0958
1706.24	10.2261
1707.76	9.60858
1709.28	9.06932
1710.8	9.1563
1712.32	8.6124
1713.84	7.63909
1715.36	7.24911
1716.88	6.14989
1718.4	5.92468
1719.91	5.49807
1721.43	5.27275
1722.95	5.28873
1724.47	5.48091
1725.99	5.48617
1727.5	6.00597
1729.02	5.86598
1730.54	5.96099
1732.05	5.94953
1733.57	6.35364
1735.09	6.63555
1736.6	7.73898
1738.12	7.94568
1739.63	8.10651
1741.15	8.88501
1742.66	9.35575
1744.18	9.78016
1745.69	9.47646
1747.2	9.66947
1748.72	9.55992
1750.23	9.79954
1751.74	8.15638
1753.25	8.42815
1754.77	7.61049
1756.28	7.95994
1757.79	7.02841
1759.3	6.83708
1760.81	7.71516
1762.32	7.50659
1763.83	7.17085
1765.34	6.2224
1766.85	5.32561
1768.36	5.69351
1769.87	5.14864
1771.38	5.11317
1772.89	4.85068
1774.4	4.31376
1775.91	4.15771
1777.41	4.08077
1778.92	3.95919
1780.43	3.30273
1781.94	3.65091
1783.44	3.1699
1784.95	3.46862
1786.45	3.49403
1787.96	3.68744
1789.47	3.95912
1790.97	4.03406
1792.48	4.20537
1793.98	4.36594
1795.48	4.6286
1796.99	4.53778
1798.49	4.68227
1800	4.71942
1801.5	5.15069
1803	4.9275
1804.51	4.73762
1806.01	4.9646
1807.51	5.44475
1809.01	5.67666
1810.51	5.81537
1812.02	5.97603
1813.52	5.58276
1815.02	5.20203
1816.52	4.95028
1818.02	4.67446
1819.52	4.43323
1821.02	4.36609
1822.52	4.19308
1824.02	4.24891
1825.51	4.29463
1827.01	4.53194
1828.51	4.67456
1830.01	4.38235
1831.51	4.6124
1833	4.39823
1834.5	4.48731
1836	4.1869
1837.5	3.87249
1838.99	3.54416
1840.49	3.27628
1841.98	3.50597
1843.48	4.5354
1844.97	5.06358
1846.47	5.61406
1847.96	5.15419
1849.46	4.92696
1850.95	5.39736
1852.45	5.16334
1853.94	5.46233
1855.43	5.76654
1856.92	6.21023
1858.42	6.62789
1859.91	7.05573
1861.4	6.57852
1862.89	6.27558
1864.39	6.58139
1865.88	7.13283
1867.37	7.72652
1868.86	7.414
1870.35	7.99536
1871.84	7.87045
1873.33	8.22593
1874.82	8.27327
1876.31	8.44431
1877.8	8.13118
1879.29	8.46256
1880.77	8.29133
1882.26	7.84828
1882.51	7.29232
1884	6.36178
1885.5	5.73113
1886.99	5.71157
1888.48	5.57272
1889.98	5.8899
1891.47	6.21783
1892.97	6.31287
1894.46	6.00546
1895.95	5.85407
1897.44	5.873
1898.93	5.58318
1900.42	5.26351
1901.92	5.21242
1903.41	5.36486
1904.9	5.41521
1906.39	5.24986
1907.88	5.11246
1909.37	5.1691
1910.86	4.79431
1912.35	6.00151
1913.84	5.7273
1915.32	6.43392
1916.81	6.50247
1918.3	6.03561
1919.79	5.8161
1921.28	5.13423
1922.76	5.34259
1924.25	4.75505
1925.74	4.31143
1927.22	4.27378
1928.71	4.04179
1930.2	4.58335
1931.68	4.53214
1933.17	4.65799
1934.65	4.57056
1936.14	4.96746
1937.62	5.45333
1939.11	5.13357
1940.59	4.82891
1942.08	4.68148
1943.56	4.72908
1945.04	4.09049
1946.53	4.48229
1948.01	4.22303
1949.49	4.05599
1950.97	3.50364
1952.45	2.98062
1953.94	2.37782
1955.42	2.41159
1956.9	2.36437
1958.38	2.04986
1959.86	3.02527
1961.34	3.23233
1962.82	3.2891
1964.3	3.4657
1965.78	3.22604
1967.26	3.04819
1968.74	2.66769
1970.22	2.81405
1971.69	2.76672
1973.17	2.84265
1974.65	3.33977
1976.13	3.53831
1977.61	3.70668
1979.08	4.57407
1980.56	5.53726
1982.03	5.67732
1983.51	5.69812
1984.99	5.91126
1986.46	6.88225
1987.94	5.90709
1989.41	6.64639
1990.89	6.22327
1992.36	6.3415
1993.84	6.32302
1995.31	6.3624
1996.78	6.3679
1998.26	5.73327
1999.73	6.26093
2001.2	6.65666
2002.68	7.17367
2004.15	7.68523
2005.62	7.43767
2007.09	7.86355
2008.56	7.48388
2010.04	7.59303
2011.51	7.51073
2012.98	7.57792
2014.45	8.46079
2015.92	8.26708
2017.39	8.22514
2018.86	7.95328
2020.33	8.20432
2021.8	7.66935
2023.27	7.38373
2024.74	6.90337
2026.2	7.13795
2027.67	7.20066
2029.14	7.16551
2030.61	7.14415
2032.07	6.86522
2033.54	7.12837
2035.01	6.84912
2036.47	7.62278
2037.94	8.01051
2039.41	8.27814
2040.87	8.34348
2042.34	8.34399
2043.8	8.93097
2045.27	9.3806
2046.73	10.27
2048.2	11.0723
2049.66	11.1794
2051.12	12.2462
2052.59	12.6147
2054.05	12.2796
2055.51	12.9528
2056.98	13.0322
2058.44	13.9964
2059.9	14.6638
2061.36	15.5416
2062.82	16.7751
2064.29	16.6684
2065.75	17.144
2067.21	17.1126
2068.67	18.234
2070.13	18.4331
2071.59	18.9067
2073.05	20.399
2074.51	21.1908
2075.97	21.9066
2077.43	22.5573
2078.88	23.15
2080.34	23.7915
2081.8	24.4189
2083.26	25.4405
2084.72	26.5599
2086.17	26.864
2087.63	26.9496
2089.09	27.3509
2090.54	28.0849
2092	28.7096
2093.46	29.645
2094.91	30.3555
2096.37	31.0454
2097.82	31.5245
2099.28	32.8619
2100.73	32.9126
2102.19	33.8233
2103.64	35.5352
2105.09	36.0866
2106.55	37.3923
2108	38.1578
2109.46	38.8127
2110.91	39.4927
2112.36	40.2711
2113.81	41.3248
2115.27	42.124
2116.72	43.5025
2118.17	44.8879
2119.62	46.0706
2121.07	47.4125
2122.52	48.3655
2123.97	50.8409
2125.42	51.6651
2126.87	53.3231
2128.32	55.2974
2129.77	55.8525
2131.22	57.7709
2132.67	59.2109
2134.12	60.7311
2135.57	61.1863
2137.01	61.6409
