#Acq. time (s)=	45
#Accumulations=	2
#Range (cm-¹)=	200...3150
#Windows=	2
#Auto scanning=	Off
#Autofocus=	Off
#Macrospot=	Off
#AutoExposure=	Off
#Spike filter=	Multiple accum.
#Delay time (s)=	0
#Binning=	1
#Readout mode=	Signal
#DeNoise=	Off
#ICS correction=	On
#Dark correction=	Off
#Inst. Process=	Off
#Detector Gain=	Best Dynamic Range
#Detector ADC=	20 kHz       
#Detector temperature (°C)=	-69.85
#Instrument=	LabRAM HR Evol
#Detector=	Synapse
#Objective=	x100
#Grating=	600 gr/mm
#ND Filter=	100%
#Laser (nm)=	532 
#Hole=	100.021
#Range=	Auto
#Laser Pol.=	No
#Raman. Pol.=	No
#Laser Pol. (°)=	-0.0007625
#Raman Pol. (°)=	89.9995
#Collection=	Microscope
#StageXY=	Marzhauser
#StageZ=	Marzhauser
#X (µm)=	28479.4
#Y (µm)=	-2956.8
#Z (µm)=	1043.55
#Full time(mm:ss)=	3:19
#Project=	
#Sample=	
#Site=	
#Title=	Mb_50_18_49_2x_45s_532 nm_x100_100%_600 gr_mm
#Remark=	
#Date=	12.07.2022 14:51
#Acquired=	12.07.2022 14:51:23
#Base:Fit=	10.08.2022 10:49:18
#Base:Sub=	10.08.2022 10:49:30
#Filter:Polynom=	16.08.2022 10:14:59
#AxisType[0]=Intens
#AxisUnit[0]=Cnt
#AxisType[1]=Spectr
#AxisUnit[1]=1/cm
200.388	4.7397
202.204	9.86381
204.019	12.3634
205.832	13.443
207.646	13.2386
209.459	13.3231
211.274	13.7315
213.087	13.3612
214.899	13.5745
216.711	12.931
218.524	12.7677
220.335	13.2059
222.146	12.8507
223.956	12.5792
225.766	11.743
227.576	12.2876
229.388	13.2026
231.197	13.2092
233.005	12.6717
234.813	12.8666
236.621	12.6303
238.429	12.8307
240.236	12.451
242.045	12.5672
243.852	12.3489
245.658	12.7249
247.464	12.0933
249.269	10.7634
251.074	10.1511
252.879	9.99009
254.683	10.475
256.487	10.5618
258.291	9.84695
260.094	8.75763
261.897	8.55105
263.702	7.27671
265.504	7.75608
267.306	7.89451
269.108	7.60983
270.909	7.3402
272.71	6.76552
274.511	6.8401
276.311	5.80135
278.111	5.75368
279.91	5.3342
281.709	6.25618
283.508	7.01695
285.306	6.88985
287.105	6.00168
288.9	4.75765
290.698	4.66342
292.495	5.05407
294.291	6.24632
296.088	6.636
297.884	7.28298
299.679	7.5274
301.475	7.77704
303.27	7.56137
305.064	9.73267
306.858	10.1272
308.652	12.1264
310.444	12.7391
312.237	13.2729
314.03	13.4678
315.822	14.0003
317.615	16.5733
319.406	17.6813
321.198	18.4342
322.987	19.2286
324.778	19.7551
326.568	20.3063
328.358	20.9415
330.148	21.1563
331.935	21.9638
333.724	22.2977
335.513	22.3651
337.301	23.0952
339.089	22.8831
340.875	23.549
342.662	23.0045
344.449	23.1897
346.236	23.3411
348.02	23.4387
349.806	23.0051
351.592	23.9018
353.375	24.849
355.16	25.0081
356.944	25.1053
358.728	24.2339
360.51	24.4313
362.294	24.6855
364.077	25.1465
365.858	24.944
367.64	25.5304
369.422	26.1456
371.202	27.3298
372.983	28.6838
374.764	28.6909
376.543	28.6856
378.324	29.1813
380.102	30.0157
381.881	30.6693
383.661	31.7375
385.438	31.7335
387.216	32.1492
388.993	34.1493
390.771	34.9248
392.548	35.1129
394.324	36.4095
396.101	35.2593
397.875	35.5112
399.651	35.2223
401.425	35.2312
403.201	35.1195
404.974	35.8796
406.749	36.0626
408.524	33.8349
410.296	32.3704
412.07	30.7644
413.841	29.9328
415.614	29.0868
417.385	28.1033
419.156	27.8137
420.928	26.6304
422.698	26.0175
424.469	25.1127
426.238	24.8566
428.009	23.8596
429.777	23.104
431.548	22.0102
433.315	21.6929
435.083	22.3895
436.852	21.8521
438.618	21.869
440.387	21.7081
442.153	21.0483
443.919	20.0818
445.686	18.4579
447.451	18.2846
449.218	18.0205
450.982	18.5949
452.746	17.9812
454.512	16.654
456.275	16.1687
458.038	16.343
459.803	16.5162
461.565	16.8908
463.327	16.6608
465.091	17.2248
466.852	18.9524
468.613	20.791
470.374	20.97
472.136	22.4781
473.896	23.3259
475.655	24.0866
477.415	25.9976
479.176	26.0365
480.934	27.4617
482.692	28.71
484.45	29.7619
486.21	31.7671
487.967	33.1412
489.724	33.4762
491.481	34.597
493.237	35.987
494.995	36.9301
496.75	37.9334
498.506	39.7872
500.26	41.5432
502.015	43.0415
503.771	43.5623
505.525	44.696
507.279	45.1293
509.032	45.7617
510.785	46.7433
512.537	47.3357
514.289	48.2403
516.041	48.9682
517.793	48.2508
519.546	48.6756
521.297	48.9693
523.047	48.8605
524.797	47.1121
526.547	46.2592
528.297	44.7744
530.046	43.3425
531.795	40.8355
533.543	38.716
535.291	37.8647
537.039	36.1178
538.787	35.2856
540.534	32.5554
542.281	30.4471
544.027	28.9328
545.773	26.7396
547.519	24.6776
549.264	22.4518
551.01	22.0192
552.754	20.3512
554.499	19.0371
556.243	16.08
557.987	13.8048
559.73	13.8229
561.474	12.3609
563.216	11.0171
564.959	9.85375
566.701	8.59441
568.441	9.00692
570.182	8.21971
571.923	7.90509
573.664	7.63485
575.405	7.56682
577.145	7.72808
578.885	8.03793
580.624	8.44201
582.361	7.79677
584.1	7.63593
585.839	6.95254
587.577	6.0967
589.315	4.70777
591.052	3.75156
592.787	3.32514
594.524	3.58031
596.26	4.50761
597.997	4.68523
599.732	6.02339
601.466	5.639
603.201	6.05642
604.936	6.89214
606.67	7.87495
608.403	7.86564
610.136	7.70338
611.87	9.62785
613.603	10.4012
615.334	11.5255
617.067	11.594
618.799	12.5986
620.529	13.0502
622.26	13.4686
623.991	13.3677
625.72	13.7488
627.451	13.8009
629.181	13.8659
630.909	13.6095
632.638	13.4176
634.368	13.7271
636.095	13.5472
637.823	14.6535
639.551	13.6635
641.277	13.0476
643.005	12.5939
644.73	13.2776
646.457	13.2245
648.184	13.8013
649.908	13.9806
651.634	14.2256
653.357	15.0003
655.083	15.2203
656.806	15.6105
658.53	16.4429
660.253	17.4009
661.977	16.9193
663.7	16.3324
665.422	14.5042
667.145	14.3619
668.865	14.1815
670.588	13.9914
672.308	13.8468
674.027	13.5449
675.749	14.8217
677.468	16.7047
679.188	18.355
680.907	19.4976
682.627	20.1274
684.345	20.5537
686.064	21.6129
687.781	21.9004
689.498	23.3185
691.216	23.4877
692.932	23.6106
694.65	23.6747
696.366	24.0919
698.081	27.0129
699.797	27.8477
701.512	29.0139
703.228	29.3885
704.942	30.869
706.655	30.9065
708.371	31.7312
710.083	32.3194
711.796	33.8912
713.51	34.5648
715.222	35.2094
716.934	34.9848
718.645	35.6499
720.358	35.1065
722.068	35.3221
723.779	36.2073
725.49	35.1565
727.2	34.8054
728.909	35.3808
730.618	35.8456
732.329	37.3802
734.037	39.4193
735.745	41.4381
737.453	43.607
739.16	46.6051
740.869	49.3149
742.576	52.8263
744.282	54.4377
745.988	55.2728
747.694	57.4576
749.401	59.5942
751.107	63.2328
752.811	66.851
754.516	69.6541
756.22	72.7857
757.924	75.488
759.627	77.8068
761.332	80.7171
763.035	82.8054
764.738	84.6733
766.44	86.8393
768.142	89.0215
769.843	91.2945
771.544	93.3208
773.245	94.1797
774.946	95.2573
776.646	96.5033
778.346	97.5473
780.046	98.1191
781.745	99.2662
783.444	100.713
785.143	100.632
786.841	100.397
788.539	100.478
790.237	100.075
791.934	98.3667
793.631	97.5273
795.328	96.2378
797.024	94.6505
798.72	93.9711
800.416	92.1418
802.112	88.6098
803.807	86.6689
805.502	84.7496
807.196	83.4841
808.89	80.6706
810.584	77.7592
812.278	76.3864
813.971	75.8887
815.664	75.3327
817.354	76.4703
819.047	76.2128
820.739	76.2314
822.43	75.5894
824.122	76.5458
825.813	75.6241
827.503	74.7938
829.192	74.0246
830.882	73.4443
832.571	74.4697
834.261	73.052
835.95	73.8612
837.637	72.1887
839.325	72.4234
841.013	72.6101
842.701	70.8252
844.389	70.9375
846.074	70.6144
847.761	71.0988
849.447	70.1311
851.131	70.081
852.817	70.5684
854.503	70.7641
856.188	69.7578
857.871	69.4666
859.556	68.4106
861.24	67.7843
862.922	66.6812
864.606	66.259
866.289	66.2594
867.97	66.047
869.653	65.9143
871.336	64.8797
873.016	63.7273
874.698	62.3947
876.379	61.4518
878.058	60.7432
879.739	59.5743
881.418	58.4203
883.098	57.7413
884.778	56.754
886.456	55.4746
888.135	55.2671
889.812	54.4492
891.49	52.6553
893.167	51.0239
894.845	50.1945
896.523	50.5079
898.198	50.268
899.875	49.2442
901.55	48.9694
903.226	46.8579
904.901	46.072
906.576	46.0659
908.25	45.1668
909.925	43.5556
911.598	42.6209
913.271	42.0774
914.945	40.3297
916.617	39.9274
918.291	38.0106
919.962	37.7654
921.635	37.3525
923.306	36.9126
924.978	36.3453
926.648	34.8888
928.318	35.4163
929.989	34.3386
931.659	33.1022
933.328	33.2877
934.998	35.3495
936.666	35.5798
938.336	34.6297
940.004	33.9087
941.671	33.8002
943.34	32.5582
945.007	33.6345
946.673	33.5925
948.339	34.1113
950.007	35.2533
951.672	35.6358
953.337	35.4772
955.004	34.9396
956.669	35.7124
958.333	35.1364
959.997	35.3705
961.662	35.5492
963.326	37.1455
964.989	37.4753
966.651	38.5681
968.315	39.4539
969.977	39.8831
971.639	39.2289
973.301	39.3043
974.962	39.4835
976.624	40.4704
978.285	40.9119
979.945	40.9767
981.605	40.1185
983.264	40.3307
984.924	40.5149
986.583	40.0067
988.243	40.435
989.901	40.6199
991.56	39.8804
993.217	41.2646
994.875	41.1189
996.532	41.8752
998.188	43.5561
999.845	45.6187
1001.5	47.7033
1003.16	49.3375
1004.81	50.2167
1006.47	52.2359
1008.12	54.2182
1009.78	55.2875
1011.43	57.8371
1013.09	59.8063
1014.74	62.1452
1016.39	64.342
1018.05	65.528
1019.7	65.8231
1021.35	65.8721
1023	66.8613
1024.65	68.205
1026.31	70.1903
1027.96	71.4791
1029.61	72.109
1031.26	72.5456
1032.91	73.2879
1034.56	73.1752
1036.21	72.0681
1037.86	72.2241
1039.51	71.0199
1041.16	70.9444
1042.8	70.2874
1044.45	70.5855
1046.1	70.5646
1047.75	68.0557
1049.39	66.8942
1051.04	65.4776
1052.69	64.7331
1054.33	62.8336
1055.98	63.452
1057.62	63.4325
1059.27	62.2445
1060.91	60.6426
1062.56	59.0561
1064.2	57.7913
1065.85	56.575
1067.49	54.9691
1069.13	53.7218
1070.77	53.7038
1072.42	52.9386
1074.06	52.7582
1075.7	53.5374
1077.34	53.0789
1078.98	54.2536
1080.62	54.343
1082.27	53.9108
1083.91	54.0986
1085.55	53.3289
1087.18	53.7361
1088.82	55.7718
1090.46	55.1855
1092.1	56.0366
1093.74	57.8068
1095.38	58.2847
1097.02	57.623
1098.65	57.3864
1100.29	57.9287
1101.93	57.9837
1103.56	58.0707
1105.2	59.2503
1106.84	59.5172
1108.47	58.2165
1110.11	56.4144
1111.74	55.9925
1113.38	54.53
1115.01	53.3809
1116.64	51.8028
1118.28	49.5923
1119.91	48.2764
1121.54	46.1163
1123.18	45.3873
1124.81	41.8799
1126.44	41.4911
1128.07	39.619
1129.7	38.2924
1131.33	38.6915
1132.97	38.4805
1134.6	36.6052
1136.23	34.7553
1137.86	33.2259
1139.49	30.4864
1141.11	27.4511
1142.74	25.5051
1144.37	23.8475
1146	22.1202
1147.63	20.2951
1149.26	18.2329
1150.88	16.5637
1152.51	14.4928
1154.14	12.252
1155.76	11.391
1157.39	9.94509
1159.01	8.12716
1160.64	6.87314
1162.27	5.64552
1163.89	5.20755
1165.51	5.15664
1167.14	5.07952
1168.76	5.27917
1170.39	6.49396
1172.01	7.71597
1173.63	8.23334
1175.25	7.9863
1176.88	6.43966
1178.5	5.82997
1180.12	6.59318
1181.74	7.5871
1183.36	8.20347
1184.98	8.42326
1186.6	8.65499
1188.22	8.59715
1189.84	8.45912
1191.46	9.21491
1193.08	9.67965
1194.7	9.98495
1196.32	10.6831
1197.94	11.0226
1199.55	11.2513
1201.17	11.7381
1202.79	12.3604
1204.41	14.0487
1206.02	15.2892
1207.64	17.8117
1209.25	19.8548
1210.87	21.1621
1212.48	22.2899
1214.1	22.4271
1215.71	22.6528
1217.33	24.1483
1218.94	25.0108
1220.56	26.3548
1222.17	28.2373
1223.79	30.4103
1225.4	32.8654
1227.01	34.0505
1228.62	35.7203
1230.23	36.949
1231.85	38.6272
1233.46	39.8757
1235.07	42.2137
1236.68	44.6269
1238.29	47.4431
1239.9	48.8675
1241.51	50.9733
1243.12	52.2893
1244.73	54.8539
1246.34	56.3679
1247.94	57.58
1249.55	59.4627
1251.16	61.8586
1252.77	62.4517
1254.37	62.9361
1255.98	64.4399
1257.59	66.3025
1259.2	69.2284
1260.8	70.8425
1262.41	73.1012
1264.01	74.2702
1265.62	75.8555
1267.22	78.1684
1268.83	80.3259
1270.43	83.0203
1272.03	84.3923
1273.64	85.1803
1275.24	87.4142
1276.85	89.7646
1278.45	91.1262
1280.05	93.1927
1281.65	94.3075
1283.25	95.4472
1284.85	97.1077
1286.46	97.33
1288.06	99.5905
1289.66	100.496
1291.26	101.441
1292.86	102.732
1294.46	102.794
1296.06	102.663
1297.66	102.367
1299.25	101.894
1300.85	102.18
1302.45	103.172
1304.05	102.899
1305.65	102.98
1307.24	102.358
1308.84	102.308
1310.43	101.578
1312.03	101.224
1313.63	100.193
1315.22	100.158
1316.82	99.5824
1318.41	97.9972
1320.01	95.8515
1321.6	94.8243
1323.2	92.9519
1324.79	91.8779
1326.38	88.8193
1327.98	87.7096
1329.57	86.2927
1331.16	84.2885
1332.76	82.0616
1334.35	81.1332
1335.94	78.4857
1337.53	77.253
1339.12	75.5086
1340.71	73.2151
1342.3	72.1696
1343.89	69.9406
1345.48	68.4184
1347.07	67.3121
1348.66	65.064
1350.25	62.8229
1351.84	59.613
1353.43	57.5726
1355.01	56.7653
1356.6	54.8408
1358.19	51.82
1359.77	50.1552
1361.36	47.3527
1362.95	45.521
1364.53	44.479
1366.12	42.9292
1367.71	41.7729
1369.29	39.7043
1370.88	38.2499
1372.46	36.0095
1374.04	33.388
1375.63	32.0286
1377.21	30.3646
1378.8	29.8827
1380.38	29.5776
1381.96	29.2581
1383.54	28.1476
1385.13	27.16
1386.71	26.6494
1388.29	26.516
1389.87	26.0154
1391.45	24.9606
1393.03	24.5956
1394.61	24.6969
1396.19	24.605
1397.77	23.7178
1399.35	24.0543
1400.93	23.7303
1402.51	24.2566
1404.09	24.809
1405.67	26.1883
1407.24	27.9766
1408.82	29.8776
1410.4	32.8777
1411.98	35.2418
1413.55	37.9078
1415.13	38.9862
1416.71	42.245
1418.28	44.6111
1419.86	48.1902
1421.43	52.4102
1423.01	56.8455
1424.58	61.7442
1426.16	66.7309
1427.73	70.6918
1429.31	75.1677
1430.88	79.5382
1432.45	83.8473
1434.02	88.0689
1435.6	92.1227
1437.17	95.0961
1438.74	98.0172
1440.31	99.178
1441.88	101.704
1443.45	102.831
1445.03	103.508
1446.6	105.603
1448.17	106.653
1449.74	106.274
1451.3	105.91
1452.87	104.701
1454.44	105.105
1456.01	104.005
1457.58	103.825
1459.15	102.878
1460.72	100.876
1462.28	99.018
1463.85	96.6818
1465.42	95.2631
1466.98	92.3464
1468.55	89.7075
1470.12	86.053
1471.68	83.6912
1473.25	80.9403
1474.81	78.0268
1476.38	74.6527
1477.94	71.8118
1479.51	68.579
1481.07	66.732
1482.63	63.6347
1484.2	61.2291
1485.76	58.2022
1487.32	55.4411
1488.88	52.423
1490.45	48.9467
1492.01	46.053
1493.57	43.3631
1495.13	41.4403
1496.69	40.2694
1498.25	39.4895
1499.81	38.5025
1501.37	37.7096
1502.93	36.3022
1504.49	35.7439
1506.05	34.2958
1507.61	33.3708
1509.17	32.0413
1510.73	29.9555
1512.28	28.3257
1513.84	27.448
1515.4	25.407
1516.96	24.0635
1518.51	22.6507
1520.07	22.0733
1521.63	20.3029
1523.18	19.4703
1524.74	19.6647
1526.29	18.5178
1527.85	17.5023
1529.4	17.39
1530.96	17.9104
1532.51	19.0041
1534.06	19.1448
1535.62	20.3284
1537.17	21.2941
1538.72	22.0073
1540.28	24.1378
1541.83	25.5384
1543.38	27.2048
1544.93	28.4377
1546.48	30.307
1548.03	31.0894
1549.59	32.8805
1551.14	33.4808
1552.69	34.2605
1554.24	35.0321
1555.79	35.7043
1557.34	36.4694
1558.88	36.21
1560.43	34.9731
1561.98	35.1146
1563.53	35.8179
1565.08	37.5552
1566.62	39.5897
1568.17	40.9239
1569.72	42.6603
1571.27	44.4448
1572.81	46.5438
1574.36	49.1956
1575.9	51.7075
1577.45	54.878
1579	56.6569
1580.54	58.9335
1582.09	61.3245
1583.63	62.6266
1585.17	64.1536
1586.72	65.2602
1588.26	66.6493
1589.8	68.8747
1591.35	70.1524
1592.89	70.6193
1594.43	71.2493
1595.97	71.6019
1597.52	72.0792
1599.06	71.8515
1600.6	72.2131
1602.14	73.5327
1603.68	73.8291
1605.22	73.1069
1606.76	73.5762
1608.3	74.6179
1609.84	74.6313
1611.38	74.5858
1612.92	74.9871
1614.46	75.1009
1615.99	75.2897
1617.53	75.6727
1619.07	75.8305
1620.61	76.8507
1622.14	76.944
1623.68	77.7325
1625.22	78.281
1626.75	78.466
1628.29	79.5944
1629.82	80.8616
1631.36	82.4425
1632.9	82.9356
1634.43	83.9953
1635.96	85.5426
1637.5	88.6651
1639.03	92.7601
1640.57	96.2045
1642.1	99.0772
1643.63	101.5
1645.16	103.545
1646.7	106.403
1648.23	108.702
1649.76	111.506
1651.29	113.209
1652.82	114.318
1654.36	114.941
1655.89	115.513
1657.42	117.162
1658.95	117.539
1660.48	117.799
1662.01	117.418
1663.53	116.793
1665.06	115.734
1666.59	113.958
1668.12	111.897
1669.65	109.883
1671.18	107.369
1672.7	105.039
1674.23	102.614
1675.76	99.4279
1677.29	96.2287
1678.81	93.4344
1680.34	89.0343
1681.86	85.0038
1683.39	80.983
1684.91	77.1542
1686.44	72.6416
1687.96	68.2925
1689.49	64.6121
1691.01	61.4485
1692.54	57.5739
1694.06	54.4556
1695.58	51.4402
1697.11	48.2109
1698.63	44.7838
1700.15	42.6644
1701.67	39.5495
1703.2	36.9139
1704.72	35.6198
1706.24	33.5062
1707.76	31.9531
1709.28	29.6201
1710.8	28.3255
1712.32	26.414
1713.84	24.6309
1715.36	23.1515
1716.88	21.4951
1718.4	20.5867
1719.91	19.6876
1721.43	18.6123
1722.95	17.8618
1724.47	17.0806
1725.99	15.9221
1727.5	15.0827
1729.02	13.9084
1730.54	14.269
1732.05	14.5801
1733.57	14.1698
1735.09	13.1559
1736.6	12.7235
1738.12	11.7311
1739.63	11.1402
1741.15	10.9399
1742.66	10.38
1744.18	10.0938
1745.69	9.08135
1747.2	8.71515
1748.72	8.43166
1750.23	8.10208
1751.74	7.04735
1753.25	5.89682
1754.77	5.37548
1756.28	4.00543
1757.79	3.87037
1759.3	3.15012
1760.81	3.40423
1762.32	3.082
1763.83	3.13287
1765.34	3.65463
1766.85	3.42497
1768.36	2.79393
1769.87	3.16698
1771.38	3.80526
1772.89	4.68102
1774.4	4.91228
1775.91	4.89221
1777.41	4.35558
1778.92	4.95142
1780.43	5.21112
1781.94	4.82942
1783.44	4.29291
1784.95	3.64755
1786.45	3.46814
1787.96	3.30258
1789.47	3.72387
1790.97	4.15028
1792.48	4.74839
1793.98	5.03341
1795.48	4.89902
1796.99	4.42731
1798.49	4.31229
1800	4.77931
1801.5	4.73564
1803	5.38136
1804.51	4.93891
1806.01	5.08266
1807.51	5.1187
1809.01	5.30838
1810.51	5.47551
1812.02	5.77316
1813.52	5.83208
1815.02	6.28856
1816.52	6.61959
1818.02	6.11653
1819.52	5.75694
1821.02	5.53181
1822.52	5.12209
1824.02	4.45653
1825.51	4.15681
1827.01	4.10427
1828.51	4.22186
1830.01	4.52556
1831.51	4.56851
1833	4.95885
1834.5	5.23031
1836	5.5716
1837.5	5.85859
1838.99	6.26413
1840.49	6.20128
1841.98	5.79081
1843.48	6.18348
1844.97	6.19939
1846.47	6.34184
1847.96	6.39414
1849.46	5.97242
1850.95	6.01089
1852.45	5.7396
1853.94	5.12072
1855.43	4.82825
1856.92	4.85281
1858.42	4.68235
1859.91	4.57595
1861.4	4.1696
1862.89	3.68693
1864.39	3.47166
1865.88	3.35738
1867.37	3.05666
1868.86	3.0988
1870.35	2.70065
1871.84	3.05252
1873.33	3.46305
1874.82	3.5578
1876.31	3.54065
1877.8	3.41792
1879.29	3.37889
1880.77	3.95365
1882.26	4.48808
1882.51	5.08347
1884	5.74045
1885.5	5.49451
1886.99	5.78051
1888.48	5.89496
1889.98	5.81559
1891.47	5.85912
1892.97	5.76482
1894.46	5.72295
1895.95	6.16424
1897.44	6.59699
1898.93	6.66618
1900.42	5.98349
1901.92	5.92682
1903.41	6.24882
1904.9	6.40422
1906.39	6.92678
1907.88	7.61575
1909.37	7.67188
1910.86	7.46714
1912.35	7.98559
1913.84	7.78043
1915.32	7.46512
1916.81	7.1288
1918.3	6.59196
1919.79	6.59075
1921.28	6.57168
1922.76	5.84922
1924.25	5.07887
1925.74	4.2185
1927.22	4.03074
1928.71	3.96519
1930.2	3.50571
1931.68	2.49112
1933.17	1.8176
1934.65	1.5055
1936.14	1.37642
1937.62	1.39075
1939.11	0.939749
1940.59	0.637818
1942.08	0.687075
1943.56	0.161661
1945.04	0.333935
1946.53	-0.178703
1948.01	-0.198099
1949.49	0.174326
1950.97	0.160014
1952.45	0.640469
1953.94	1.44547
1955.42	2.12504
1956.9	2.41403
1958.38	2.39584
1959.86	1.95476
1961.34	2.7492
1962.82	2.68747
1964.3	3.0039
1965.78	3.51836
1967.26	3.69289
1968.74	4.05437
1970.22	4.34925
1971.69	4.37443
1973.17	4.43103
1974.65	5.19433
1976.13	6.53678
1977.61	7.59277
1979.08	7.8102
1980.56	8.07522
1982.03	8.39052
1983.51	7.79832
1984.99	7.95294
1986.46	8.61506
1987.94	8.65181
1989.41	8.91643
1990.89	8.71666
1992.36	8.62298
1993.84	8.59107
1995.31	8.37027
1996.78	8.55405
1998.26	8.02534
1999.73	8.22034
2001.2	8.14415
2002.68	7.97648
2004.15	7.55625
2005.62	7.62632
2007.09	7.0109
2008.56	6.86259
2010.04	6.51025
2011.51	6.6353
2012.98	6.47316
2014.45	6.56383
2015.92	6.64201
2017.39	6.39167
2018.86	6.65657
2020.33	7.04899
2021.8	7.23772
2023.27	7.73634
2024.74	8.34515
2026.2	8.77896
2027.67	8.99667
2029.14	8.54404
2030.61	8.68008
2032.07	8.63542
2033.54	8.8268
2035.01	10.2589
2036.47	10.6685
2037.94	11.5015
2039.41	12.7908
2040.87	13.3831
2042.34	14.772
2043.8	15.6934
2045.27	16.805
2046.73	17.5335
2048.2	18.9958
2049.66	19.8092
2051.12	20.8109
2052.59	21.4797
2054.05	22.7739
2055.51	23.965
2056.98	24.6124
2058.44	26.2451
2059.9	27.6462
2061.36	28.6603
2062.82	29.5774
2064.29	29.9011
2065.75	31.3875
2067.21	32.478
2068.67	33.1327
2070.13	34.1292
2071.59	34.8388
2073.05	36.7239
2074.51	37.4591
2075.97	38.8244
2077.43	40.0689
2078.88	41.3721
2080.34	42.2675
2081.8	44.1713
2083.26	46.4416
2084.72	48.2365
2086.17	50.4342
2087.63	52.2267
2089.09	54.4928
2090.54	56.5503
2092	59.067
2093.46	61.4636
2094.91	63.4467
2096.37	66.2001
2097.82	69.1478
2099.28	71.0698
2100.73	73.3658
2102.19	76.7432
2103.64	80.162
2105.09	82.7375
2106.55	86.6281
2108	90.2236
2109.46	92.7167
2110.91	96.5358
2112.36	100.674
2113.81	104.08
2115.27	107.82
2116.72	110.779
2118.17	114.371
2119.62	117.807
2121.07	121.445
2122.52	124.708
2123.97	128.403
2125.42	131.997
2126.87	136.177
2128.32	140
2129.77	144.32
2131.22	148.905
2132.67	152.7
2134.12	156.736
2135.57	160.632
2137.01	163.817
