#Acq. time (s)=	45
#Accumulations=	2
#Range (cm-¹)=	200...3150
#Windows=	2
#Auto scanning=	Off
#Autofocus=	Off
#Macrospot=	Off
#AutoExposure=	Off
#Spike filter=	Multiple accum.
#Delay time (s)=	0
#Binning=	1
#Readout mode=	Signal
#DeNoise=	Off
#ICS correction=	On
#Dark correction=	Off
#Inst. Process=	Off
#Detector Gain=	Best Dynamic Range
#Detector ADC=	20 kHz       
#Detector temperature (°C)=	-69.85
#Instrument=	LabRAM HR Evol
#Detector=	Synapse
#Objective=	x100
#Grating=	600 gr/mm
#ND Filter=	100%
#Laser (nm)=	532 
#Hole=	100.021
#Range=	Auto
#Laser Pol.=	No
#Raman. Pol.=	No
#Laser Pol. (°)=	-0.0007625
#Raman Pol. (°)=	89.9995
#Collection=	Microscope
#StageXY=	Marzhauser
#StageZ=	Marzhauser
#X (µm)=	19386.9
#Y (µm)=	3036.1
#Z (µm)=	1047.65
#Full time(mm:ss)=	3:18
#Project=	
#Sample=	
#Site=	
#Title=	Mb_50_18_04_2x_45s_532 nm_x100_100%_600 gr_mm
#Remark=	
#Date=	12.07.2022 10:31
#Acquired=	12.07.2022 10:31:38
#Base:Fit=	10.08.2022 10:49:18
#Base:Sub=	10.08.2022 10:49:30
#Filter:Polynom=	16.08.2022 10:14:59
#AxisType[0]=Intens
#AxisUnit[0]=Cnt
#AxisType[1]=Spectr
#AxisUnit[1]=1/cm
200.388	19.0692
202.204	15.1707
204.019	14.1673
205.832	13.0659
207.646	12.0561
209.459	10.8813
211.274	9.73942
213.087	9.1267
214.899	8.10873
216.711	6.94818
218.524	6.79057
220.335	5.41444
222.146	6.83488
223.956	6.50232
225.766	7.66264
227.576	7.67794
229.388	8.54092
231.197	8.99575
233.005	7.90707
234.813	8.63417
236.621	7.5932
238.429	7.07641
240.236	7.87875
242.045	7.42387
243.852	6.5825
245.658	6.2882
247.464	5.67496
249.269	5.53741
251.074	5.17778
252.879	5.76619
254.683	6.11046
256.487	6.08035
258.291	5.88018
260.094	5.80883
261.897	6.94087
263.702	7.81224
265.504	7.49117
267.306	8.30921
269.108	7.71461
270.909	7.31721
272.71	7.97064
274.511	8.62548
276.311	8.77188
278.111	9.22192
279.91	9.09597
281.709	9.32392
283.508	9.16735
285.306	9.18442
287.105	10.4306
288.9	10.3325
290.698	12.4005
292.495	13.541
294.291	15.3984
296.088	17.9704
297.884	19.7931
299.679	21.8047
301.475	21.7212
303.27	23.4352
305.064	24.2085
306.858	26.0952
308.652	28.402
310.444	29.8315
312.237	31.7503
314.03	31.0858
315.822	32.69
317.615	32.7387
319.406	34.3916
321.198	34.4039
322.987	34.2262
324.778	35.0662
326.568	33.9651
328.358	34.0663
330.148	33.0214
331.935	30.8476
333.724	29.7763
335.513	28.1991
337.301	26.3598
339.089	25.6993
340.875	24.3932
342.662	23.2986
344.449	22.1733
346.236	22.4141
348.02	23.3478
349.806	25.0261
351.592	26.6608
353.375	27.4214
355.16	29.408
356.944	32.3308
358.728	34.1604
360.51	37.8485
362.294	40.7619
364.077	43.5799
365.858	45.1159
367.64	47.968
369.422	51.805
371.202	55.0952
372.983	57.9166
374.764	60.6448
376.543	64.8291
378.324	67.5372
380.102	71.435
381.881	72.9424
383.661	75.5285
385.438	75.5876
387.216	75.1329
388.993	74.8693
390.771	75.314
392.548	75.8205
394.324	74.7085
396.101	73.9057
397.875	72.3547
399.651	69.6886
401.425	66.3473
403.201	63.8011
404.974	62.3932
406.749	59.4272
408.524	57.0823
410.296	51.6971
412.07	48.0811
413.841	43.7007
415.614	38.1196
417.385	33.0786
419.156	28.489
420.928	24.269
422.698	20.0566
424.469	15.8934
426.238	13.6741
428.009	11.0281
429.777	8.81423
431.548	7.41194
433.315	6.34691
435.083	5.71821
436.852	5.03029
438.618	4.63762
440.387	4.8573
442.153	5.40944
443.919	6.50695
445.686	6.77986
447.451	8.11106
449.218	9.17755
450.982	9.4813
452.746	9.49094
454.512	10.2857
456.275	12.0136
458.038	12.7769
459.803	13.301
461.565	13.9505
463.327	14.4904
465.091	15.4027
466.852	15.5125
468.613	15.9913
470.374	16.1859
472.136	17.3438
473.896	17.7642
475.655	19.1876
477.415	20.7429
479.176	21.6408
480.934	23.0598
482.692	24.1297
484.45	26.2761
486.21	28.9867
487.967	32.1411
489.724	35.4071
491.481	39.2246
493.237	43.1915
494.995	47.1631
496.75	50.6524
498.506	54.2055
500.26	58.626
502.015	60.7925
503.771	63.4683
505.525	65.3901
507.279	66.8425
509.032	67.8301
510.785	69.045
512.537	70.9019
514.289	72.6248
516.041	72.3003
517.793	73.5197
519.546	73.7817
521.297	73.6742
523.047	73.4313
524.797	72.796
526.547	70.967
528.297	69.1844
530.046	68.1148
531.795	66.9265
533.543	64.8157
535.291	62.7027
537.039	58.9971
538.787	55.653
540.534	51.5368
542.281	48.6761
544.027	45.0198
545.773	41.6025
547.519	38.0964
549.264	34.2494
551.01	30.274
552.754	26.9911
554.499	23.919
556.243	19.5309
557.987	15.789
559.73	12.917
561.474	9.98004
563.216	7.89679
564.959	6.5082
566.701	5.23231
568.441	4.81956
570.182	4.01306
571.923	4.52913
573.664	6.01545
575.405	5.73686
577.145	6.08041
578.885	6.72655
580.624	8.50625
582.361	9.30928
584.1	8.89877
585.839	9.4079
587.577	9.06833
589.315	8.63898
591.052	8.16782
592.787	6.47397
594.524	7.14672
596.26	8.95117
597.997	9.19204
599.732	9.87859
601.466	10.6919
603.201	10.7412
604.936	11.7703
606.67	13.0717
608.403	13.0328
610.136	13.5218
611.87	14.011
613.603	13.5265
615.334	14.3186
617.067	14.9613
618.799	14.751
620.529	13.6727
622.26	13.8393
623.991	14.2706
625.72	13.6782
627.451	12.9203
629.181	12.8882
630.909	12.7905
632.638	11.7917
634.368	10.7995
636.095	9.54446
637.823	8.62534
639.551	8.635
641.277	8.78802
643.005	7.42674
644.73	7.62354
646.457	7.13222
648.184	8.0889
649.908	8.83477
651.634	9.84958
653.357	9.86399
655.083	9.86737
656.806	11.0714
658.53	11.872
660.253	12.5481
661.977	11.8866
663.7	12.7452
665.422	12.3529
667.145	12.6887
668.865	12.1634
670.588	12.909
672.308	13.1034
674.027	14.6071
675.749	13.1983
677.468	13.0562
679.188	12.5625
680.907	13.7137
682.627	14.7536
684.345	15.145
686.064	16.8061
687.781	17.7825
689.498	18.5097
691.216	19.1637
692.932	21.4668
694.65	21.2428
696.366	22.2515
698.081	22.5493
699.797	23.0261
701.512	22.7948
703.228	24.1627
704.942	25.158
706.655	25.5986
708.371	26.6906
710.083	28.2463
711.796	28.2234
713.51	29.5578
715.222	30.6245
716.934	30.5649
718.645	30.8047
720.358	32.0719
722.068	32.2477
723.779	33.1823
725.49	34.4867
727.2	34.8088
728.909	34.7547
730.618	35.741
732.329	37.6878
734.037	40.9611
735.745	43.9986
737.453	49.061
739.16	54.5719
740.869	60.8437
742.576	66.7048
744.282	72.9422
745.988	79.1447
747.694	85.0993
749.401	91.6906
751.107	98.159
752.811	104.715
754.516	110.622
756.22	116.646
757.924	121.115
759.627	125.682
761.332	128.086
763.035	133.259
764.738	136.308
766.44	140.394
768.142	143.282
769.843	145.965
771.544	147.442
773.245	148.599
774.946	149.746
776.646	149.848
778.346	149.565
780.046	147.626
781.745	146.284
783.444	143.953
785.143	141.929
786.841	139.731
788.539	138.606
790.237	134.445
791.934	130.72
793.631	127.022
795.328	123.419
797.024	117.505
798.72	112.427
800.416	106.153
802.112	100.658
803.807	95.0196
805.502	89.4459
807.196	84.1608
808.89	79.1901
810.584	75.5115
812.278	71.8603
813.971	69.678
815.664	67.7309
817.354	68.4919
819.047	68.7957
820.739	68.8249
822.43	69.5821
824.122	68.6464
825.813	67.0606
827.503	65.065
829.192	65.8008
830.882	63.9692
832.571	63.1881
834.261	63.0283
835.95	62.6842
837.637	62.1399
839.325	61.6956
841.013	60.5237
842.701	58.7624
844.389	56.649
846.074	55.0559
847.761	53.928
849.447	51.2441
851.131	50.5285
852.817	48.2977
854.503	47.0432
856.188	45.2258
857.871	44.9353
859.556	43.0043
861.24	41.8077
862.922	40.0523
864.606	39.4527
866.289	38.7058
867.97	38.3459
869.653	38.0549
871.336	37.2168
873.016	36.1836
874.698	34.7467
876.379	34.9743
878.058	34.6443
879.739	34.5786
881.418	33.3795
883.098	33.0215
884.778	32.0788
886.456	32.1607
888.135	31.8308
889.812	32.692
891.49	32.5368
893.167	32.2381
894.845	33.2462
896.523	33.4442
898.198	34.0863
899.875	33.2722
901.55	33.2913
903.226	32.6792
904.901	31.8259
906.576	31.9757
908.25	30.9593
909.925	31.3152
911.598	31.838
913.271	33.0216
914.945	33.4064
916.617	34.1715
918.291	34.8995
919.962	35.4053
921.635	33.9189
923.306	33.0348
924.978	31.688
926.648	30.3871
928.318	29.2898
929.989	29.3578
931.659	28.7979
933.328	27.6198
934.998	28.246
936.666	27.9608
938.336	28.5662
940.004	28.4291
941.671	26.7767
943.34	23.5683
945.007	23.2299
946.673	21.2705
948.339	20.8608
950.007	19.8393
951.672	19.1122
953.337	18.1915
955.004	17.3496
956.669	16.5347
958.333	16.1646
959.997	15.4014
961.662	14.143
963.326	13.1656
964.989	11.5527
966.651	11.3374
968.315	10.727
969.977	11.0542
971.639	11.162
973.301	9.97553
974.962	9.31053
976.624	9.95185
978.285	9.8213
979.945	9.31643
981.605	9.78766
983.264	8.0782
984.924	7.72787
986.583	7.70037
988.243	7.07642
989.901	7.63849
991.56	7.29168
993.217	8.41623
994.875	8.95361
996.532	11.4965
998.188	15.3026
999.845	18.4989
1001.5	22.1793
1003.16	25.0648
1004.81	27.9574
1006.47	33.2764
1008.12	37.0851
1009.78	42.2819
1011.43	47.9213
1013.09	51.5897
1014.74	55.0916
1016.39	60.5319
1018.05	65.1364
1019.7	69.5168
1021.35	72.0021
1023	74.8753
1024.65	77.1377
1026.31	80.6143
1027.96	84.1212
1029.61	85.0276
1031.26	85.9618
1032.91	86.4182
1034.56	86.0491
1036.21	84.9245
1037.86	83.2816
1039.51	81.9152
1041.16	81.031
1042.8	78.289
1044.45	76.952
1046.1	74.7278
1047.75	72.2191
1049.39	70.2542
1051.04	67.5608
1052.69	65.3647
1054.33	62.7603
1055.98	60.1656
1057.62	59.3649
1059.27	57.9231
1060.91	55.9139
1062.56	54.4727
1064.2	53.3436
1065.85	51.4317
1067.49	51.2629
1069.13	51.561
1070.77	51.9705
1072.42	52.8308
1074.06	53.0532
1075.7	55.2665
1077.34	56.4008
1078.98	58.5365
1080.62	60.4471
1082.27	60.9477
1083.91	60.691
1085.55	61.3766
1087.18	63.3323
1088.82	64.9254
1090.46	65.0407
1092.1	66.2053
1093.74	65.3209
1095.38	63.1887
1097.02	62.9013
1098.65	62.8557
1100.29	60.2599
1101.93	58.4517
1103.56	55.7411
1105.2	54.0779
1106.84	51.5039
1108.47	49.0559
1110.11	46.2155
1111.74	42.0783
1113.38	38.4665
1115.01	36.0014
1116.64	32.2518
1118.28	28.4523
1119.91	26.03
1121.54	24.1731
1123.18	21.3347
1124.81	17.8099
1126.44	15.4647
1128.07	12.3529
1129.7	10.7465
1131.33	9.98628
1132.97	9.79359
1134.6	9.7871
1136.23	9.75732
1137.86	10.3757
1139.49	11.5446
1141.11	11.6835
1142.74	12.078
1144.37	12.9569
1146	13.111
1147.63	12.3661
1149.26	12.2
1150.88	11.9517
1152.51	11.839
1154.14	11.2628
1155.76	10.4125
1157.39	10.4397
1159.01	9.05109
1160.64	8.64332
1162.27	7.82721
1163.89	7.6399
1165.51	7.79563
1167.14	7.98566
1168.76	7.52885
1170.39	6.69535
1172.01	5.75461
1173.63	5.42452
1175.25	4.82799
1176.88	5.0939
1178.5	5.77963
1180.12	5.85213
1181.74	5.78693
1183.36	7.00873
1184.98	8.01891
1186.6	9.56952
1188.22	10.1829
1189.84	11.4676
1191.46	11.6531
1193.08	12.0604
1194.7	13.516
1196.32	14.6294
1197.94	14.8222
1199.55	15.9148
1201.17	17.3824
1202.79	17.395
1204.41	16.9231
1206.02	17.4774
1207.64	16.8678
1209.25	17.5331
1210.87	19.3471
1212.48	20.7383
1214.1	21.842
1215.71	22.7984
1217.33	23.5159
1218.94	24.4781
1220.56	25.4127
1222.17	25.8714
1223.79	27.128
1225.4	27.5463
1227.01	28.1828
1228.62	28.2156
1230.23	29.6986
1231.85	30.5161
1233.46	30.6118
1235.07	30.9144
1236.68	30.9018
1238.29	31.1141
1239.9	30.155
1241.51	30.5053
1243.12	30.8749
1244.73	30.6858
1246.34	30.8876
1247.94	30.4841
1249.55	30.3785
1251.16	31.3057
1252.77	31.8097
1254.37	31.7219
1255.98	31.8647
1257.59	31.9756
1259.2	32.0287
1260.8	31.1584
1262.41	32.2595
1264.01	32.9999
1265.62	33.8997
1267.22	35.3754
1268.83	35.02
1270.43	35.9158
1272.03	36.3091
1273.64	37.9139
1275.24	38.688
1276.85	39.6773
1278.45	39.8557
1280.05	40.2206
1281.65	40.9022
1283.25	40.8257
1284.85	40.933
1286.46	41.6213
1288.06	43.0457
1289.66	44.8729
1291.26	46.2536
1292.86	46.959
1294.46	47.0798
1296.06	47.3652
1297.66	47.7795
1299.25	49.0287
1300.85	49.3105
1302.45	49.7993
1304.05	50.4675
1305.65	50.6622
1307.24	51.1155
1308.84	51.0664
1310.43	51.639
1312.03	51.7988
1313.63	51.4062
1315.22	51.5304
1316.82	50.7346
1318.41	50.0761
1320.01	50.1311
1321.6	50.0443
1323.2	49.7597
1324.79	48.6672
1326.38	50.6213
1327.98	50.474
1329.57	50.879
1331.16	50.7068
1332.76	49.6435
1334.35	48.4178
1335.94	49.3196
1337.53	49.0836
1339.12	48.232
1340.71	47.1005
1342.3	47.4553
1343.89	46.7096
1345.48	46.3008
1347.07	45.7391
1348.66	44.363
1350.25	44.7529
1351.84	43.971
1353.43	43.1957
1355.01	42.2077
1356.6	40.9583
1358.19	40.1744
1359.77	39.3276
1361.36	38.6811
1362.95	36.8565
1364.53	36.2799
1366.12	36.0557
1367.71	34.8234
1369.29	32.0228
1370.88	31.3077
1372.46	30.5485
1374.04	29.0119
1375.63	28.9396
1377.21	29.1574
1378.8	28.0145
1380.38	27.2434
1381.96	26.7136
1383.54	25.904
1385.13	24.2631
1386.71	22.7721
1388.29	22.3257
1389.87	20.753
1391.45	20.0056
1393.03	19.1732
1394.61	18.5785
1396.19	18.0346
1397.77	18.4757
1399.35	19.4072
1400.93	19.4563
1402.51	20.9603
1404.09	22.0065
1405.67	23.7489
1407.24	24.3953
1408.82	25.1784
1410.4	25.6478
1411.98	27.5449
1413.55	29.8647
1415.13	33.3558
1416.71	35.3999
1418.28	37.7639
1419.86	42.7001
1421.43	45.5403
1423.01	48.7062
1424.58	52.119
1426.16	54.5714
1427.73	57.0684
1429.31	59.2139
1430.88	61.3838
1432.45	63.3628
1434.02	65.0391
1435.6	67.0598
1437.17	69.4633
1438.74	71.1374
1440.31	73.0958
1441.88	73.9156
1443.45	75.3436
1445.03	75.9218
1446.6	77.0774
1448.17	77.3682
1449.74	79.2685
1451.3	79.204
1452.87	78.3115
1454.44	78.3987
1456.01	77.7999
1457.58	77.4964
1459.15	77.2382
1460.72	76.8008
1462.28	75.8228
1463.85	75.2075
1465.42	75.6222
1466.98	76.1166
1468.55	75.6372
1470.12	75.2326
1471.68	74.7892
1473.25	72.8775
1474.81	72.5258
1476.38	72.6595
1477.94	72.0242
1479.51	70.8327
1481.07	69.6355
1482.63	67.5302
1484.2	66.7826
1485.76	66.2929
1487.32	65.306
1488.88	64.1001
1490.45	63.8996
1492.01	63.5181
1493.57	62.9068
1495.13	60.6185
1496.69	59.1695
1498.25	57.9253
1499.81	54.4934
1501.37	51.543
1502.93	48.9153
1504.49	45.6645
1506.05	43.1353
1507.61	40.6123
1509.17	37.4737
1510.73	34.3625
1512.28	32.1006
1513.84	29.2714
1515.4	26.3603
1516.96	23.9022
1518.51	20.2217
1520.07	16.8184
1521.63	15.3285
1523.18	12.6474
1524.74	11.0391
1526.29	8.05886
1527.85	7.92287
1529.4	6.2143
1530.96	5.5865
1532.51	6.50822
1534.06	7.43453
1535.62	7.95953
1537.17	8.00997
1538.72	8.59574
1540.28	8.87835
1541.83	10.1846
1543.38	11.0559
1544.93	11.7791
1546.48	12.4238
1548.03	13.1509
1549.59	14.6046
1551.14	15.1285
1552.69	18.1197
1554.24	19.6847
1555.79	20.8454
1557.34	21.5594
1558.88	22.5333
1560.43	23.9964
1561.98	26.4535
1563.53	28.0344
1565.08	29.7708
1566.62	31.9269
1568.17	35.1894
1569.72	36.8185
1571.27	38.0512
1572.81	40.0922
1574.36	42.0528
1575.9	43.3164
1577.45	44.6099
1579	46.4951
1580.54	47.4945
1582.09	48.1466
1583.63	50.1737
1585.17	51.8171
1586.72	52.6367
1588.26	54.2012
1589.8	54.9778
1591.35	55.4007
1592.89	56.5751
1594.43	58.0975
1595.97	58.1829
1597.52	58.933
1599.06	58.947
1600.6	58.1349
1602.14	58.1854
1603.68	58.3727
1605.22	58.6133
1606.76	58.1164
1608.3	57.511
1609.84	57.2955
1611.38	55.6605
1612.92	53.7981
1614.46	53.5897
1615.99	53.1252
1617.53	52.3886
1619.07	52.2199
1620.61	52.108
1622.14	52.0281
1623.68	51.2986
1625.22	50.8622
1626.75	50.639
1628.29	50.8469
1629.82	51.7951
1631.36	51.4319
1632.9	51.5488
1634.43	52.0388
1635.96	52.8501
1637.5	53.3222
1639.03	54.0842
1640.57	55.2798
1642.1	56.585
1643.63	57.9759
1645.16	58.8479
1646.7	58.6081
1648.23	59.473
1649.76	59.8065
1651.29	60.3412
1652.82	61.8844
1654.36	62.828
1655.89	63.4767
1657.42	62.4378
1658.95	63.523
1660.48	64.7573
1662.01	64.8957
1663.53	65.2849
1665.06	64.7347
1666.59	65.2771
1668.12	65.0426
1669.65	63.8853
1671.18	62.4505
1672.7	60.176
1674.23	59.2417
1675.76	56.8406
1677.29	55.463
1678.81	53.6389
1680.34	50.9563
1681.86	47.7083
1683.39	46.1331
1684.91	43.6899
1686.44	41.5808
1687.96	39.5728
1689.49	37.5174
1691.01	35.8589
1692.54	33.9518
1694.06	32.247
1695.58	31.0077
1697.11	28.8212
1698.63	26.3631
1700.15	24.425
1701.67	23.481
1703.2	21.4367
1704.72	20.1041
1706.24	18.7789
1707.76	16.8789
1709.28	15.7234
1710.8	13.9389
1712.32	12.2664
1713.84	10.6325
1715.36	10.2228
1716.88	10.0643
1718.4	8.95977
1719.91	8.99348
1721.43	8.40853
1722.95	7.48423
1724.47	7.3704
1725.99	7.0766
1727.5	7.02349
1729.02	6.51837
1730.54	5.82499
1732.05	4.74557
1733.57	4.36909
1735.09	4.63632
1736.6	4.62651
1738.12	4.04729
1739.63	4.27476
1741.15	3.65297
1742.66	3.92276
1744.18	3.10787
1745.69	2.14726
1747.2	1.86936
1748.72	2.15084
1750.23	2.2948
1751.74	1.86713
1753.25	2.48515
1754.77	2.66333
1756.28	2.46485
1757.79	2.89766
1759.3	3.33284
1760.81	3.22671
1762.32	2.85607
1763.83	3.42346
1765.34	3.35495
1766.85	3.544
1768.36	3.99777
1769.87	3.69826
1771.38	3.18245
1772.89	2.6814
1774.4	2.60597
1775.91	2.179
1777.41	1.8552
1778.92	1.8855
1780.43	2.55276
1781.94	2.39777
1783.44	2.01207
1784.95	2.23292
1786.45	2.51821
1787.96	2.89849
1789.47	3.89058
1790.97	4.42732
1792.48	4.69977
1793.98	4.73911
1795.48	4.9526
1796.99	4.13011
1798.49	3.5764
1800	3.95689
1801.5	3.77196
1803	3.53769
1804.51	4.09874
1806.01	3.68204
1807.51	3.78028
1809.01	4.11093
1810.51	4.34533
1812.02	4.51853
1813.52	4.47962
1815.02	5.45006
1816.52	5.361
1818.02	5.31142
1819.52	5.19856
1821.02	5.25855
1822.52	5.3801
1824.02	5.64212
1825.51	6.44325
1827.01	6.0448
1828.51	6.04639
1830.01	5.73114
1831.51	5.15403
1833	5.26392
1834.5	5.43575
1836	5.48012
1837.5	5.29258
1838.99	5.2888
1840.49	4.48922
1841.98	4.32809
1843.48	4.206
1844.97	4.05373
1846.47	3.97783
1847.96	3.61055
1849.46	3.05244
1850.95	2.78194
1852.45	3.64165
1853.94	3.43004
1855.43	3.00039
1856.92	2.39781
1858.42	3.20002
1859.91	3.26515
1861.4	3.49043
1862.89	3.12218
1864.39	2.98432
1865.88	2.48966
1867.37	1.97462
1868.86	1.69881
1870.35	1.65786
1871.84	2.28877
1873.33	2.94389
1874.82	3.90712
1876.31	4.44469
1877.8	4.51159
1879.29	5.02158
1880.77	4.8884
1882.26	5.33222
1882.51	5.13632
1884	5.05836
1885.5	4.91534
1886.99	4.73969
1888.48	5.04734
1889.98	4.81629
1891.47	4.68737
1892.97	4.6538
1894.46	3.95869
1895.95	3.98035
1897.44	3.79037
1898.93	3.47505
1900.42	2.49378
1901.92	2.95618
1903.41	3.07177
1904.9	2.91848
1906.39	3.52959
1907.88	3.27567
1909.37	3.03732
1910.86	2.2618
1912.35	1.86524
1913.84	1.71091
1915.32	2.61942
1916.81	2.84474
1918.3	3.15771
1919.79	3.49701
1921.28	3.487
1922.76	3.60824
1924.25	3.71137
1925.74	4.517
1927.22	4.13249
1928.71	3.78878
1930.2	4.8448
1931.68	5.6802
1933.17	5.20989
1934.65	5.21985
1936.14	4.49751
1937.62	5.12534
1939.11	5.14999
1940.59	5.80466
1942.08	6.08715
1943.56	6.99913
1945.04	7.52203
1946.53	7.50347
1948.01	7.52821
1949.49	7.80467
1950.97	8.2702
1952.45	9.18274
1953.94	8.77998
1955.42	8.23804
1956.9	8.0635
1958.38	8.3943
1959.86	8.40501
1961.34	8.59291
1962.82	9.03126
1964.3	8.65376
1965.78	8.24655
1967.26	7.91258
1968.74	7.11065
1970.22	6.63049
1971.69	5.7339
1973.17	5.07878
1974.65	5.07892
1976.13	4.81016
1977.61	4.76005
1979.08	4.4255
1980.56	4.24319
1982.03	3.13911
1983.51	2.84576
1984.99	2.0437
1986.46	2.50077
1987.94	2.63987
1989.41	2.6035
1990.89	2.39821
1992.36	2.02331
1993.84	1.38384
1995.31	0.912479
1996.78	0.0693546
1998.26	0.0945632
1999.73	0.402676
2001.2	-0.124278
2002.68	0.00078272
2004.15	0.623935
2005.62	0.75273
2007.09	-0.130868
2008.56	-0.00160303
2010.04	-0.188596
2011.51	0.661588
2012.98	0.548642
2014.45	1.78919
2015.92	2.24828
2017.39	3.77471
2018.86	4.04771
2020.33	4.9484
2021.8	6.1007
2023.27	6.82919
2024.74	7.06042
2026.2	6.40859
2027.67	6.13646
2029.14	6.89083
2030.61	8.2217
2032.07	8.86323
2033.54	9.41257
2035.01	9.95118
2036.47	9.45876
2037.94	8.68833
2039.41	8.7383
2040.87	8.61682
2042.34	8.57612
2043.8	8.9201
2045.27	9.40812
2046.73	9.61938
2048.2	10.7732
2049.66	11.6402
2051.12	12.2273
2052.59	12.2839
2054.05	12.416
2055.51	12.4172
2056.98	13.0459
2058.44	12.718
2059.9	13.1908
2061.36	13.4145
2062.82	13.4747
2064.29	14.4323
2065.75	15.0684
2067.21	16.448
2068.67	17.4035
2070.13	17.796
2071.59	18.6188
2073.05	19.1747
2074.51	19.8247
2075.97	21.4691
2077.43	21.456
2078.88	22.6706
2080.34	22.5901
2081.8	23.7441
2083.26	25.3199
2084.72	26.1456
2086.17	27.8352
2087.63	29.4672
2089.09	30.0005
2090.54	31.1738
2092	31.9921
2093.46	32.4938
2094.91	32.6598
2096.37	33.5778
2097.82	35.5561
2099.28	36.3335
2100.73	37.268
2102.19	38.9074
2103.64	40.0116
2105.09	41.1243
2106.55	42.1207
2108	43.1413
2109.46	44.2335
2110.91	45.6428
2112.36	47.4561
2113.81	49.586
2115.27	52.419
2116.72	54.4095
2118.17	56.5573
2119.62	59.0689
2121.07	60.7021
2122.52	61.8288
2123.97	63.6505
2125.42	65.7546
2126.87	68.161
2128.32	70.2262
2129.77	72.832
2131.22	74.3771
2132.67	77.0395
2134.12	79.9659
2135.57	82.2197
2137.01	85.4158
