#Acq. time (s)=	45
#Accumulations=	2
#Range (cm-¹)=	200...3150
#Windows=	2
#Auto scanning=	Off
#Autofocus=	Off
#Macrospot=	Off
#AutoExposure=	Off
#Spike filter=	Multiple accum.
#Delay time (s)=	0
#Binning=	1
#Readout mode=	Signal
#DeNoise=	Off
#ICS correction=	On
#Dark correction=	Off
#Inst. Process=	Off
#Detector Gain=	Best Dynamic Range
#Detector ADC=	20 kHz       
#Detector temperature (°C)=	-69.85
#Instrument=	LabRAM HR Evol
#Detector=	Synapse
#Objective=	x100
#Grating=	600 gr/mm
#ND Filter=	100%
#Laser (nm)=	532 
#Hole=	100.021
#Range=	Auto
#Laser Pol.=	No
#Raman. Pol.=	No
#Laser Pol. (°)=	-0.0007625
#Raman Pol. (°)=	89.9995
#Collection=	Microscope
#StageXY=	Marzhauser
#StageZ=	Marzhauser
#X (µm)=	28299.8
#Y (µm)=	-3252.8
#Z (µm)=	1041.05
#Full time(mm:ss)=	3:18
#Project=	
#Sample=	
#Site=	
#Title=	Mb_50_18_31_2x_45s_532 nm_x100_100%_600 gr_mm
#Remark=	
#Date=	12.07.2022 13:12
#Acquired=	12.07.2022 13:12:43
#Base:Fit=	10.08.2022 10:49:18
#Base:Sub=	10.08.2022 10:49:30
#Filter:Polynom=	16.08.2022 10:14:59
#AxisType[0]=Intens
#AxisUnit[0]=Cnt
#AxisType[1]=Spectr
#AxisUnit[1]=1/cm
200.388	15.8959
202.204	15.1235
204.019	14.1249
205.832	14.2687
207.646	13.9976
209.459	13.6711
211.274	13.2017
213.087	12.7689
214.899	12.1177
216.711	12.1473
218.524	11.8858
220.335	12.9434
222.146	13.2437
223.956	14.531
225.766	15.1224
227.576	15.1486
229.388	16.3642
231.197	15.6885
233.005	16.0198
234.813	15.0405
236.621	14.6075
238.429	14.4124
240.236	13.3085
242.045	12.6676
243.852	12.1167
245.658	12.178
247.464	11.8187
249.269	11.8694
251.074	11.0641
252.879	11.9588
254.683	11.2095
256.487	9.89616
258.291	9.98336
260.094	10.0504
261.897	11.4137
263.702	11.9962
265.504	13.0023
267.306	13.7134
269.108	13.5604
270.909	13.8152
272.71	14.1116
274.511	14.5966
276.311	14.3981
278.111	13.6266
279.91	14.1123
281.709	13.5227
283.508	12.8298
285.306	13.1087
287.105	14.4669
288.9	14.1026
290.698	15.4798
292.495	16.6712
294.291	16.8511
296.088	16.8879
297.884	17.9433
299.679	18.6154
301.475	19.9234
303.27	20.9193
305.064	21.5501
306.858	22.3887
308.652	23.8012
310.444	26.0169
312.237	26.5172
314.03	28.4026
315.822	28.8047
317.615	29.2426
319.406	29.9909
321.198	29.219
322.987	29.8809
324.778	29.5827
326.568	29.4558
328.358	29.0257
330.148	28.3387
331.935	27.6732
333.724	27.2811
335.513	27.553
337.301	27.1685
339.089	26.0548
340.875	24.7442
342.662	25.1054
344.449	24.6819
346.236	25.2791
348.02	27.2877
349.806	28.0728
351.592	29.1518
353.375	29.813
355.16	30.2745
356.944	31.5053
358.728	33.5466
360.51	34.9098
362.294	36.2789
364.077	37.5385
365.858	38.1023
367.64	39.2976
369.422	40.6094
371.202	40.7862
372.983	42.0938
374.764	43.8164
376.543	44.138
378.324	44.6917
380.102	46.0159
381.881	46.7129
383.661	46.9128
385.438	48.3864
387.216	48.9858
388.993	49.848
390.771	49.0251
392.548	48.9408
394.324	48.6857
396.101	48.4086
397.875	48.7702
399.651	48.4784
401.425	47.576
403.201	47.8025
404.974	46.6381
406.749	45.8149
408.524	44.549
410.296	42.5424
412.07	40.6085
413.841	38.5003
415.614	35.4717
417.385	33.3041
419.156	30.5276
420.928	28.5572
422.698	27.5005
424.469	25.8786
426.238	23.9169
428.009	21.7381
429.777	20.3287
431.548	19.2646
433.315	17.3818
435.083	16.6121
436.852	16.3568
438.618	15.5658
440.387	14.9374
442.153	15.086
443.919	14.9944
445.686	14.6139
447.451	14.8967
449.218	14.6807
450.982	13.9301
452.746	13.4919
454.512	12.8724
456.275	12.9545
458.038	12.9978
459.803	12.8659
461.565	13.4937
463.327	13.9796
465.091	14.293
466.852	15.1904
468.613	15.5374
470.374	15.935
472.136	16.0227
473.896	16.6161
475.655	17.239
477.415	18.2263
479.176	19.013
480.934	20.9312
482.692	21.9809
484.45	24.0368
486.21	26.8478
487.967	28.8522
489.724	32.369
491.481	34.7472
493.237	36.3459
494.995	38.0486
496.75	39.2861
498.506	41.0559
500.26	42.6684
502.015	44.0731
503.771	44.7484
505.525	46.3928
507.279	47.974
509.032	48.9229
510.785	48.9354
512.537	49.0983
514.289	49.2581
516.041	49.5204
517.793	49.8051
519.546	50.4143
521.297	50.281
523.047	49.6529
524.797	50.8165
526.547	49.884
528.297	49.0002
530.046	49.02
531.795	48.5914
533.543	47.701
535.291	46.4841
537.039	44.3853
538.787	41.4796
540.534	40.1381
542.281	38.4256
544.027	35.9234
545.773	33.9356
547.519	31.8903
549.264	30.6475
551.01	28.9397
552.754	26.5736
554.499	23.6924
556.243	22.2947
557.987	20.6203
559.73	18.7092
561.474	18.5406
563.216	17.8597
564.959	17.5454
566.701	16.5671
568.441	16.5657
570.182	16.1891
571.923	16.6082
573.664	15.1515
575.405	13.7236
577.145	13.9433
578.885	12.821
580.624	12.9015
582.361	11.5896
584.1	10.922
585.839	10.3129
587.577	9.07885
589.315	8.56419
591.052	8.24993
592.787	8.31614
594.524	7.90778
596.26	6.92776
597.997	7.80126
599.732	8.79281
601.466	9.32642
603.201	9.8699
604.936	9.95474
606.67	10.5848
608.403	10.8274
610.136	10.6286
611.87	11.711
613.603	11.5923
615.334	11.8258
617.067	12.6019
618.799	12.1787
620.529	11.0922
622.26	10.3758
623.991	10.2438
625.72	9.39293
627.451	9.95767
629.181	9.79443
630.909	9.07803
632.638	9.96721
634.368	9.9606
636.095	10.5638
637.823	9.8008
639.551	9.39739
641.277	9.6393
643.005	10.0408
644.73	9.93788
646.457	10.529
648.184	10.7019
649.908	9.82906
651.634	10.9271
653.357	10.8936
655.083	11.3551
656.806	10.5424
658.53	10.6959
660.253	9.91548
661.977	9.70789
663.7	10.5468
665.422	10.7866
667.145	11.5639
668.865	10.9456
670.588	12.5193
672.308	13.5828
674.027	14.5515
675.749	14.9977
677.468	15.8574
679.188	17.1175
680.907	18.6214
682.627	20.3053
684.345	22.6707
686.064	24.0275
687.781	24.7504
689.498	24.7738
691.216	25.3932
692.932	27.4266
694.65	28.1576
696.366	27.8854
698.081	29.2746
699.797	30.5823
701.512	31.0074
703.228	31.9892
704.942	31.697
706.655	32.3727
708.371	32.7773
710.083	32.6943
711.796	32.4402
713.51	34.0704
715.222	34.5251
716.934	35.8238
718.645	35.7698
720.358	35.6061
722.068	35.5655
723.779	35.3007
725.49	34.8841
727.2	34.4253
728.909	34.3723
730.618	34.3723
732.329	35.0629
734.037	35.8051
735.745	37.6861
737.453	39.6659
739.16	41.404
740.869	43.716
742.576	45.7984
744.282	48.5102
745.988	51.0828
747.694	54.7085
749.401	58.6738
751.107	61.8738
752.811	64.9998
754.516	68.0621
756.22	71.6674
757.924	74.1177
759.627	75.8118
761.332	77.1858
763.035	80.3742
764.738	83.1906
766.44	86.3423
768.142	87.7882
769.843	89.9968
771.544	90.0591
773.245	91.3915
774.946	92.4926
776.646	94.03
778.346	95.4677
780.046	94.0052
781.745	93.3371
783.444	93.9238
785.143	93.2058
786.841	92.1732
788.539	90.523
790.237	89.0968
791.934	87.5412
793.631	86.1261
795.328	84.6897
797.024	83.8408
798.72	82.3798
800.416	80.1031
802.112	77.6871
803.807	74.5329
805.502	72.6693
807.196	69.6413
808.89	67.7929
810.584	65.9083
812.278	63.9905
813.971	62.9911
815.664	62.217
817.354	61.4923
819.047	61.517
820.739	60.7847
822.43	59.2253
824.122	59.7485
825.813	58.9135
827.503	57.739
829.192	58.3114
830.882	58.0165
832.571	57.4171
834.261	55.9292
835.95	55.4614
837.637	54.5445
839.325	53.9314
841.013	52.168
842.701	51.7218
844.389	50.8185
846.074	49.6035
847.761	49.7687
849.447	48.7476
851.131	47.4348
852.817	44.9674
854.503	44.1043
856.188	42.8533
857.871	42.8921
859.556	41.8957
861.24	39.8847
862.922	39.4616
864.606	38.3843
866.289	36.9906
867.97	36.6787
869.653	35.9581
871.336	36.3869
873.016	36.218
874.698	36.4818
876.379	36.0867
878.058	36.4252
879.739	36.8432
881.418	36.4992
883.098	35.3114
884.778	36.2019
886.456	35.9657
888.135	35.4612
889.812	35.3866
891.49	35.5243
893.167	35.445
894.845	35.2252
896.523	34.7347
898.198	35.1922
899.875	35.1232
901.55	34.2501
903.226	34.9949
904.901	33.7211
906.576	33.5089
908.25	34.05
909.925	33.8085
911.598	33.5943
913.271	33.3972
914.945	32.224
916.617	31.5131
918.291	29.9115
919.962	29.1923
921.635	28.0617
923.306	27.3859
924.978	26.4987
926.648	25.8826
928.318	23.9459
929.989	21.9483
931.659	20.3876
933.328	19.4275
934.998	18.7327
936.666	17.3615
938.336	16.8111
940.004	16.2755
941.671	15.0979
943.34	14.8735
945.007	14.2714
946.673	13.9686
948.339	13.5895
950.007	12.4754
951.672	13.8184
953.337	13.745
955.004	13.0239
956.669	12.0462
958.333	11.9314
959.997	11.3442
961.662	11.0948
963.326	10.4921
964.989	9.69222
966.651	8.99111
968.315	8.87235
969.977	8.15874
971.639	8.08425
973.301	8.90969
974.962	9.5213
976.624	9.0309
978.285	10.3731
979.945	10.8758
981.605	10.7759
983.264	10.462
984.924	11.0696
986.583	12.2945
988.243	12.4047
989.901	12.9785
991.56	12.3282
993.217	12.7043
994.875	12.8565
996.532	13.0672
998.188	14.0906
999.845	16.0868
1001.5	17.1418
1003.16	19.7403
1004.81	21.8878
1006.47	23.379
1008.12	25.7548
1009.78	28.368
1011.43	30.1381
1013.09	32.4861
1014.74	35.6247
1016.39	38.8231
1018.05	40.5211
1019.7	41.3584
1021.35	42.7289
1023	44.2176
1024.65	45.7607
1026.31	47.2567
1027.96	47.9075
1029.61	48.0451
1031.26	49.5683
1032.91	49.141
1034.56	49.3017
1036.21	48.3277
1037.86	46.6707
1039.51	45.1369
1041.16	42.7819
1042.8	41.0076
1044.45	40.0336
1046.1	37.9787
1047.75	36.463
1049.39	35.0493
1051.04	34.4768
1052.69	33.9164
1054.33	32.5342
1055.98	31.2482
1057.62	29.9164
1059.27	28.7959
1060.91	27.5647
1062.56	25.9866
1064.2	24.9517
1065.85	24.5193
1067.49	24.6328
1069.13	24.3411
1070.77	24.3759
1072.42	23.7411
1074.06	23.644
1075.7	24.1412
1077.34	24.4492
1078.98	24.9965
1080.62	26.6751
1082.27	28.0017
1083.91	28.8992
1085.55	29.0452
1087.18	29.8006
1088.82	29.8369
1090.46	31.1418
1092.1	31.7753
1093.74	32.5534
1095.38	33.8905
1097.02	34.0279
1098.65	33.463
1100.29	32.3091
1101.93	31.71
1103.56	31.9899
1105.2	31.6213
1106.84	31.5628
1108.47	30.6057
1110.11	30.0014
1111.74	28.8556
1113.38	27.5895
1115.01	24.9742
1116.64	22.9564
1118.28	20.8163
1119.91	18.2551
1121.54	16.0278
1123.18	15.7468
1124.81	15.7566
1126.44	15.6879
1128.07	14.338
1129.7	14.1917
1131.33	13.5399
1132.97	12.1517
1134.6	11.1461
1136.23	10.8087
1137.86	10.4327
1139.49	11.044
1141.11	9.70525
1142.74	8.19215
1144.37	7.86922
1146	8.33685
1147.63	8.10707
1149.26	7.30307
1150.88	6.35547
1152.51	6.28988
1154.14	5.46426
1155.76	3.75506
1157.39	2.4509
1159.01	1.70134
1160.64	1.74487
1162.27	1.2452
1163.89	1.30768
1165.51	1.16893
1167.14	0.736965
1168.76	1.43891
1170.39	0.667303
1172.01	2.18496
1173.63	2.81348
1175.25	3.33693
1176.88	3.78204
1178.5	4.21993
1180.12	4.71264
1181.74	5.54956
1183.36	6.84692
1184.98	7.79236
1186.6	7.97563
1188.22	7.8975
1189.84	7.71665
1191.46	7.75682
1193.08	8.04771
1194.7	8.47239
1196.32	8.54871
1197.94	9.51208
1199.55	9.88069
1201.17	9.89936
1202.79	10.7529
1204.41	12.5321
1206.02	12.2282
1207.64	12.8851
1209.25	12.2906
1210.87	12.624
1212.48	13.0855
1214.1	13.8366
1215.71	15.0114
1217.33	15.899
1218.94	15.1841
1220.56	15.7157
1222.17	15.1498
1223.79	17.0379
1225.4	18.2582
1227.01	19.783
1228.62	20.533
1230.23	21.1654
1231.85	21.4428
1233.46	22.0299
1235.07	21.1402
1236.68	20.5744
1238.29	21.7981
1239.9	23.5908
1241.51	24.6574
1243.12	25.0852
1244.73	26.1949
1246.34	26.4324
1247.94	26.9927
1249.55	26.2924
1251.16	27.5302
1252.77	29.2587
1254.37	29.406
1255.98	30.1418
1257.59	31.3996
1259.2	33.1418
1260.8	33.8741
1262.41	34.6804
1264.01	34.7723
1265.62	34.8024
1267.22	35.2654
1268.83	35.1977
1270.43	36.3467
1272.03	37.2231
1273.64	38.2149
1275.24	38.2191
1276.85	39.3451
1278.45	39.8338
1280.05	39.833
1281.65	41.0323
1283.25	41.7151
1284.85	41.7847
1286.46	41.9339
1288.06	42.1326
1289.66	42.7345
1291.26	43.7099
1292.86	44.9427
1294.46	44.9639
1296.06	44.7268
1297.66	45.3514
1299.25	44.4842
1300.85	45.8273
1302.45	46.2223
1304.05	46.7241
1305.65	46.8362
1307.24	46.6838
1308.84	46.4264
1310.43	45.9491
1312.03	45.2407
1313.63	44.6339
1315.22	44.2557
1316.82	44.524
1318.41	45.1921
1320.01	45.4807
1321.6	44.9465
1323.2	45.6656
1324.79	45.9941
1326.38	45.9058
1327.98	45.9088
1329.57	45.6753
1331.16	46.5181
1332.76	46.2916
1334.35	45.7226
1335.94	46.054
1337.53	46.1214
1339.12	46.22
1340.71	45.0055
1342.3	44.8516
1343.89	44.0951
1345.48	44.379
1347.07	45.4139
1348.66	44.549
1350.25	44.853
1351.84	44.8204
1353.43	44.593
1355.01	44.9483
1356.6	44.88
1358.19	43.9397
1359.77	43.6551
1361.36	43.4266
1362.95	42.3782
1364.53	42.4001
1366.12	42.5978
1367.71	42.5222
1369.29	42.8771
1370.88	41.9779
1372.46	41.8329
1374.04	41.0816
1375.63	40.7492
1377.21	41.4031
1378.8	39.8944
1380.38	38.6642
1381.96	37.1098
1383.54	36.4226
1385.13	35.209
1386.71	33.2462
1388.29	32.9332
1389.87	32.2799
1391.45	31.1167
1393.03	29.7672
1394.61	29.8671
1396.19	29.7725
1397.77	29.7707
1399.35	29.7924
1400.93	29.8876
1402.51	29.6227
1404.09	29.0413
1405.67	28.9587
1407.24	29.3837
1408.82	29.3637
1410.4	29.3578
1411.98	30.374
1413.55	29.6243
1415.13	31.2595
1416.71	32.0886
1418.28	33.3745
1419.86	34.8835
1421.43	36.6102
1423.01	38.0978
1424.58	40.8103
1426.16	42.6278
1427.73	44.4449
1429.31	46.9924
1430.88	49.3525
1432.45	51.2378
1434.02	52.4962
1435.6	53.1269
1437.17	55.4613
1438.74	56.7635
1440.31	57.6379
1441.88	58.6131
1443.45	59.4918
1445.03	59.8939
1446.6	61.2496
1448.17	61.4837
1449.74	61.8041
1451.3	63.1295
1452.87	63.7435
1454.44	64.0597
1456.01	65.1306
1457.58	64.7372
1459.15	65.7981
1460.72	67.6739
1462.28	69.9701
1463.85	70.5813
1465.42	71.9014
1466.98	72.8288
1468.55	72.5027
1470.12	73.1203
1471.68	74.1086
1473.25	75.5575
1474.81	75.8918
1476.38	75.7063
1477.94	76.612
1479.51	76.4431
1481.07	75.8334
1482.63	76.2426
1484.2	75.0968
1485.76	74.2328
1487.32	73.1491
1488.88	72.2459
1490.45	71.2565
1492.01	70.0497
1493.57	69.8139
1495.13	67.9091
1496.69	67.2409
1498.25	65.7327
1499.81	64.1146
1501.37	62.1213
1502.93	59.45
1504.49	56.9575
1506.05	54.4909
1507.61	51.3915
1509.17	48.1241
1510.73	44.5717
1512.28	40.5155
1513.84	36.9723
1515.4	34.3866
1516.96	31.3035
1518.51	28.9314
1520.07	26.447
1521.63	24.3821
1523.18	22.7996
1524.74	22.1804
1526.29	20.4924
1527.85	19.1144
1529.4	18.75
1530.96	18.4459
1532.51	18.1577
1534.06	18.6209
1535.62	18.7752
1537.17	19.6239
1538.72	20.4012
1540.28	21.0679
1541.83	21.238
1543.38	22.3239
1544.93	22.8443
1546.48	24.1811
1548.03	26.0966
1549.59	26.7779
1551.14	26.5083
1552.69	27.5078
1554.24	28.1649
1555.79	29.4167
1557.34	28.7933
1558.88	28.9074
1560.43	29.8392
1561.98	30.0402
1563.53	30.7757
1565.08	31.8043
1566.62	33.211
1568.17	34.4194
1569.72	36.4875
1571.27	36.5816
1572.81	37.9272
1574.36	38.951
1575.9	39.0872
1577.45	40.6402
1579	41.0685
1580.54	41.3508
1582.09	42.5462
1583.63	43.2122
1585.17	44.1206
1586.72	44.2596
1588.26	44.4517
1589.8	44.541
1591.35	45.4528
1592.89	46.2883
1594.43	47.4106
1595.97	47.4946
1597.52	46.4495
1599.06	46.1917
1600.6	45.5673
1602.14	44.5269
1603.68	43.8583
1605.22	43.7715
1606.76	43.7771
1608.3	44.0641
1609.84	43.7159
1611.38	43.7556
1612.92	43.9786
1614.46	43.8573
1615.99	44.3913
1617.53	44.3655
1619.07	44.5491
1620.61	45.6481
1622.14	45.1622
1623.68	45.6518
1625.22	45.7983
1626.75	45.4044
1628.29	46.4652
1629.82	47.7855
1631.36	47.6935
1632.9	47.4853
1634.43	47.5732
1635.96	48.9104
1637.5	50.5762
1639.03	52.1359
1640.57	53.4311
1642.1	54.6192
1643.63	55.542
1645.16	56.5351
1646.7	57.4156
1648.23	58.4655
1649.76	60.1432
1651.29	60.7801
1652.82	61.8257
1654.36	62.3818
1655.89	61.9947
1657.42	62.3237
1658.95	62.9193
1660.48	62.6425
1662.01	61.9857
1663.53	61.2671
1665.06	61.1117
1666.59	60.3005
1668.12	59.4553
1669.65	58.3291
1671.18	57.5343
1672.7	55.4398
1674.23	53.8207
1675.76	52.1446
1677.29	50.2689
1678.81	49.1972
1680.34	47.4693
1681.86	45.0692
1683.39	43.3569
1684.91	41.5981
1686.44	39.5423
1687.96	37.7678
1689.49	36.0192
1691.01	34.7419
1692.54	33.4211
1694.06	31.3498
1695.58	29.4171
1697.11	28.436
1698.63	26.1166
1700.15	25.6055
1701.67	23.7989
1703.2	22.4634
1704.72	21.5294
1706.24	19.6715
1707.76	18.3024
1709.28	16.6136
1710.8	16.1381
1712.32	15.3638
1713.84	14.3762
1715.36	12.5911
1716.88	10.9048
1718.4	9.11223
1719.91	8.66126
1721.43	8.00268
1722.95	7.36861
1724.47	8.01826
1725.99	7.23039
1727.5	6.70499
1729.02	6.64726
1730.54	6.37387
1732.05	6.93841
1733.57	7.32661
1735.09	6.90545
1736.6	6.07075
1738.12	5.86694
1739.63	5.66577
1741.15	5.50322
1742.66	5.46549
1744.18	5.58561
1745.69	5.23868
1747.2	5.15337
1748.72	4.69435
1750.23	4.92354
1751.74	4.16581
1753.25	4.12839
1754.77	4.0265
1756.28	3.78357
1757.79	4.58291
1759.3	5.70489
1760.81	5.50036
1762.32	5.25665
1763.83	4.84993
1765.34	4.88495
1766.85	5.04659
1768.36	4.61163
1769.87	4.82642
1771.38	4.67183
1772.89	5.46915
1774.4	5.84988
1775.91	5.92545
1777.41	5.63749
1778.92	5.66278
1780.43	6.22419
1781.94	6.13459
1783.44	6.20835
1784.95	5.48614
1786.45	5.3556
1787.96	4.73444
1789.47	4.1409
1790.97	3.75575
1792.48	3.33082
1793.98	3.0226
1795.48	3.69216
1796.99	3.5813
1798.49	4.14311
1800	4.18378
1801.5	3.88061
1803	4.18792
1804.51	4.31861
1806.01	4.14436
1807.51	4.79728
1809.01	4.34749
1810.51	4.09638
1812.02	3.60369
1813.52	3.67199
1815.02	4.19429
1816.52	4.84374
1818.02	5.10226
1819.52	4.85221
1821.02	5.3164
1822.52	5.96552
1824.02	6.78234
1825.51	6.9757
1827.01	7.03436
1828.51	7.34628
1830.01	7.73709
1831.51	8.45647
1833	8.26322
1834.5	8.36527
1836	7.94423
1837.5	7.46821
1838.99	7.43075
1840.49	7.60831
1841.98	7.5473
1843.48	7.79512
1844.97	8.38353
1846.47	8.52002
1847.96	8.90459
1849.46	9.22492
1850.95	9.06353
1852.45	8.8059
1853.94	8.23227
1855.43	8.449
1856.92	7.01851
1858.42	7.31446
1859.91	6.14821
1861.4	6.08508
1862.89	5.8118
1864.39	4.75172
1865.88	4.00064
1867.37	3.77804
1868.86	3.57509
1870.35	3.73558
1871.84	2.78816
1873.33	2.65546
1874.82	3.00961
1876.31	3.28717
1877.8	3.80346
1879.29	3.58931
1880.77	3.36138
1882.26	3.82252
1882.51	3.40438
1884	3.70007
1885.5	3.38852
1886.99	3.7263
1888.48	4.76381
1889.98	4.66739
1891.47	5.27429
1892.97	5.63712
1894.46	5.70424
1895.95	6.05024
1897.44	5.58082
1898.93	4.82631
1900.42	5.06771
1901.92	4.53633
1903.41	4.15937
1904.9	4.31622
1906.39	3.42503
1907.88	3.26345
1909.37	3.41247
1910.86	3.08922
1912.35	3.49183
1913.84	3.77427
1915.32	4.37335
1916.81	4.95929
1918.3	5.43559
1919.79	5.3784
1921.28	4.96488
1922.76	5.16693
1924.25	4.74546
1925.74	4.92693
1927.22	5.40054
1928.71	6.15013
1930.2	6.11055
1931.68	7.04766
1933.17	6.72409
1934.65	6.9095
1936.14	6.73182
1937.62	6.64406
1939.11	7.42717
1940.59	7.79871
1942.08	7.75463
1943.56	8.38088
1945.04	8.19707
1946.53	8.30428
1948.01	8.12178
1949.49	7.56851
1950.97	7.87354
1952.45	7.72264
1953.94	8.35392
1955.42	8.4764
1956.9	8.01719
1958.38	7.8218
1959.86	8.03188
1961.34	8.57996
1962.82	9.2881
1964.3	8.98714
1965.78	8.79102
1967.26	7.947
1968.74	6.84206
1970.22	7.11449
1971.69	6.47088
1973.17	6.40061
1974.65	6.61834
1976.13	6.69757
1977.61	6.84022
1979.08	6.76576
1980.56	6.55526
1982.03	7.15037
1983.51	7.23438
1984.99	6.8776
1986.46	7.31335
1987.94	7.49565
1989.41	7.76095
1990.89	7.39599
1992.36	7.45482
1993.84	6.96687
1995.31	6.65655
1996.78	7.37869
1998.26	7.39824
1999.73	8.31685
2001.2	7.67889
2002.68	7.77059
2004.15	7.60794
2005.62	7.73705
2007.09	7.58801
2008.56	7.52604
2010.04	7.76107
2011.51	7.68959
2012.98	7.41503
2014.45	6.86423
2015.92	7.40808
2017.39	7.03974
2018.86	6.33129
2020.33	6.68144
2021.8	6.61923
2023.27	7.35592
2024.74	8.09499
2026.2	8.329
2027.67	8.1673
2029.14	7.80912
2030.61	7.9931
2032.07	9.36692
2033.54	10.1078
2035.01	10.6457
2036.47	11.2647
2037.94	11.2126
2039.41	11.217
2040.87	11.9271
2042.34	12.3457
2043.8	14.0087
2045.27	15.1757
2046.73	15.9763
2048.2	17.2179
2049.66	17.0982
2051.12	17.5384
2052.59	17.8889
2054.05	18.2147
2055.51	18.7403
2056.98	18.3992
2058.44	18.5892
2059.9	18.9356
2061.36	19.1403
2062.82	19.6897
2064.29	19.8431
2065.75	19.9151
2067.21	19.9115
2068.67	20.1674
2070.13	20.7442
2071.59	20.989
2073.05	22.0277
2074.51	22.3921
2075.97	22.7409
2077.43	22.5246
2078.88	23.1006
2080.34	23.1567
2081.8	23.3798
2083.26	24.3332
2084.72	24.5741
2086.17	25.2013
2087.63	25.73
2089.09	26.086
2090.54	25.9495
2092	26.4815
2093.46	26.8282
2094.91	26.5284
2096.37	28.0073
2097.82	29.2322
2099.28	30.4651
2100.73	31.2829
2102.19	32.8942
2103.64	33.954
2105.09	35.3854
2106.55	35.455
2108	35.8654
2109.46	36.3784
2110.91	37.2566
2112.36	38.2588
2113.81	39.9674
2115.27	41.48
2116.72	43.4119
2118.17	44.64
2119.62	45.315
2121.07	46.6708
2122.52	47.8814
2123.97	50.0592
2125.42	51.2014
2126.87	52.131
2128.32	53.7821
2129.77	55.2593
2131.22	57.3537
2132.67	59.3035
2134.12	60.9036
2135.57	62.7064
2137.01	63.584
