#Acq. time (s)=	45
#Accumulations=	2
#Range (cm-¹)=	200...3150
#Windows=	2
#Auto scanning=	Off
#Autofocus=	Off
#Macrospot=	Off
#AutoExposure=	Off
#Spike filter=	Multiple accum.
#Delay time (s)=	0
#Binning=	1
#Readout mode=	Signal
#DeNoise=	Off
#ICS correction=	On
#Dark correction=	Off
#Inst. Process=	Off
#Detector Gain=	Best Dynamic Range
#Detector ADC=	20 kHz       
#Detector temperature (°C)=	-69.85
#Instrument=	LabRAM HR Evol
#Detector=	Synapse
#Objective=	x100
#Grating=	600 gr/mm
#ND Filter=	100%
#Laser (nm)=	532 
#Hole=	100.021
#Range=	Auto
#Laser Pol.=	No
#Raman. Pol.=	No
#Laser Pol. (°)=	-0.0007625
#Raman Pol. (°)=	89.9995
#Collection=	Microscope
#StageXY=	Marzhauser
#StageZ=	Marzhauser
#X (µm)=	19328.9
#Y (µm)=	3062.8
#Z (µm)=	1047
#Full time(mm:ss)=	3:18
#Project=	
#Sample=	
#Site=	
#Title=	Mb_50_18_09_2x_45s_532 nm_x100_100%_600 gr_mm
#Remark=	
#Date=	12.07.2022 10:57
#Acquired=	12.07.2022 10:57:05
#Base:Fit=	10.08.2022 10:49:18
#Base:Sub=	10.08.2022 10:49:30
#Filter:Polynom=	16.08.2022 10:14:59
#AxisType[0]=Intens
#AxisUnit[0]=Cnt
#AxisType[1]=Spectr
#AxisUnit[1]=1/cm
200.388	9.34323
202.204	10.504
204.019	12.044
205.832	13.716
207.646	14.1288
209.459	14.506
211.274	14.8862
213.087	15.5386
214.899	14.9482
216.711	16.1538
218.524	16.1968
220.335	16.7363
222.146	15.1023
223.956	14.3015
225.766	14.7386
227.576	14.9289
229.388	15.0292
231.197	15.0438
233.005	14.4186
234.813	15.1412
236.621	13.8082
238.429	14.1374
240.236	13.0279
242.045	12.1126
243.852	11.063
245.658	10.6216
247.464	8.98235
249.269	8.11681
251.074	5.73644
252.879	5.87428
254.683	6.8797
256.487	7.11792
258.291	7.0712
260.094	6.93783
261.897	5.62596
263.702	6.50868
265.504	7.85008
267.306	7.98916
269.108	7.26307
270.909	7.17522
272.71	6.69986
274.511	6.30916
276.311	6.81906
278.111	4.88671
279.91	4.66477
281.709	6.32519
283.508	7.99023
285.306	7.69803
287.105	8.87575
288.9	10.2758
290.698	10.9074
292.495	12.9023
294.291	14.1131
296.088	15.2572
297.884	17.6896
299.679	18.4796
301.475	20.7106
303.27	22.0111
305.064	22.8821
306.858	24.5676
308.652	23.4863
310.444	24.6655
312.237	24.3181
314.03	26.1669
315.822	27.3079
317.615	27.9936
319.406	28.9868
321.198	28.6598
322.987	28.6663
324.778	28.3802
326.568	27.4477
328.358	28.4466
330.148	27.0653
331.935	26.0373
333.724	25.5223
335.513	25.5459
337.301	24.6413
339.089	23.9444
340.875	23.1126
342.662	24.344
344.449	24.8228
346.236	24.5231
348.02	25.311
349.806	25.1244
351.592	25.1936
353.375	26.5709
355.16	25.3993
356.944	25.5179
358.728	24.5582
360.51	25.0036
362.294	25.988
364.077	26.6481
365.858	28.4754
367.64	28.1182
369.422	30.2943
371.202	31.286
372.983	32.0103
374.764	32.6035
376.543	33.8443
378.324	34.2928
380.102	34.8143
381.881	36.3782
383.661	36.8383
385.438	37.1698
387.216	38.1476
388.993	38.3313
390.771	39.0342
392.548	38.3842
394.324	37.6148
396.101	37.4112
397.875	36.4579
399.651	36.9647
401.425	35.6982
403.201	35.3579
404.974	34.4018
406.749	34.1181
408.524	32.324
410.296	29.1376
412.07	27.5752
413.841	26.8676
415.614	25.721
417.385	25.26
419.156	23.4776
420.928	22.6462
422.698	22.2435
424.469	21.3222
426.238	20.6189
428.009	20.506
429.777	21.5655
431.548	22.0644
433.315	22.5404
435.083	21.521
436.852	21.1224
438.618	21.1038
440.387	21.436
442.153	22.1784
443.919	21.6718
445.686	22.4318
447.451	21.6667
449.218	21.7971
450.982	22.3946
452.746	22.2933
454.512	22.7848
456.275	22.3897
458.038	23.314
459.803	23.941
461.565	24.1209
463.327	25.2312
465.091	26.0918
466.852	25.6638
468.613	26.3859
470.374	27.7484
472.136	28.7349
473.896	29.789
475.655	31.0616
477.415	31.7627
479.176	33.2425
480.934	34.0422
482.692	35.687
484.45	36.456
486.21	36.7823
487.967	38.9654
489.724	40.1982
491.481	40.1455
493.237	41.0153
494.995	41.8629
496.75	43.419
498.506	45.0182
500.26	48.0503
502.015	49.8808
503.771	50.8714
505.525	52.3013
507.279	52.0544
509.032	52.7265
510.785	52.7905
512.537	53.2475
514.289	54.1522
516.041	52.8169
517.793	51.7461
519.546	50.9077
521.297	50.3368
523.047	48.7012
524.797	47.9549
526.547	48.073
528.297	46.3172
530.046	45.0988
531.795	43.0162
533.543	40.3875
535.291	38.0559
537.039	36.9432
538.787	35.0318
540.534	31.6312
542.281	30.0162
544.027	27.8127
545.773	24.9756
547.519	22.9519
549.264	19.9948
551.01	18.3001
552.754	14.6621
554.499	12.1749
556.243	10.7579
557.987	10.5547
559.73	9.70393
561.474	9.54052
563.216	9.16216
564.959	8.5427
566.701	8.27192
568.441	7.43846
570.182	7.51334
571.923	6.39477
573.664	6.82033
575.405	7.59628
577.145	7.47306
578.885	6.5947
580.624	7.54949
582.361	8.93951
584.1	10.0321
585.839	9.42395
587.577	9.38453
589.315	8.08149
591.052	7.82951
592.787	7.46172
594.524	7.41813
596.26	8.16916
597.997	8.23018
599.732	8.33262
601.466	7.64456
603.201	6.51611
604.936	7.80821
606.67	8.00836
608.403	8.58374
610.136	8.61494
611.87	8.81333
613.603	9.59648
615.334	8.71534
617.067	8.18982
618.799	7.69599
620.529	7.47311
622.26	6.62148
623.991	7.45298
625.72	6.286
627.451	5.29539
629.181	6.82744
630.909	6.72071
632.638	6.4463
634.368	6.64588
636.095	6.40624
637.823	6.49346
639.551	6.96865
641.277	8.31791
643.005	9.31606
644.73	10.7108
646.457	11.4118
648.184	11.0502
649.908	10.5525
651.634	10.7151
653.357	10.9959
655.083	11.8461
656.806	12.5862
658.53	13.0543
660.253	14.1909
661.977	13.6091
663.7	13.2791
665.422	12.93
667.145	13.4643
668.865	15.2277
670.588	14.6692
672.308	14.8977
674.027	14.432
675.749	14.8997
677.468	15.8409
679.188	17.4194
680.907	17.1005
682.627	17.8201
684.345	18.2224
686.064	18.1212
687.781	18.5634
689.498	19.2923
691.216	19.9056
692.932	21.0259
694.65	22.2324
696.366	22.1008
698.081	22.4323
699.797	23.4822
701.512	23.6023
703.228	23.818
704.942	23.9917
706.655	24.4884
708.371	24.5017
710.083	25.7065
711.796	26.1525
713.51	27.3885
715.222	28.0753
716.934	27.9916
718.645	28.4003
720.358	29.2774
722.068	29.3559
723.779	29.1522
725.49	29.3468
727.2	29.1432
728.909	28.5074
730.618	28.2154
732.329	27.7169
734.037	28.9939
735.745	31.7504
737.453	33.9306
739.16	35.4669
740.869	38.8793
742.576	41.4939
744.282	44.1927
745.988	47.0047
747.694	49.1175
749.401	52.2191
751.107	54.8704
752.811	57.8682
754.516	61.1406
756.22	62.8633
757.924	66.0316
759.627	68.6281
761.332	71.7366
763.035	73.5537
764.738	75.5224
766.44	77.0165
768.142	79.9109
769.843	81.3702
771.544	82.5341
773.245	83.9382
774.946	84.744
776.646	86.5914
778.346	88.6766
780.046	86.8539
781.745	86.669
783.444	87.778
785.143	87.9174
786.841	87.3644
788.539	86.6792
790.237	86.2941
791.934	86.7505
793.631	86.3729
795.328	85.9071
797.024	85.3311
798.72	83.619
800.416	82.151
802.112	82.6426
803.807	80.8955
805.502	79.2158
807.196	77.3083
808.89	75.9472
810.584	75.6237
812.278	74.9667
813.971	74.0855
815.664	74.4569
817.354	74.8699
819.047	76.4342
820.739	76.363
822.43	76.0208
824.122	75.9492
825.813	76.3749
827.503	75.9799
829.192	75.8963
830.882	75.637
832.571	74.0963
834.261	74.2589
835.95	74.3938
837.637	74.7264
839.325	74.0472
841.013	73.7325
842.701	72.6474
844.389	71.1504
846.074	70.1159
847.761	67.8271
849.447	65.8045
851.131	64.3084
852.817	63.0152
854.503	61.7318
856.188	60.8334
857.871	59.0981
859.556	57.413
861.24	56.0069
862.922	54.0935
864.606	50.4827
866.289	48.9745
867.97	48.1717
869.653	46.113
871.336	44.1777
873.016	42.25
874.698	41.1748
876.379	39.6481
878.058	38.0388
879.739	36.8681
881.418	36.3378
883.098	35.6876
884.778	35.7197
886.456	36.3018
888.135	33.8708
889.812	33.7638
891.49	33.1368
893.167	32.9051
894.845	32.2624
896.523	31.6074
898.198	31.7176
899.875	30.3251
901.55	29.6577
903.226	29.9166
904.901	28.6844
906.576	29.6033
908.25	29.8616
909.925	29.6942
911.598	30.3353
913.271	30.3847
914.945	30.4622
916.617	30.6067
918.291	31.6937
919.962	31.3921
921.635	31.6561
923.306	31.6513
924.978	31.5371
926.648	31.4076
928.318	32.0831
929.989	31.486
931.659	30.8034
933.328	31.0849
934.998	32.0964
936.666	32.6999
938.336	32.9436
940.004	33.0127
941.671	32.1729
943.34	31.7896
945.007	31.7829
946.673	31.6824
948.339	30.5894
950.007	31.6455
951.672	32.3045
953.337	33.9892
955.004	33.5302
956.669	33.0178
958.333	33.385
959.997	32.5544
961.662	32.265
963.326	32.4987
964.989	32.8681
966.651	32.2323
968.315	31.9399
969.977	31.9194
971.639	30.6063
973.301	29.9274
974.962	30.5173
976.624	30.0997
978.285	29.6588
979.945	28.4646
981.605	27.5682
983.264	26.0313
984.924	26.1876
986.583	26.5711
988.243	27.0926
989.901	28.3949
991.56	27.0951
993.217	26.9629
994.875	28.7265
996.532	29.6986
998.188	31.9984
999.845	34.6797
1001.5	36.0572
1003.16	37.6766
1004.81	39.5068
1006.47	40.8131
1008.12	42.206
1009.78	45.1105
1011.43	46.3691
1013.09	47.4232
1014.74	50.642
1016.39	52.8663
1018.05	55.2593
1019.7	58.2651
1021.35	60.9628
1023	62.6777
1024.65	64.265
1026.31	65.9189
1027.96	67.6693
1029.61	69.2335
1031.26	70.0274
1032.91	72.0442
1034.56	72.0262
1036.21	73.0817
1037.86	70.7058
1039.51	69.7074
1041.16	69.1305
1042.8	68.5877
1044.45	67.66
1046.1	67.2736
1047.75	66.771
1049.39	65.9171
1051.04	64.9842
1052.69	63.6404
1054.33	63.5665
1055.98	62.8101
1057.62	63.2399
1059.27	61.2888
1060.91	60.5535
1062.56	59.1376
1064.2	58.7827
1065.85	58.0249
1067.49	57.4636
1069.13	57.1538
1070.77	56.4615
1072.42	55.0255
1074.06	54.1574
1075.7	54.8149
1077.34	54.0608
1078.98	54.2283
1080.62	54.0887
1082.27	53.3594
1083.91	52.1749
1085.55	51.4012
1087.18	50.5642
1088.82	50.0623
1090.46	50.9274
1092.1	51.0676
1093.74	50.3022
1095.38	50.6282
1097.02	51.4814
1098.65	50.227
1100.29	49.7284
1101.93	50.4239
1103.56	49.3433
1105.2	48.4647
1106.84	48.3453
1108.47	48.5533
1110.11	48.016
1111.74	46.5574
1113.38	45.4962
1115.01	45.2775
1116.64	43.6974
1118.28	42.1006
1119.91	40.0114
1121.54	38.0737
1123.18	37.2532
1124.81	36.309
1126.44	34.7268
1128.07	33.7418
1129.7	33.6191
1131.33	32.7481
1132.97	31.4654
1134.6	30.3933
1136.23	31.3158
1137.86	28.7526
1139.49	27.4942
1141.11	25.1584
1142.74	23.3586
1144.37	21.3081
1146	18.463
1147.63	17.447
1149.26	16.4275
1150.88	14.1763
1152.51	12.5347
1154.14	11.829
1155.76	10.0673
1157.39	7.54828
1159.01	5.9666
1160.64	5.28192
1162.27	3.34731
1163.89	3.17248
1165.51	2.12685
1167.14	1.69298
1168.76	1.31634
1170.39	1.91618
1172.01	1.20732
1173.63	0.763117
1175.25	1.34671
1176.88	1.15933
1178.5	2.24036
1180.12	2.05295
1181.74	2.71729
1183.36	4.19362
1184.98	3.91608
1186.6	3.96763
1188.22	3.72474
1189.84	3.75161
1191.46	3.04498
1193.08	3.82704
1194.7	5.34169
1196.32	5.68777
1197.94	5.80413
1199.55	5.67053
1201.17	5.46571
1202.79	6.45337
1204.41	7.06217
1206.02	7.31376
1207.64	8.23328
1209.25	9.96236
1210.87	11.8378
1212.48	12.6376
1214.1	14.3879
1215.71	16.5956
1217.33	19.1014
1218.94	20.6192
1220.56	22.9021
1222.17	25.2023
1223.79	27.8864
1225.4	30.6701
1227.01	32.8857
1228.62	35.5238
1230.23	37.0284
1231.85	38.0464
1233.46	40.0931
1235.07	42.1203
1236.68	43.3056
1238.29	45.5593
1239.9	48.8255
1241.51	50.8508
1243.12	53.8755
1244.73	56.3994
1246.34	57.9416
1247.94	60.3571
1249.55	62.0317
1251.16	63.2145
1252.77	64.6811
1254.37	66.9399
1255.98	68.8249
1257.59	70.1878
1259.2	72.9797
1260.8	73.1293
1262.41	74.5313
1264.01	76.6206
1265.62	76.716
1267.22	77.9778
1268.83	79.0088
1270.43	81.7192
1272.03	83.8803
1273.64	84.9123
1275.24	85.4135
1276.85	85.7582
1278.45	86.4881
1280.05	86.5876
1281.65	88.4832
1283.25	89.4881
1284.85	90.1681
1286.46	91.351
1288.06	92.5458
1289.66	93.9066
1291.26	94.3001
1292.86	94.4913
1294.46	95.6231
1296.06	95.8427
1297.66	95.942
1299.25	96.4652
1300.85	97.0351
1302.45	97.2567
1304.05	96.6332
1305.65	96.2758
1307.24	95.7098
1308.84	95.2511
1310.43	95.4554
1312.03	95.539
1313.63	95.4724
1315.22	96.0548
1316.82	96.0169
1318.41	95.7166
1320.01	95.926
1321.6	95.2946
1323.2	94.5332
1324.79	92.5879
1326.38	91.7134
1327.98	90.8407
1329.57	89.4686
1331.16	88.2424
1332.76	87.5881
1334.35	86.3271
1335.94	85.847
1337.53	84.0677
1339.12	82.6105
1340.71	81.2597
1342.3	80.6762
1343.89	78.398
1345.48	76.0663
1347.07	74.9729
1348.66	73.6641
1350.25	73.0247
1351.84	70.9561
1353.43	67.8309
1355.01	65.3409
1356.6	63.2184
1358.19	61.398
1359.77	58.6888
1361.36	56.5828
1362.95	52.1713
1364.53	50.0073
1366.12	46.8814
1367.71	43.7898
1369.29	42.22
1370.88	39.8846
1372.46	37.4766
1374.04	37.036
1375.63	34.8866
1377.21	33.577
1378.8	32.9578
1380.38	31.7416
1381.96	29.0346
1383.54	28.2361
1385.13	27.7839
1386.71	26.6303
1388.29	26.434
1389.87	25.9116
1391.45	24.807
1393.03	24.0189
1394.61	23.7166
1396.19	23.2927
1397.77	23.4837
1399.35	22.9209
1400.93	22.7368
1402.51	22.6016
1404.09	23.3326
1405.67	25.1883
1407.24	26.6972
1408.82	28.7672
1410.4	30.1858
1411.98	32.3095
1413.55	34.5246
1415.13	37.4442
1416.71	40.3334
1418.28	44.622
1419.86	48.7954
1421.43	52.4761
1423.01	56.5327
1424.58	61.377
1426.16	66.5212
1427.73	71.3501
1429.31	74.4671
1430.88	78.3397
1432.45	81.9434
1434.02	86.8254
1435.6	91.2324
1437.17	94.0547
1438.74	95.6459
1440.31	98.5169
1441.88	100.856
1443.45	103.99
1445.03	106.201
1446.6	107.917
1448.17	110.357
1449.74	111.291
1451.3	112.435
1452.87	113.341
1454.44	113.594
1456.01	114.475
1457.58	115.18
1459.15	115.323
1460.72	114.267
1462.28	114.959
1463.85	114.71
1465.42	113.124
1466.98	111.717
1468.55	109.615
1470.12	107.111
1471.68	105.45
1473.25	102.845
1474.81	100.11
1476.38	96.871
1477.94	93.09
1479.51	90.2729
1481.07	86.2809
1482.63	83.7033
1484.2	79.9208
1485.76	76.4797
1487.32	72.118
1488.88	67.9099
1490.45	65.0625
1492.01	62.1261
1493.57	59.6734
1495.13	57.4448
1496.69	55.4658
1498.25	52.7153
1499.81	51.0711
1501.37	48.3062
1502.93	45.8906
1504.49	44.045
1506.05	40.8613
1507.61	38.0845
1509.17	36.9646
1510.73	34.2611
1512.28	32.5395
1513.84	30.019
1515.4	27.6748
1516.96	25.2931
1518.51	24.4691
1520.07	23.4298
1521.63	23.2559
1523.18	22.6981
1524.74	21.4907
1526.29	21.0572
1527.85	21.6615
1529.4	22.1465
1530.96	22.7606
1532.51	23.6686
1534.06	24.5133
1535.62	25.2443
1537.17	25.2552
1538.72	25.5796
1540.28	28.3139
1541.83	28.7979
1543.38	28.5096
1544.93	29.3445
1546.48	29.6529
1548.03	30.687
1549.59	32.0593
1551.14	31.6069
1552.69	31.5206
1554.24	32.4168
1555.79	32.2122
1557.34	31.5604
1558.88	31.0603
1560.43	31.5164
1561.98	30.7973
1563.53	31.5001
1565.08	32.7025
1566.62	35.2701
1568.17	36.7709
1569.72	39.3211
1571.27	40.5388
1572.81	43.1317
1574.36	44.6972
1575.9	46.3495
1577.45	48.4084
1579	50.7401
1580.54	53.2382
1582.09	55.1716
1583.63	56.5848
1585.17	59.174
1586.72	60.4845
1588.26	60.7985
1589.8	62.6792
1591.35	63.5639
1592.89	64.5416
1594.43	66.6116
1595.97	68.1232
1597.52	69.8924
1599.06	70.4891
1600.6	70.7362
1602.14	70.7158
1603.68	71.3998
1605.22	71.6096
1606.76	70.1833
1608.3	69.7341
1609.84	69.3914
1611.38	69.4388
1612.92	69.6419
1614.46	69.4164
1615.99	70.1483
1617.53	70.9816
1619.07	69.7886
1620.61	69.2709
1622.14	69.685
1623.68	69.9174
1625.22	71.8848
1626.75	72.4033
1628.29	72.1516
1629.82	73.0549
1631.36	75.5732
1632.9	75.3494
1634.43	76.6622
1635.96	78.6779
1637.5	81.0343
1639.03	82.7638
1640.57	85.7037
1642.1	87.7094
1643.63	89.6551
1645.16	90.9866
1646.7	94.2412
1648.23	96.4783
1649.76	98.1217
1651.29	99.7341
1652.82	102.137
1654.36	103.194
1655.89	104.716
1657.42	104.534
1658.95	105.132
1660.48	105.537
1662.01	105.312
1663.53	104.333
1665.06	103.821
1666.59	104.18
1668.12	103.477
1669.65	102.283
1671.18	101.626
1672.7	99.0562
1674.23	97.6725
1675.76	94.5374
1677.29	91.5023
1678.81	87.9677
1680.34	84.8688
1681.86	81.0471
1683.39	78.1013
1684.91	76.0925
1686.44	73.1089
1687.96	69.3275
1689.49	65.7887
1691.01	61.985
1692.54	58.6247
1694.06	55.4019
1695.58	52.0135
1697.11	48.4435
1698.63	45.6282
1700.15	43.5037
1701.67	41.9493
1703.2	39.8777
1704.72	36.659
1706.24	35.4296
1707.76	33.5299
1709.28	30.2457
1710.8	28.3482
1712.32	25.9385
1713.84	24.0328
1715.36	22.4615
1716.88	20.8741
1718.4	18.8163
1719.91	18.5807
1721.43	18.0993
1722.95	17.5827
1724.47	16.2828
1725.99	15.2194
1727.5	14.9
1729.02	13.9873
1730.54	12.6633
1732.05	12.0963
1733.57	11.7813
1735.09	11.8403
1736.6	10.7455
1738.12	9.5038
1739.63	8.53612
1741.15	8.79201
1742.66	8.95553
1744.18	8.7639
1745.69	8.82607
1747.2	9.14236
1748.72	8.81879
1750.23	8.54059
1751.74	8.0445
1753.25	7.30335
1754.77	7.4317
1756.28	7.93148
1757.79	7.73506
1759.3	7.25878
1760.81	6.48521
1762.32	5.94172
1763.83	5.39361
1765.34	5.32832
1766.85	4.74747
1768.36	3.97102
1769.87	4.04651
1771.38	3.77249
1772.89	3.01461
1774.4	3.88831
1775.91	4.52941
1777.41	4.45587
1778.92	3.85976
1780.43	3.15761
1781.94	3.55688
1783.44	2.64259
1784.95	2.28096
1786.45	2.04318
1787.96	1.67398
1789.47	1.44212
1790.97	1.30864
1792.48	0.903823
1793.98	0.709378
1795.48	1.55838
1796.99	0.93909
1798.49	0.334572
1800	0.359974
1801.5	-0.0448472
1803	-1.14361
1804.51	-0.920688
1806.01	-0.851041
1807.51	-0.395379
1809.01	0.164197
1810.51	0.0892231
1812.02	-0.446361
1813.52	0.242504
1815.02	0.990682
1816.52	2.09353
1818.02	2.78377
1819.52	2.50174
1821.02	3.09715
1822.52	2.65616
1824.02	2.22685
1825.51	2.07455
1827.01	2.7348
1828.51	3.08898
1830.01	3.80446
1831.51	4.32657
1833	4.32219
1834.5	4.23828
1836	4.80914
1837.5	5.50248
1838.99	5.26635
1840.49	5.11858
1841.98	5.40454
1843.48	6.03877
1844.97	6.12877
1846.47	5.81814
1847.96	5.97687
1849.46	6.13525
1850.95	5.36613
1852.45	5.12523
1853.94	4.97371
1855.43	5.14473
1856.92	3.92256
1858.42	3.71107
1859.91	3.74291
1861.4	3.60168
1862.89	3.01506
1864.39	2.04864
1865.88	2.09289
1867.37	2.01857
1868.86	1.56956
1870.35	1.59475
1871.84	1.05672
1873.33	1.29062
1874.82	1.57984
1876.31	1.03716
1877.8	1.5117
1879.29	1.9801
1880.77	1.44828
1882.26	1.3584
1882.51	1.77017
1884	2.12123
1885.5	1.92795
1886.99	1.62315
1888.48	0.783161
1889.98	0.398019
1891.47	-0.262621
1892.97	-0.91482
1894.46	-1.122
1895.95	-1.40407
1897.44	-0.864742
1898.93	0.285575
1900.42	1.37138
1901.92	1.55743
1903.41	2.19699
1904.9	2.90221
1906.39	3.06063
1907.88	3.86192
1909.37	4.05357
1910.86	4.36728
1912.35	4.23764
1913.84	4.86228
1915.32	5.61324
1916.81	5.70437
1918.3	6.07063
1919.79	6.03926
1921.28	5.63123
1922.76	5.36211
1924.25	5.18021
1925.74	4.71435
1927.22	4.06504
1928.71	4.84471
1930.2	4.79473
1931.68	5.69805
1933.17	5.68491
1934.65	4.99767
1936.14	4.53174
1937.62	4.51259
1939.11	5.07313
1940.59	5.40947
1942.08	5.35635
1943.56	5.15911
1945.04	4.14181
1946.53	4.12509
1948.01	3.73632
1949.49	3.08586
1950.97	3.09917
1952.45	2.08201
1953.94	2.32039
1955.42	2.81887
1956.9	2.66356
1958.38	1.64922
1959.86	0.221894
1961.34	-0.852834
1962.82	-0.765114
1964.3	-0.667641
1965.78	-0.594966
1967.26	-0.152188
1968.74	-0.36381
1970.22	-0.00848891
1971.69	0.755422
1973.17	0.574123
1974.65	0.807559
1976.13	1.10895
1977.61	2.08484
1979.08	2.07141
1980.56	2.04573
1982.03	2.07186
1983.51	1.84621
1984.99	2.05524
1986.46	1.35974
1987.94	1.83405
1989.41	1.71418
1990.89	2.10554
1992.36	2.00594
1993.84	2.13778
1995.31	2.23281
1996.78	3.13926
1998.26	2.74224
1999.73	2.95841
2001.2	3.49203
2002.68	4.62803
2004.15	4.24544
2005.62	4.94955
2007.09	4.49284
2008.56	4.13529
2010.04	4.81677
2011.51	5.19835
2012.98	5.30921
2014.45	6.05624
2015.92	5.77304
2017.39	4.95398
2018.86	5.46006
2020.33	6.85108
2021.8	6.95065
2023.27	6.66905
2024.74	7.0982
2026.2	8.12018
2027.67	8.40933
2029.14	8.43823
2030.61	8.27539
2032.07	9.21161
2033.54	9.50177
2035.01	10.4212
2036.47	10.8086
2037.94	10.957
2039.41	11.541
2040.87	11.5928
2042.34	12.4377
2043.8	13.5788
2045.27	14.8121
2046.73	15.3344
2048.2	17.2427
2049.66	18.5829
2051.12	19.1596
2052.59	19.8789
2054.05	20.5444
2055.51	21.1724
2056.98	22.4699
2058.44	22.9136
2059.9	23.9166
2061.36	25.8724
2062.82	26.9935
2064.29	28.3561
2065.75	29.7574
2067.21	31.4801
2068.67	32.4406
2070.13	33.1885
2071.59	34.2266
2073.05	36.0935
2074.51	37.3013
2075.97	38.3232
2077.43	40.0037
2078.88	41.9181
2080.34	43.2048
2081.8	44.6409
2083.26	46.4683
2084.72	48.412
2086.17	49.9296
2087.63	51.7234
2089.09	53.4757
2090.54	55.9476
2092	58.9906
2093.46	61.6352
2094.91	64.0054
2096.37	66.3003
2097.82	69.1865
2099.28	71.6208
2100.73	73.4784
2102.19	76.218
2103.64	78.5133
2105.09	81.2497
2106.55	83.4105
2108	86.3326
2109.46	88.925
2110.91	92.7313
2112.36	96.6295
2113.81	100.406
2115.27	104.002
2116.72	106.9
2118.17	109.608
2119.62	112.646
2121.07	115.971
2122.52	118.982
2123.97	122.034
2125.42	126.489
2126.87	129.434
2128.32	134.018
2129.77	138.34
2131.22	142.021
