#Acq. time (s)=	45
#Accumulations=	2
#Range (cm-¹)=	200...3150
#Windows=	2
#Auto scanning=	Off
#Autofocus=	Off
#Macrospot=	Off
#AutoExposure=	Off
#Spike filter=	Multiple accum.
#Delay time (s)=	0
#Binning=	1
#Readout mode=	Signal
#DeNoise=	Off
#ICS correction=	On
#Dark correction=	Off
#Inst. Process=	Off
#Detector Gain=	Best Dynamic Range
#Detector ADC=	20 kHz       
#Detector temperature (°C)=	-69.85
#Instrument=	LabRAM HR Evol
#Detector=	Synapse
#Objective=	x100
#Grating=	600 gr/mm
#ND Filter=	100%
#Laser (nm)=	532 
#Hole=	100.021
#Range=	Auto
#Laser Pol.=	No
#Raman. Pol.=	No
#Laser Pol. (°)=	-0.0007625
#Raman Pol. (°)=	89.9995
#Collection=	Microscope
#StageXY=	Marzhauser
#StageZ=	Marzhauser
#X (µm)=	28249.8
#Y (µm)=	-3209.3
#Z (µm)=	1041.05
#Full time(mm:ss)=	3:18
#Project=	
#Sample=	
#Site=	
#Title=	Mb_50_18_39_2x_45s_532 nm_x100_100%_600 gr_mm
#Remark=	
#Date=	12.07.2022 13:59
#Acquired=	12.07.2022 13:59:34
#Base:Fit=	10.08.2022 10:49:18
#Base:Sub=	10.08.2022 10:49:30
#Filter:Polynom=	16.08.2022 10:14:59
#AxisType[0]=Intens
#AxisUnit[0]=Cnt
#AxisType[1]=Spectr
#AxisUnit[1]=1/cm
200.388	20.5325
202.204	20.3357
204.019	18.0825
205.832	17.8406
207.646	15.9485
209.459	14.623
211.274	13.5242
213.087	12.7939
214.899	12.5821
216.711	12.6506
218.524	12.7499
220.335	12.2716
222.146	11.0778
223.956	10.604
225.766	8.55974
227.576	8.37449
229.388	8.82498
231.197	10.1858
233.005	9.68076
234.813	9.77969
236.621	10.7975
238.429	11.2235
240.236	11.8333
242.045	12.664
243.852	12.8076
245.658	13.5448
247.464	14.1812
249.269	15.5233
251.074	16.7889
252.879	17.3449
254.683	16.8662
256.487	17.7595
258.291	18.4332
260.094	18.3429
261.897	18.641
263.702	18.6426
265.504	18.5435
267.306	19.1188
269.108	20.4649
270.909	21.717
272.71	21.7951
274.511	22.8412
276.311	22.4039
278.111	23.0864
279.91	21.2487
281.709	22.4049
283.508	22.4744
285.306	22.4558
287.105	21.8829
288.9	23.3199
290.698	23.8919
292.495	25.5286
294.291	27.1146
296.088	27.2564
297.884	29.351
299.679	30.4022
301.475	30.9186
303.27	31.81
305.064	32.5435
306.858	33.1572
308.652	33.3209
310.444	33.8152
312.237	33.9832
314.03	34.7717
315.822	35.8814
317.615	37.5864
319.406	38.104
321.198	38.5965
322.987	37.5519
324.778	37.6861
326.568	38.0125
328.358	37.5297
330.148	37.0517
331.935	36.9916
333.724	36.1624
335.513	36.1051
337.301	34.6524
339.089	34.6635
340.875	33.6272
342.662	33.086
344.449	33.3851
346.236	34.5583
348.02	35.4818
349.806	36.1113
351.592	36.9864
353.375	39.1992
355.16	42.0991
356.944	44.4697
358.728	47.2437
360.51	50.2929
362.294	53.8394
364.077	56.2469
365.858	59.2771
367.64	61.9634
369.422	64.5365
371.202	68.5296
372.983	70.6401
374.764	73.0812
376.543	76.305
378.324	78.9066
380.102	80.1276
381.881	80.8661
383.661	81.1001
385.438	82.4093
387.216	83.2406
388.993	84.1011
390.771	83.9542
392.548	83.408
394.324	82.6298
396.101	81.8703
397.875	80.3906
399.651	79.2402
401.425	77.2569
403.201	74.7602
404.974	72.6544
406.749	70.2573
408.524	67.5936
410.296	64.3065
412.07	60.7107
413.841	56.6017
415.614	52.5081
417.385	47.7722
419.156	42.8456
420.928	39.1457
422.698	34.8534
424.469	31.2961
426.238	28.2586
428.009	26.2573
429.777	22.9857
431.548	20.6841
433.315	19.8744
435.083	18.5173
436.852	16.9549
438.618	14.7368
440.387	13.789
442.153	14.1122
443.919	13.7325
445.686	14.2582
447.451	14.2687
449.218	14.964
450.982	14.4689
452.746	12.8054
454.512	12.8126
456.275	12.9431
458.038	14.2064
459.803	14.7044
461.565	15.3306
463.327	15.8029
465.091	14.6076
466.852	13.7815
468.613	14.4665
470.374	15.125
472.136	14.9891
473.896	16.6593
475.655	17.988
477.415	19.5937
479.176	20.7597
480.934	22.4121
482.692	25.5834
484.45	29.2821
486.21	32.1269
487.967	35.4985
489.724	38.827
491.481	42.2077
493.237	46.4232
494.995	51.0492
496.75	53.7004
498.506	56.8573
500.26	59.5605
502.015	61.5444
503.771	63.9422
505.525	66.8191
507.279	69.9764
509.032	72.211
510.785	74.0264
512.537	74.8677
514.289	74.8925
516.041	75.7107
517.793	76.1874
519.546	76.6442
521.297	76.369
523.047	74.8748
524.797	75.285
526.547	74.299
528.297	73.9204
530.046	73.7402
531.795	72.8394
533.543	70.22
535.291	67.9866
537.039	66.158
538.787	63.3004
540.534	61.2253
542.281	58.8572
544.027	56.0021
545.773	51.443
547.519	47.5799
549.264	43.1135
551.01	39.5008
552.754	35.4762
554.499	33.6409
556.243	30.4318
557.987	26.7996
559.73	25.3567
561.474	25.4414
563.216	24.7183
564.959	22.8878
566.701	20.6257
568.441	19.6672
570.182	20.0889
571.923	20.227
573.664	19.563
575.405	19.2392
577.145	20.4901
578.885	20.9089
580.624	20.8878
582.361	21.6566
584.1	21.6046
585.839	22.1269
587.577	21.7499
589.315	21.0333
591.052	21.2284
592.787	21.1204
594.524	20.8179
596.26	19.2985
597.997	19.1987
599.732	18.8433
601.466	19.5846
603.201	20.9599
604.936	20.7832
606.67	19.7915
608.403	18.8897
610.136	19.2212
611.87	18.7564
613.603	17.1085
615.334	15.5342
617.067	14.6642
618.799	13.5684
620.529	11.9744
622.26	12.0666
623.991	11.2561
625.72	10.334
627.451	8.87587
629.181	8.77045
630.909	7.54962
632.638	6.81665
634.368	7.13079
636.095	6.14437
637.823	6.4562
639.551	5.02397
641.277	4.307
643.005	3.28375
644.73	3.55707
646.457	4.48539
648.184	3.20477
649.908	2.40743
651.634	1.735
653.357	1.62592
655.083	2.77648
656.806	3.29093
658.53	3.6365
660.253	3.24987
661.977	3.38572
663.7	5.07054
665.422	5.48128
667.145	6.08583
668.865	7.08969
670.588	8.06318
672.308	8.47995
674.027	7.93326
675.749	7.82336
677.468	8.81219
679.188	8.69629
680.907	9.65891
682.627	10.5415
684.345	10.9219
686.064	12.0408
687.781	12.6427
689.498	13.2936
691.216	13.2898
692.932	13.4123
694.65	14.7251
696.366	14.9432
698.081	14.606
699.797	14.5769
701.512	15.037
703.228	15.7639
704.942	17.5932
706.655	17.9479
708.371	18.4824
710.083	19.2014
711.796	20.5475
713.51	20.9331
715.222	22.0608
716.934	21.1815
718.645	21.506
720.358	21.3309
722.068	21.6709
723.779	21.8824
725.49	21.791
727.2	22.0306
728.909	21.7746
730.618	22.6967
732.329	24.6046
734.037	26.566
735.745	29.0148
737.453	33.0392
739.16	38.1562
740.869	43.4183
742.576	48.7307
744.282	55.3381
745.988	61.7789
747.694	68.5843
749.401	75.3285
751.107	81.353
752.811	87.5064
754.516	92.8508
756.22	98.983
757.924	103.791
759.627	109.686
761.332	114.831
763.035	118.747
764.738	122.712
766.44	125.187
768.142	127.397
769.843	129.053
771.544	132.32
773.245	134.353
774.946	135.953
776.646	135.978
778.346	136.161
780.046	134.96
781.745	133.339
783.444	131.388
785.143	130.077
786.841	129.162
788.539	126.695
790.237	124.004
791.934	120.357
793.631	116.681
795.328	112.94
797.024	109.02
798.72	104.882
800.416	100.149
802.112	94.0198
803.807	89.0708
805.502	84.6907
807.196	80.1136
808.89	75.5279
810.584	70.9124
812.278	66.8915
813.971	64.2249
815.664	62.9339
817.354	62.4203
819.047	59.8098
820.739	58.1057
822.43	58.8939
824.122	59.1643
825.813	59.2608
827.503	59.6394
829.192	60.0315
830.882	60.1425
832.571	59.4834
834.261	58.6902
835.95	58.0896
837.637	57.6381
839.325	56.8622
841.013	56.624
842.701	56.0276
844.389	55.2779
846.074	53.0151
847.761	51.1672
849.447	50.8426
851.131	48.7814
852.817	48.6218
854.503	49.0798
856.188	48.617
857.871	46.703
859.556	45.0746
861.24	43.9271
862.922	42.8915
864.606	41.5901
866.289	40.7583
867.97	39.467
869.653	39.2986
871.336	38.8015
873.016	36.6067
874.698	35.4122
876.379	35.2565
878.058	34.5277
879.739	34.8324
881.418	33.6652
883.098	33.4863
884.778	32.1698
886.456	32.7546
888.135	33.3354
889.812	33.9302
891.49	34.293
893.167	34.384
894.845	33.4868
896.523	33.9975
898.198	34.4124
899.875	33.5077
901.55	32.057
903.226	31.3996
904.901	32.1063
906.576	33.148
908.25	33.659
909.925	33.0658
911.598	32.1465
913.271	32.6486
914.945	32.0767
916.617	30.3546
918.291	29.2517
919.962	29.586
921.635	29.3365
923.306	28.9439
924.978	28.8897
926.648	27.7955
928.318	27.0112
929.989	26.0277
931.659	24.3806
933.328	23.3658
934.998	21.9958
936.666	21.8731
938.336	21.5567
940.004	20.2318
941.671	18.315
943.34	17.2267
945.007	16.0583
946.673	13.6487
948.339	13.1766
950.007	12.3494
951.672	12.5409
953.337	11.296
955.004	9.75988
956.669	7.60738
958.333	7.11297
959.997	6.70373
961.662	6.32577
963.326	5.41134
964.989	4.78036
966.651	5.49677
968.315	6.00979
969.977	6.73153
971.639	5.98081
973.301	5.96266
974.962	5.8794
976.624	5.6877
978.285	4.48168
979.945	3.9099
981.605	2.68316
983.264	1.76402
984.924	2.02133
986.583	3.08313
988.243	2.73768
989.901	3.60349
991.56	4.63036
993.217	5.35588
994.875	8.11908
996.532	12.5398
998.188	13.7164
999.845	17.1858
1001.5	22.9582
1003.16	29.5185
1004.81	33.8306
1006.47	38.6809
1008.12	43.1739
1009.78	47.964
1011.43	53.8752
1013.09	58.6504
1014.74	64.0162
1016.39	68.2663
1018.05	73.2791
1019.7	77.6214
1021.35	81.1717
1023	84.1396
1024.65	86.0947
1026.31	89.4444
1027.96	92.7274
1029.61	93.9982
1031.26	95.7281
1032.91	94.7113
1034.56	93.9451
1036.21	91.8727
1037.86	90.7109
1039.51	89.0422
1041.16	88.0542
1042.8	86.8969
1044.45	84.2257
1046.1	81.7229
1047.75	79.4439
1049.39	76.1559
1051.04	73.2457
1052.69	70.7018
1054.33	67.3219
1055.98	65.1181
1057.62	64.2415
1059.27	62.3403
1060.91	59.567
1062.56	58.1679
1064.2	57.5577
1065.85	57.4803
1067.49	57.4798
1069.13	57.4378
1070.77	58.2686
1072.42	60.1774
1074.06	61.1401
1075.7	63.14
1077.34	64.9753
1078.98	67.1065
1080.62	66.8325
1082.27	68.2179
1083.91	69.76
1085.55	70.6604
1087.18	69.0393
1088.82	69.7647
1090.46	69.9973
1092.1	70.4951
1093.74	70.0382
1095.38	69.9638
1097.02	68.6683
1098.65	65.6276
1100.29	65.4503
1101.93	63.7521
1103.56	62.0053
1105.2	60.3789
1106.84	57.7221
1108.47	55.2385
1110.11	52.4532
1111.74	48.4787
1113.38	44.7203
1115.01	40.7457
1116.64	37.7339
1118.28	34.5063
1119.91	32.2496
1121.54	28.4618
1123.18	27.6689
1124.81	24.9534
1126.44	21.2369
1128.07	19.3406
1129.7	17.538
1131.33	15.868
1132.97	15.6141
1134.6	14.7361
1136.23	13.4307
1137.86	14.1596
1139.49	13.9107
1141.11	13.1015
1142.74	13.2013
1144.37	12.9548
1146	13.6245
1147.63	13.6121
1149.26	13.9499
1150.88	13.724
1152.51	14.1594
1154.14	14.3421
1155.76	13.7073
1157.39	13.2708
1159.01	11.3542
1160.64	10.6682
1162.27	9.72485
1163.89	9.68461
1165.51	10.362
1167.14	10.9744
1168.76	10.2496
1170.39	11.6402
1172.01	11.5508
1173.63	13.0779
1175.25	15.0733
1176.88	16.3544
1178.5	16.9865
1180.12	16.7845
1181.74	18.5143
1183.36	18.6767
1184.98	19.925
1186.6	21.6083
1188.22	21.8115
1189.84	22.2401
1191.46	23.1503
1193.08	23.1048
1194.7	23.2656
1196.32	22.9564
1197.94	24.212
1199.55	23.7341
1201.17	24.3242
1202.79	23.9845
1204.41	24.1237
1206.02	22.2038
1207.64	21.7563
1209.25	22.6414
1210.87	23.8864
1212.48	24.7749
1214.1	25.6491
1215.71	26.6247
1217.33	28.5577
1218.94	30.2021
1220.56	30.8209
1222.17	32.2687
1223.79	32.3791
1225.4	34.0326
1227.01	36.4529
1228.62	37.1966
1230.23	39.0193
1231.85	39.8299
1233.46	40.2491
1235.07	40.3108
1236.68	39.6965
1238.29	39.6152
1239.9	39.019
1241.51	40.6436
1243.12	42.2942
1244.73	42.6206
1246.34	43.2442
1247.94	44.6243
1249.55	44.7478
1251.16	46.3282
1252.77	47.1252
1254.37	48.2711
1255.98	48.551
1257.59	48.2147
1259.2	48.5412
1260.8	48.9033
1262.41	49.575
1264.01	51.2375
1265.62	53.6505
1267.22	54.9305
1268.83	54.1837
1270.43	54.3955
1272.03	56.6549
1273.64	57.6878
1275.24	58.2
1276.85	58.9631
1278.45	60.2535
1280.05	60.6705
1281.65	62.1577
1283.25	63.7749
1284.85	64.7589
1286.46	67.5289
1288.06	69.2414
1289.66	72.1549
1291.26	74.6442
1292.86	75.912
1294.46	76.1061
1296.06	77.1889
1297.66	77.6405
1299.25	77.8324
1300.85	78.2278
1302.45	78.8039
1304.05	79.7016
1305.65	80.3704
1307.24	79.9329
1308.84	79.1768
1310.43	79.3237
1312.03	79.0817
1313.63	78.6635
1315.22	78.1926
1316.82	78.012
1318.41	77.2838
1320.01	76.7107
1321.6	77.0358
1323.2	76.3455
1324.79	75.0328
1326.38	74.6976
1327.98	74.2543
1329.57	72.1822
1331.16	70.6855
1332.76	69.0739
1334.35	68.7366
1335.94	68.4832
1337.53	68.1769
1339.12	68.3883
1340.71	67.9343
1342.3	67.454
1343.89	67.9142
1345.48	67.4018
1347.07	66.1036
1348.66	65.2976
1350.25	65.5476
1351.84	65.8434
1353.43	63.7584
1355.01	62.7504
1356.6	61.7836
1358.19	60.4248
1359.77	59.0513
1361.36	58.2155
1362.95	58.0088
1364.53	56.91
1366.12	56.9884
1367.71	56.3048
1369.29	56.2505
1370.88	54.6236
1372.46	52.1236
1374.04	50.2533
1375.63	49.6409
1377.21	49.4712
1378.8	48.1169
1380.38	47.1647
1381.96	45.3834
1383.54	44.6222
1385.13	42.1295
1386.71	40.3175
1388.29	39.1316
1389.87	36.8365
1391.45	35.5908
1393.03	33.7316
1394.61	31.281
1396.19	30.754
1397.77	29.5393
1399.35	28.9905
1400.93	29.0442
1402.51	30.4929
1404.09	30.1734
1405.67	30.7357
1407.24	32.4909
1408.82	33.1721
1410.4	35.2626
1411.98	37.9234
1413.55	41.8749
1415.13	43.5939
1416.71	47.2191
1418.28	50.2328
1419.86	53.6927
1421.43	57.2182
1423.01	60.9321
1424.58	64.8884
1426.16	69.506
1427.73	74.0371
1429.31	78.5284
1430.88	81.8344
1432.45	84.8079
1434.02	88.1469
1435.6	91.4979
1437.17	94.9146
1438.74	98.4254
1440.31	101.888
1441.88	104.302
1443.45	106.183
1445.03	109.087
1446.6	110.757
1448.17	111.753
1449.74	113.334
1451.3	114.162
1452.87	115.512
1454.44	115.937
1456.01	115.756
1457.58	114.827
1459.15	115.582
1460.72	115.033
1462.28	114.994
1463.85	114.177
1465.42	113.676
1466.98	113.689
1468.55	112.684
1470.12	112.574
1471.68	111.156
1473.25	110.316
1474.81	110.253
1476.38	107.663
1477.94	105.833
1479.51	104.931
1481.07	103.435
1482.63	99.9239
1484.2	98.4599
1485.76	96.0905
1487.32	92.2638
1488.88	89.8498
1490.45	87.5995
1492.01	84.9305
1493.57	81.4233
1495.13	79.9971
1496.69	76.5079
1498.25	73.4214
1499.81	69.6364
1501.37	67.2001
1502.93	63.7762
1504.49	60.5503
1506.05	56.579
1507.61	53.0747
1509.17	49.0338
1510.73	45.0722
1512.28	42.7272
1513.84	40.5675
1515.4	37.7847
1516.96	35.0503
1518.51	32.2919
1520.07	30.0096
1521.63	27.8335
1523.18	26.8421
1524.74	24.0128
1526.29	22.6931
1527.85	21.8024
1529.4	21.1854
1530.96	21.515
1532.51	21.286
1534.06	22.5115
1535.62	23.9961
1537.17	25.8857
1538.72	27.3456
1540.28	28.4109
1541.83	29.1266
1543.38	30.2222
1544.93	31.5136
1546.48	32.072
1548.03	33.225
1549.59	34.3321
1551.14	35.6534
1552.69	37.0358
1554.24	36.4445
1555.79	37.396
1557.34	38.348
1558.88	38.6998
1560.43	38.2896
1561.98	39.5247
1563.53	40.7207
1565.08	42.1596
1566.62	43.2688
1568.17	44.5311
1569.72	44.7863
1571.27	44.8773
1572.81	45.5586
1574.36	46.2776
1575.9	46.7452
1577.45	48.0775
1579	49.5661
1580.54	50.3914
1582.09	51.6615
1583.63	52.5984
1585.17	53.9264
1586.72	54.2002
1588.26	55.0637
1589.8	55.5828
1591.35	55.9777
1592.89	56.4463
1594.43	55.2776
1595.97	54.5369
1597.52	53.6272
1599.06	52.2968
1600.6	52.4119
1602.14	52.4729
1603.68	53.3064
1605.22	52.7408
1606.76	52.8644
1608.3	51.7612
1609.84	51.2557
1611.38	52.235
1612.92	51.3735
1614.46	51.3667
1615.99	51.3933
1617.53	51.3382
1619.07	51.1986
1620.61	52.1295
1622.14	52.2954
1623.68	52.2347
1625.22	53.1133
1626.75	53.3926
1628.29	54.1441
1629.82	54.6325
1631.36	54.2535
1632.9	55.3911
1634.43	56.8839
1635.96	58.3342
1637.5	59.9374
1639.03	62.9179
1640.57	64.1052
1642.1	65.4053
1643.63	66.6865
1645.16	68.5577
1646.7	70.2095
1648.23	71.5387
1649.76	74.1519
1651.29	74.8403
1652.82	75.4308
1654.36	77.044
1655.89	77.0758
1657.42	76.927
1658.95	76.8431
1660.48	75.7347
1662.01	75.8525
1663.53	74.5194
1665.06	73.9207
1666.59	73.4594
1668.12	72.3102
1669.65	70.134
1671.18	67.9422
1672.7	66.7425
1674.23	64.4158
1675.76	62.2799
1677.29	61.0434
1678.81	57.9776
1680.34	54.1085
1681.86	50.4636
1683.39	48.2874
1684.91	45.1064
1686.44	42.4203
1687.96	39.5203
1689.49	36.161
1691.01	34.3421
1692.54	32.5328
1694.06	30.5856
1695.58	27.715
1697.11	25.8085
1698.63	23.487
1700.15	21.2205
1701.67	19.9598
1703.2	19.2019
1704.72	18.0706
1706.24	17.0223
1707.76	16.2249
1709.28	15.9614
1710.8	15.5387
1712.32	15.56
1713.84	14.8326
1715.36	14.0936
1716.88	13.3328
1718.4	12.9519
1719.91	12.5468
1721.43	12.2608
1722.95	11.3476
1724.47	10.7256
1725.99	10.6386
1727.5	9.50653
1729.02	9.70535
1730.54	9.5728
1732.05	8.97151
1733.57	8.58025
1735.09	8.73387
1736.6	8.40065
1738.12	8.93223
1739.63	8.95874
1741.15	9.47302
1742.66	9.21737
1744.18	8.12102
1745.69	8.12672
1747.2	8.0554
1748.72	6.60876
1750.23	5.49334
1751.74	4.72073
1753.25	3.74387
1754.77	2.73531
1756.28	2.17787
1757.79	1.69606
1759.3	1.5508
1760.81	1.22527
1762.32	1.02865
1763.83	1.44565
1765.34	1.33697
1766.85	1.64222
1768.36	1.65374
1769.87	1.87004
1771.38	1.47894
1772.89	1.78336
1774.4	1.48967
1775.91	1.73717
1777.41	2.30347
1778.92	2.38079
1780.43	2.17962
1781.94	2.02119
1783.44	2.14032
1784.95	1.90851
1786.45	1.27278
1787.96	1.27675
1789.47	0.0930386
1790.97	-0.207111
1792.48	-0.18718
1793.98	-0.246506
1795.48	-0.0695933
1796.99	0.19313
1798.49	-0.287449
1800	-0.329606
1801.5	-0.886905
1803	-1.06068
1804.51	-0.773634
1806.01	-0.815227
1807.51	-0.427438
1809.01	-0.818573
1810.51	-0.358609
1812.02	0.139899
1813.52	0.795933
1815.02	1.11931
1816.52	0.593444
1818.02	0.382489
1819.52	0.519131
1821.02	0.62378
1822.52	0.781673
1824.02	0.177279
1825.51	0.213971
1827.01	0.487993
1828.51	0.638483
1830.01	0.792979
1831.51	0.894854
1833	1.24564
1834.5	2.5637
1836	3.16475
1837.5	3.16881
1838.99	3.16092
1840.49	2.95366
1841.98	3.4554
1843.48	3.23614
1844.97	3.14159
1846.47	2.71873
1847.96	3.01384
1849.46	3.17389
1850.95	3.75074
1852.45	3.86205
1853.94	3.83401
1855.43	3.83795
1856.92	4.10039
1858.42	4.51909
1859.91	4.8976
1861.4	5.39955
1862.89	5.49671
1864.39	5.87244
1865.88	6.81074
1867.37	7.52397
1868.86	7.2105
1870.35	7.415
1871.84	7.73728
1873.33	7.51852
1874.82	7.74408
1876.31	8.58841
1877.8	8.6552
1879.29	9.38025
1880.77	9.31363
1882.26	9.84263
1882.51	9.66125
1884	9.5419
1885.5	9.90412
1886.99	9.21525
1888.48	8.43798
1889.98	8.39924
1891.47	7.95883
1892.97	7.58955
1894.46	7.41529
1895.95	7.10863
1897.44	6.25483
1898.93	6.13587
1900.42	5.32711
1901.92	5.04913
1903.41	5.088
1904.9	5.06664
1906.39	4.95533
1907.88	4.70762
1909.37	3.32052
1910.86	2.93697
1912.35	2.65375
1913.84	2.14556
1915.32	2.8094
1916.81	2.41632
1918.3	2.71827
1919.79	3.33525
1921.28	4.05317
1922.76	4.30811
1924.25	4.33712
1925.74	4.65429
1927.22	4.74777
1928.71	5.07048
1930.2	5.48297
1931.68	5.35454
1933.17	5.45013
1934.65	5.17058
1936.14	5.59391
1937.62	6.01212
1939.11	5.64501
1940.59	6.06907
1942.08	6.0502
1943.56	7.38353
1945.04	7.18112
1946.53	6.82914
1948.01	7.6009
1949.49	8.57053
1950.97	8.33673
1952.45	8.95797
1953.94	8.26141
1955.42	8.13422
1956.9	8.03808
1958.38	7.56514
1959.86	7.54108
1961.34	6.91693
1962.82	7.10638
1964.3	7.16722
1965.78	6.93728
1967.26	7.20082
1968.74	7.02356
1970.22	6.71017
1971.69	6.48116
1973.17	6.86256
1974.65	6.43892
1976.13	7.40004
1977.61	7.01809
1979.08	6.95435
1980.56	6.87918
1982.03	6.40299
1983.51	5.87767
1984.99	6.40193
1986.46	6.67079
1987.94	7.25885
1989.41	7.75743
1990.89	7.21794
1992.36	7.64108
1993.84	7.75994
1995.31	7.46997
1996.78	6.94634
1998.26	6.34974
1999.73	5.64543
2001.2	5.6117
2002.68	5.23616
2004.15	5.38927
2005.62	5.26979
2007.09	4.93373
2008.56	5.70965
2010.04	5.74883
2011.51	5.30322
2012.98	5.12765
2014.45	5.95639
2015.92	5.31098
2017.39	5.6491
2018.86	5.25097
2020.33	5.8435
2021.8	6.77377
2023.27	6.80105
2024.74	6.05259
2026.2	6.32942
2027.67	5.95788
2029.14	6.35658
2030.61	6.80503
2032.07	6.88777
2033.54	7.52479
2035.01	7.84415
2036.47	8.85163
2037.94	9.0211
2039.41	8.80958
2040.87	8.78605
2042.34	9.24935
2043.8	9.90473
2045.27	10.8051
2046.73	11.6822
2048.2	12.419
2049.66	13.4955
2051.12	12.6134
2052.59	13.33
2054.05	14.3758
2055.51	14.5672
2056.98	15.3507
2058.44	16.481
2059.9	17.0935
2061.36	17.6149
2062.82	16.931
2064.29	16.8827
2065.75	17.8268
2067.21	18.7025
2068.67	18.8573
2070.13	19.1217
2071.59	19.8181
2073.05	21.4815
2074.51	22.9563
2075.97	23.952
2077.43	25.233
2078.88	26.1646
2080.34	27.0741
2081.8	28.4705
2083.26	28.9576
2084.72	30.2756
2086.17	31.6912
2087.63	32.5534
2089.09	33.2405
2090.54	34.7227
2092	35.9697
2093.46	37.3058
2094.91	38.189
2096.37	38.9555
2097.82	39.8879
2099.28	41.5481
2100.73	42.9419
2102.19	44.2814
2103.64	45.0742
2105.09	46.7617
2106.55	48.5131
2108	49.8836
2109.46	51.9367
2110.91	52.3953
2112.36	54.1455
2113.81	56.8743
2115.27	58.5138
2116.72	61.0921
2118.17	62.9676
2119.62	65.4845
2121.07	67.3228
2122.52	68.7362
2123.97	69.8779
2125.42	72.6901
2126.87	74.4659
2128.32	75.7279
2129.77	77.9001
2131.22	80.7923
2132.67	83.2081
