#Acq. time (s)=	45
#Accumulations=	2
#Range (cm-¹)=	200...3150
#Windows=	2
#Auto scanning=	Off
#Autofocus=	Off
#Macrospot=	Off
#AutoExposure=	Off
#Spike filter=	Multiple accum.
#Delay time (s)=	0
#Binning=	1
#Readout mode=	Signal
#DeNoise=	Off
#ICS correction=	On
#Dark correction=	Off
#Inst. Process=	Off
#Detector Gain=	Best Dynamic Range
#Detector ADC=	20 kHz       
#Detector temperature (°C)=	-69.85
#Instrument=	LabRAM HR Evol
#Detector=	Synapse
#Objective=	x100
#Grating=	600 gr/mm
#ND Filter=	100%
#Laser (nm)=	532 
#Hole=	100.021
#Range=	Auto
#Laser Pol.=	No
#Raman. Pol.=	No
#Laser Pol. (°)=	-0.0007625
#Raman Pol. (°)=	89.9995
#Collection=	Microscope
#StageXY=	Marzhauser
#StageZ=	Marzhauser
#X (µm)=	19284.1
#Y (µm)=	3048.4
#Z (µm)=	1047.7
#Full time(mm:ss)=	3:18
#Project=	
#Sample=	
#Site=	
#Title=	Mb_50_18_16_2x_45s_532 nm_x100_100%_600 gr_mm
#Remark=	
#Date=	12.07.2022 11:24
#Acquired=	12.07.2022 11:24:49
#Base:Fit=	10.08.2022 10:49:18
#Base:Sub=	10.08.2022 10:49:30
#Filter:Polynom=	16.08.2022 10:14:59
#AxisType[0]=Intens
#AxisUnit[0]=Cnt
#AxisType[1]=Spectr
#AxisUnit[1]=1/cm
200.388	18.7213
202.204	19.8806
204.019	19.3925
205.832	18.6386
207.646	17.2447
209.459	16.5637
211.274	15.8125
213.087	14.7583
214.899	13.2793
216.711	12.7372
218.524	12.4197
220.335	12.0268
222.146	10.8457
223.956	9.63749
225.766	8.35492
227.576	6.6221
229.388	6.49524
231.197	5.4014
233.005	6.04786
234.813	6.66109
236.621	6.31668
238.429	5.62784
240.236	4.95092
242.045	4.9198
243.852	4.00264
245.658	3.6286
247.464	3.37928
249.269	3.88224
251.074	4.69681
252.879	4.13646
254.683	2.8373
256.487	2.76753
258.291	1.62251
260.094	1.56873
261.897	0.805501
263.702	1.54335
265.504	2.53064
267.306	2.93232
269.108	2.98679
270.909	3.72738
272.71	4.38743
274.511	4.15373
276.311	3.90958
278.111	4.20849
279.91	4.6659
281.709	5.17154
283.508	5.47935
285.306	5.53545
287.105	5.62957
288.9	5.89663
290.698	6.33096
292.495	7.09487
294.291	7.78405
296.088	8.87732
297.884	9.7782
299.679	9.93027
301.475	9.70558
303.27	10.1741
305.064	10.5412
306.858	11.8548
308.652	12.8643
310.444	12.6985
312.237	12.6754
314.03	12.8724
315.822	12.8417
317.615	13.3377
319.406	14.8276
321.198	15.3622
322.987	17.7807
324.778	17.7692
326.568	16.1171
328.358	15.432
330.148	16.0119
331.935	16.6974
333.724	16.7982
335.513	17.1059
337.301	16.7549
339.089	16.3794
340.875	15.7483
342.662	13.7097
344.449	12.4554
346.236	12.5217
348.02	12.4201
349.806	12.9623
351.592	14.1422
353.375	15.816
355.16	16.7494
356.944	17.8262
358.728	17.8689
360.51	19.2886
362.294	18.34
364.077	17.9876
365.858	18.8249
367.64	19.3602
369.422	20.288
371.202	21.6727
372.983	22.4306
374.764	23.542
376.543	24.8386
378.324	25.3749
380.102	26.0132
381.881	25.9835
383.661	26.8674
385.438	28.1209
387.216	28.329
388.993	29.9577
390.771	29.4327
392.548	29.7238
394.324	29.4341
396.101	30.0611
397.875	28.9344
399.651	28.0383
401.425	27.5638
403.201	27.0337
404.974	27.3736
406.749	27.8087
408.524	28.0372
410.296	27.7567
412.07	26.6583
413.841	24.338
415.614	22.545
417.385	23.1095
419.156	22.75
420.928	21.4255
422.698	19.0296
424.469	17.0376
426.238	15.2326
428.009	15.309
429.777	14.5353
431.548	13.2129
433.315	13.3792
435.083	14.1069
436.852	14.7053
438.618	15.1459
440.387	14.8352
442.153	13.9517
443.919	12.6965
445.686	12.0527
447.451	10.8193
449.218	10.8273
450.982	10.8051
452.746	12.2331
454.512	12.941
456.275	13.64
458.038	14.4798
459.803	14.6311
461.565	15.7648
463.327	16.7167
465.091	18.3696
466.852	19.1835
468.613	20.9576
470.374	21.3813
472.136	22.5459
473.896	22.2878
475.655	23.0458
477.415	24.5912
479.176	24.781
480.934	26.3965
482.692	27.9304
484.45	30.2948
486.21	31.882
487.967	34.2642
489.724	35.9983
491.481	37.7723
493.237	39.4465
494.995	39.2638
496.75	40.9029
498.506	41.2889
500.26	41.4896
502.015	42.2593
503.771	42.4092
505.525	42.6392
507.279	41.9126
509.032	42.0567
510.785	41.0759
512.537	40.6896
514.289	40.3041
516.041	39.9044
517.793	37.7239
519.546	38.02
521.297	38.4965
523.047	37.7963
524.797	37.3148
526.547	36.1783
528.297	33.9939
530.046	33.6745
531.795	32.617
533.543	32.4135
535.291	30.2386
537.039	29.022
538.787	28.722
540.534	27.0234
542.281	24.4523
544.027	23.0097
545.773	21.8425
547.519	21.4786
549.264	20.6773
551.01	19.2224
552.754	17.505
554.499	16.1846
556.243	15.2692
557.987	13.3358
559.73	11.9671
561.474	11.5622
563.216	12.4281
564.959	12.4654
566.701	11.2979
568.441	11.1404
570.182	12.2692
571.923	11.4406
573.664	9.58946
575.405	8.39662
577.145	7.75531
578.885	6.44313
580.624	5.6385
582.361	4.90588
584.1	5.96311
585.839	4.64599
587.577	3.86595
589.315	2.77062
591.052	1.77053
592.787	1.64875
594.524	1.95909
596.26	1.11971
597.997	0.625282
599.732	1.24356
601.466	2.62751
603.201	2.78423
604.936	3.51218
606.67	5.66211
608.403	6.22277
610.136	6.36451
611.87	7.96993
613.603	8.09972
615.334	9.42475
617.067	10.6543
618.799	10.1595
620.529	10.7355
622.26	10.266
623.991	11.5139
625.72	12.2016
627.451	11.4722
629.181	11.7004
630.909	12.7442
632.638	13.5025
634.368	13.6437
636.095	13.0021
637.823	13.0701
639.551	13.3105
641.277	13.7925
643.005	13.7218
644.73	12.7306
646.457	13.5469
648.184	14.2169
649.908	13.9232
651.634	13.4161
653.357	12.8127
655.083	13.3781
656.806	13.0571
658.53	12.0191
660.253	12.1405
661.977	12.8838
663.7	12.8155
665.422	12.389
667.145	13.2837
668.865	13.361
670.588	13.6273
672.308	13.0377
674.027	13.4852
675.749	14.0814
677.468	15.8835
679.188	18.0559
680.907	19.4094
682.627	20.3903
684.345	23.0683
686.064	24.3977
687.781	25.3565
689.498	25.26
691.216	26.5724
692.932	27.2098
694.65	28.5244
696.366	29.3075
698.081	29.8093
699.797	30.3775
701.512	32.6244
703.228	33.2911
704.942	34.6951
706.655	35.3559
708.371	35.4534
710.083	36.1496
711.796	36.755
713.51	37.3779
715.222	39.6126
716.934	40.653
718.645	40.8935
720.358	40.8159
722.068	41.6509
723.779	42.238
725.49	42.5421
727.2	42.4101
728.909	43.6791
730.618	44.728
732.329	46.1769
734.037	46.0191
735.745	47.0241
737.453	47.9686
739.16	49.6836
740.869	52.2445
742.576	53.6418
744.282	55.7071
745.988	57.8324
747.694	59.7068
749.401	61.7771
751.107	64.5083
752.811	67.5873
754.516	69.4379
756.22	72.3327
757.924	74.4431
759.627	75.4914
761.332	77.4193
763.035	79.2216
764.738	80.412
766.44	81.6619
768.142	81.8911
769.843	82.3231
771.544	82.3171
773.245	83.2783
774.946	83.362
776.646	84.1253
778.346	83.844
780.046	85.254
781.745	85.3413
783.444	86.3223
785.143	87.9142
786.841	88.5952
788.539	88.7966
790.237	87.9313
791.934	87.1646
793.631	86.9224
795.328	87.0526
797.024	87.4576
798.72	87.6133
800.416	86.8315
802.112	85.6673
803.807	85.1219
805.502	84.2887
807.196	84.062
808.89	83.6283
810.584	82.6875
812.278	82.207
813.971	82.7414
815.664	82.8853
817.354	82.9479
819.047	83.1881
820.739	83.6676
822.43	83.2611
824.122	84.518
825.813	85.3867
827.503	84.8051
829.192	84.8567
830.882	86.0397
832.571	85.2753
834.261	84.3682
835.95	83.8425
837.637	82.8328
839.325	81.9542
841.013	80.6977
842.701	78.31
844.389	76.412
846.074	75.914
847.761	75.0858
849.447	74.7965
851.131	73.8452
852.817	71.4056
854.503	71.2289
856.188	70.2739
857.871	70.173
859.556	68.7415
861.24	67.7629
862.922	67.3709
864.606	67.1862
866.289	65.5306
867.97	65.0572
869.653	63.4459
871.336	62.2218
873.016	61.3897
874.698	60.6541
876.379	59.7815
878.058	58.3971
879.739	57.9023
881.418	58.0767
883.098	57.55
884.778	56.7889
886.456	57.3472
888.135	56.3294
889.812	55.6767
891.49	55.4682
893.167	54.8499
894.845	54.5441
896.523	53.9285
898.198	53.9667
899.875	53.537
901.55	51.3019
903.226	50.2379
904.901	49.034
906.576	48.9415
908.25	48.8074
909.925	48.553
911.598	47.5442
913.271	47.4528
914.945	46.2647
916.617	44.7346
918.291	44.6743
919.962	44.387
921.635	43.6392
923.306	43.3822
924.978	41.9781
926.648	41.5358
928.318	40.449
929.989	40.5273
931.659	39.4731
933.328	37.8923
934.998	36.6595
936.666	36.4693
938.336	36.7868
940.004	35.7433
941.671	36.2668
943.34	35.0899
945.007	34.1807
946.673	33.968
948.339	33.2134
950.007	32.4097
951.672	31.6247
953.337	31.0371
955.004	30.6936
956.669	30.2477
958.333	29.709
959.997	28.255
961.662	28.0867
963.326	28.5413
964.989	29.3652
966.651	28.6692
968.315	28.9934
969.977	29.3976
971.639	29.078
973.301	29.1063
974.962	29.3083
976.624	28.9728
978.285	27.6316
979.945	26.1679
981.605	25.7871
983.264	24.6916
984.924	24.9572
986.583	25.4176
988.243	25.4281
989.901	26.459
991.56	26.3397
993.217	26.6663
994.875	26.9278
996.532	27.1856
998.188	27.1638
999.845	28.8078
1001.5	29.4787
1003.16	29.9847
1004.81	31.015
1006.47	31.6551
1008.12	31.9645
1009.78	32.321
1011.43	32.8199
1013.09	34.5505
1014.74	34.6675
1016.39	37.3655
1018.05	39.391
1019.7	39.5983
1021.35	39.5909
1023	40.0632
1024.65	40.8055
1026.31	40.7919
1027.96	41.0303
1029.61	41.209
1031.26	41.2494
1032.91	41.0858
1034.56	40.5563
1036.21	41.9658
1037.86	41.1858
1039.51	41.7985
1041.16	41.6502
1042.8	41.4489
1044.45	41.8187
1046.1	41.7989
1047.75	41.6214
1049.39	40.8444
1051.04	40.2193
1052.69	39.2955
1054.33	38.8213
1055.98	37.7663
1057.62	37.4075
1059.27	36.5161
1060.91	35.4459
1062.56	34.5751
1064.2	33.0761
1065.85	31.9064
1067.49	30.8357
1069.13	29.365
1070.77	29.228
1072.42	28.6952
1074.06	27.4049
1075.7	28.0119
1077.34	28.1903
1078.98	27.6982
1080.62	27.7048
1082.27	27.8059
1083.91	28.1842
1085.55	28.2212
1087.18	27.9735
1088.82	26.8921
1090.46	27.8149
1092.1	28.7703
1093.74	29.9556
1095.38	29.6554
1097.02	29.3886
1098.65	29.5715
1100.29	28.8287
1101.93	28.2373
1103.56	28.9347
1105.2	28.5374
1106.84	27.9982
1108.47	27.7451
1110.11	27.0544
1111.74	26.1193
1113.38	26.4682
1115.01	26.313
1116.64	25.6649
1118.28	25.2366
1119.91	23.8579
1121.54	23.8663
1123.18	22.6675
1124.81	22.0269
1126.44	21.6333
1128.07	20.4665
1129.7	19.838
1131.33	19.3994
1132.97	18.1486
1134.6	17.7013
1136.23	16.7396
1137.86	15.9971
1139.49	14.6497
1141.11	13.6443
1142.74	11.0203
1144.37	9.39777
1146	8.88585
1147.63	8.15725
1149.26	7.0897
1150.88	6.61359
1152.51	6.18884
1154.14	5.10255
1155.76	4.7399
1157.39	4.37499
1159.01	2.66365
1160.64	3.1817
1162.27	3.18454
1163.89	2.71063
1165.51	2.23733
1167.14	1.31521
1168.76	1.62001
1170.39	1.45009
1172.01	2.90726
1173.63	2.73001
1175.25	1.84297
1176.88	1.60349
1178.5	1.72325
1180.12	1.26343
1181.74	1.24607
1183.36	1.23909
1184.98	0.706362
1186.6	0.0380202
1188.22	0.557424
1189.84	1.21176
1191.46	0.618048
1193.08	0.551783
1194.7	1.53556
1196.32	1.91213
1197.94	2.00363
1199.55	2.4707
1201.17	3.31068
1202.79	4.73213
1204.41	5.00436
1206.02	5.08232
1207.64	6.16682
1209.25	6.22218
1210.87	7.39691
1212.48	8.46005
1214.1	9.95369
1215.71	12.1448
1217.33	14.0358
1218.94	15.242
1220.56	15.9371
1222.17	16.8493
1223.79	17.8611
1225.4	20.5857
1227.01	21.9518
1228.62	22.6045
1230.23	24.3041
1231.85	25.9959
1233.46	28.3069
1235.07	29.1477
1236.68	30.5947
1238.29	31.9674
1239.9	33.4722
1241.51	35.4009
1243.12	35.4432
1244.73	36.0014
1246.34	37.0474
1247.94	38.9539
1249.55	40.1639
1251.16	40.7193
1252.77	41.9097
1254.37	43.0632
1255.98	43.8363
1257.59	44.9486
1259.2	45.6614
1260.8	47.701
1262.41	48.917
1264.01	50.5662
1265.62	51.7261
1267.22	53.4436
1268.83	55.5578
1270.43	56.8348
1272.03	57.8343
1273.64	59.2155
1275.24	61.4823
1276.85	63.5562
1278.45	64.8572
1280.05	66.1328
1281.65	66.9879
1283.25	67.9126
1284.85	68.0338
1286.46	69.0271
1288.06	70.2988
1289.66	71.0707
1291.26	72.4632
1292.86	73.3671
1294.46	74.0565
1296.06	73.7879
1297.66	73.3533
1299.25	73.0847
1300.85	73.4595
1302.45	73.4358
1304.05	74.6814
1305.65	75.3408
1307.24	74.5169
1308.84	75.2853
1310.43	75.5659
1312.03	75.5009
1313.63	74.9733
1315.22	73.8243
1316.82	73.1692
1318.41	72.62
1320.01	71.7284
1321.6	70.6207
1323.2	70.2963
1324.79	69.794
1326.38	69.9541
1327.98	70.0957
1329.57	68.7912
1331.16	68.058
1332.76	67.2224
1334.35	66.2564
1335.94	64.4102
1337.53	64.2828
1339.12	63.55
1340.71	62.9383
1342.3	60.7977
1343.89	60.3092
1345.48	59.9855
1347.07	59.3191
1348.66	58.9068
1350.25	57.4789
1351.84	56.6284
1353.43	55.0712
1355.01	55.1845
1356.6	53.979
1358.19	51.7199
1359.77	49.424
1361.36	47.6408
1362.95	45.865
1364.53	44.8149
1366.12	43.0528
1367.71	41.0273
1369.29	39.9247
1370.88	38.2669
1372.46	36.6847
1374.04	34.7988
1375.63	33.8928
1377.21	33.4667
1378.8	32.2524
1380.38	31.9003
1381.96	31.0591
1383.54	29.3496
1385.13	28.1211
1386.71	27.0348
1388.29	27.2391
1389.87	25.7834
1391.45	24.761
1393.03	23.328
1394.61	22.7731
1396.19	21.4472
1397.77	20.8485
1399.35	20.1131
1400.93	19.1314
1402.51	19.7423
1404.09	19.7027
1405.67	20.1588
1407.24	19.5944
1408.82	19.5115
1410.4	19.9383
1411.98	21.3252
1413.55	22.9228
1415.13	25.5557
1416.71	28.5894
1418.28	29.9667
1419.86	32.6741
1421.43	36.14
1423.01	40.087
1424.58	43.5927
1426.16	46.6206
1427.73	50.6988
1429.31	53.8998
1430.88	57.1465
1432.45	59.3396
1434.02	62.5429
1435.6	64.8279
1437.17	66.1948
1438.74	68.5587
1440.31	71.2413
1441.88	73.7186
1443.45	76.4497
1445.03	77.4424
1446.6	79.2943
1448.17	80.5611
1449.74	81.3387
1451.3	81.7793
1452.87	81.9816
1454.44	83.5193
1456.01	83.1418
1457.58	82.7542
1459.15	82.416
1460.72	81.1576
1462.28	80.0141
1463.85	79.6228
1465.42	78.3974
1466.98	76.7856
1468.55	74.261
1470.12	72.0871
1471.68	68.7309
1473.25	67.8012
1474.81	65.1614
1476.38	63.1237
1477.94	61.3875
1479.51	58.9995
1481.07	57.3576
1482.63	55.936
1484.2	53.7297
1485.76	51.8293
1487.32	50.3387
1488.88	48.6849
1490.45	46.9878
1492.01	45.4355
1493.57	43.9503
1495.13	41.742
1496.69	39.8396
1498.25	39.3609
1499.81	38.0044
1501.37	36.0721
1502.93	34.6513
1504.49	34.1198
1506.05	33.3441
1507.61	31.2812
1509.17	29.4043
1510.73	27.6164
1512.28	26.4019
1513.84	24.3057
1515.4	22.8294
1516.96	22.4901
1518.51	21.4429
1520.07	20.2426
1521.63	18.8833
1523.18	17.0014
1524.74	16.0296
1526.29	15.6812
1527.85	15.6562
1529.4	14.9506
1530.96	14.5408
1532.51	15.2358
1534.06	15.0749
1535.62	15.4863
1537.17	15.2056
1538.72	15.2971
1540.28	15.5514
1541.83	15.8239
1543.38	16.6299
1544.93	16.9203
1546.48	17.9336
1548.03	18.5239
1549.59	19.413
1551.14	21.4231
1552.69	22.1645
1554.24	23.0959
1555.79	24.2639
1557.34	24.0179
1558.88	24.6385
1560.43	25.9005
1561.98	25.167
1563.53	26.5232
1565.08	27.1794
1566.62	28.5027
1568.17	30.3045
1569.72	32.4643
1571.27	34.4341
1572.81	35.4126
1574.36	36.8288
1575.9	38.792
1577.45	39.9876
1579	41.6396
1580.54	43.8163
1582.09	45.0323
1583.63	45.8256
1585.17	46.936
1586.72	48.006
1588.26	49.1177
1589.8	50.3562
1591.35	50.9634
1592.89	52.5144
1594.43	53.1554
1595.97	53.0365
1597.52	53.1322
1599.06	53.5576
1600.6	53.9443
1602.14	55.7659
1603.68	56.7458
1605.22	56.5683
1606.76	56.7683
1608.3	56.9103
1609.84	57.4062
1611.38	58.9827
1612.92	59.0491
1614.46	59.3405
1615.99	60.9355
1617.53	61.4967
1619.07	61.5979
1620.61	62.1435
1622.14	62.5148
1623.68	63.4704
1625.22	63.6679
1626.75	64.3107
1628.29	65.1306
1629.82	65.7189
1631.36	65.8192
1632.9	66.6503
1634.43	67.5904
1635.96	68.417
1637.5	68.9584
1639.03	70.5108
1640.57	73.2076
1642.1	74.7366
1643.63	76.8724
1645.16	78.5678
1646.7	79.6516
1648.23	80.2951
1649.76	80.7962
1651.29	82.1793
1652.82	83.0529
1654.36	83.1384
1655.89	83.2282
1657.42	83.4016
1658.95	82.6387
1660.48	81.7219
1662.01	80.9722
1663.53	78.9641
1665.06	77.682
1666.59	75.9778
1668.12	74.1316
1669.65	72.5966
1671.18	69.8517
1672.7	67.9193
1674.23	66.0762
1675.76	64.5016
1677.29	62.4819
1678.81	60.2683
1680.34	56.7234
1681.86	54.0767
1683.39	51.4427
1684.91	48.5198
1686.44	46.1089
1687.96	44.0819
1689.49	40.4036
1691.01	38.0241
1692.54	35.4656
1694.06	32.7072
1695.58	29.7547
1697.11	27.9738
1698.63	26.4984
1700.15	24.7732
1701.67	22.5734
1703.2	21.3573
1704.72	20.1165
1706.24	17.9709
1707.76	17.3535
1709.28	16.0945
1710.8	15.4174
1712.32	14.6916
1713.84	14.8319
1715.36	15.0803
1716.88	14.8491
1718.4	14.6194
1719.91	14.6828
1721.43	14.6639
1722.95	14.5473
1724.47	14.4862
1725.99	14.3239
1727.5	13.3908
1729.02	12.3254
1730.54	11.6089
1732.05	10.8453
1733.57	10.1238
1735.09	9.32142
1736.6	8.92875
1738.12	9.09726
1739.63	9.11683
1741.15	9.58509
1742.66	8.93212
1744.18	8.83131
1745.69	7.98299
1747.2	7.54295
1748.72	7.53392
1750.23	6.9807
1751.74	6.40299
1753.25	5.81037
1754.77	5.13864
1756.28	5.07233
1757.79	5.26005
1759.3	4.7689
1760.81	4.47317
1762.32	4.51023
1763.83	5.04544
1765.34	4.65297
1766.85	4.78363
1768.36	4.12868
1769.87	3.96472
1771.38	3.37603
1772.89	3.93614
1774.4	3.90722
1775.91	3.40591
1777.41	3.06876
1778.92	2.91602
1780.43	2.43682
1781.94	2.08282
1783.44	2.69359
1784.95	2.68829
1786.45	3.22476
1787.96	2.94465
1789.47	2.90955
1790.97	2.51629
1792.48	2.35267
1793.98	2.31314
1795.48	2.11315
1796.99	1.90794
1798.49	1.38825
1800	1.14783
1801.5	0.760721
1803	0.636284
1804.51	0.849221
1806.01	1.19144
1807.51	0.670198
1809.01	0.543188
1810.51	0.645938
1812.02	1.16994
1813.52	0.988433
1815.02	0.880946
1816.52	0.251923
1818.02	0.229237
1819.52	0.565852
1821.02	0.223191
1822.52	0.719256
1824.02	0.708611
1825.51	0.84597
1827.01	0.892007
1828.51	1.56637
1830.01	2.04723
1831.51	2.46486
1833	2.29412
1834.5	2.50289
1836	2.70905
1837.5	2.76928
1838.99	2.95743
1840.49	2.76499
1841.98	3.20839
1843.48	2.75669
1844.97	2.56617
1846.47	2.54752
1847.96	3.10471
1849.46	3.04302
1850.95	3.38765
1852.45	3.26146
1853.94	3.24972
1855.43	3.71239
1856.92	3.74252
1858.42	3.67348
1859.91	3.46822
1861.4	3.64048
1862.89	4.39138
1864.39	4.38652
1865.88	4.14912
1867.37	4.07595
1868.86	4.58562
1870.35	4.56369
1871.84	5.26262
1873.33	5.42587
1874.82	5.40842
1876.31	5.62949
1877.8	5.52228
1879.29	5.18121
1880.77	4.55223
1882.26	4.13481
1882.51	4.38376
1884	4.7321
1885.5	5.0434
1886.99	5.00603
1888.48	5.26367
1889.98	4.5876
1891.47	5.21355
1892.97	5.20486
1894.46	5.13546
1895.95	5.07796
1897.44	4.83863
1898.93	4.81283
1900.42	4.93007
1901.92	4.83416
1903.41	4.71866
1904.9	4.39445
1906.39	4.82654
1907.88	4.52815
1909.37	4.67179
1910.86	4.35893
1912.35	4.05652
1913.84	3.32744
1915.32	3.03845
1916.81	2.56561
1918.3	2.89253
1919.79	3.08502
1921.28	3.56319
1922.76	2.94693
1924.25	2.72941
1925.74	2.33981
1927.22	2.60997
1928.71	2.88204
1930.2	2.71703
1931.68	3.01548
1933.17	3.67574
1934.65	4.42703
1936.14	4.14161
1937.62	4.12041
1939.11	4.06648
1940.59	3.99732
1942.08	3.76231
1943.56	3.57106
1945.04	3.54856
1946.53	2.94286
1948.01	3.33952
1949.49	3.68603
1950.97	3.2966
1952.45	3.58435
1953.94	3.53188
1955.42	3.92114
1956.9	4.13262
1958.38	4.08121
1959.86	4.43345
1961.34	4.45851
1962.82	4.42981
1964.3	4.53031
1965.78	5.08609
1967.26	4.98677
1968.74	5.08937
1970.22	5.27193
1971.69	5.66113
1973.17	6.12108
1974.65	5.95232
1976.13	6.27935
1977.61	6.28885
1979.08	5.55793
1980.56	5.60972
1982.03	4.99028
1983.51	5.08842
1984.99	4.56316
1986.46	4.28004
1987.94	4.1937
1989.41	4.72189
1990.89	5.31339
1992.36	5.99643
1993.84	6.35179
1995.31	6.23708
1996.78	6.58003
1998.26	6.95097
1999.73	7.71308
2001.2	7.61257
2002.68	8.87313
2004.15	9.29232
2005.62	9.56425
2007.09	9.76515
2008.56	9.68455
2010.04	9.03428
2011.51	9.51516
2012.98	9.31778
2014.45	9.91531
2015.92	10.0704
2017.39	10.7404
2018.86	11.3069
2020.33	11.983
2021.8	12.2045
2023.27	11.3451
2024.74	11.3463
2026.2	11.7127
2027.67	11.4521
2029.14	11.2997
2030.61	11.4177
2032.07	11.4139
2033.54	11.8468
2035.01	12.0955
2036.47	12.3243
2037.94	12.6055
2039.41	12.9265
2040.87	13.5379
2042.34	13.8989
2043.8	14.5229
2045.27	15.121
2046.73	14.9696
2048.2	14.3308
2049.66	14.4424
2051.12	14.6278
2052.59	14.628
2054.05	15.7435
2055.51	15.8724
2056.98	16.4302
2058.44	17.6542
2059.9	17.9995
2061.36	18.4711
2062.82	19.6854
2064.29	21.1726
2065.75	21.7613
2067.21	21.9959
2068.67	22.3595
2070.13	23.8773
2071.59	25.0278
2073.05	25.9608
2074.51	26.5537
2075.97	27.9817
2077.43	28.2226
2078.88	28.5386
2080.34	30.2131
2081.8	31.3776
2083.26	32.4803
2084.72	34.636
2086.17	36.3083
2087.63	37.609
2089.09	38.5512
2090.54	39.815
2092	41.0446
2093.46	42.2288
2094.91	43.5621
2096.37	45.064
2097.82	46.7841
2099.28	47.7323
2100.73	49.0517
2102.19	50.5253
2103.64	52.5713
2105.09	53.9853
2106.55	56.3257
2108	58.275
2109.46	59.9652
2110.91	62.3415
2112.36	64.3104
2113.81	66.0987
2115.27	67.6505
2116.72	69.6629
2118.17	71.4406
2119.62	73.3402
2121.07	75.5195
2122.52	78.1187
2123.97	80.582
2125.42	82.86
2126.87	85.2701
2128.32	87.0842
2129.77	89.2704
2131.22	91.1354
2132.67	92.6404
2134.12	94.9546
