#Acq. time (s)=	45
#Accumulations=	2
#Range (cm-¹)=	200...3150
#Windows=	2
#Auto scanning=	Off
#Autofocus=	Off
#Macrospot=	Off
#AutoExposure=	Off
#Spike filter=	Multiple accum.
#Delay time (s)=	0
#Binning=	1
#Readout mode=	Signal
#DeNoise=	Off
#ICS correction=	On
#Dark correction=	Off
#Inst. Process=	Off
#Detector Gain=	Best Dynamic Range
#Detector ADC=	20 kHz       
#Detector temperature (°C)=	-69.85
#Instrument=	LabRAM HR Evol
#Detector=	Synapse
#Objective=	x100
#Grating=	600 gr/mm
#ND Filter=	100%
#Laser (nm)=	532 
#Hole=	100.021
#Range=	Auto
#Laser Pol.=	No
#Raman. Pol.=	No
#Laser Pol. (°)=	-0.0007625
#Raman Pol. (°)=	89.9995
#Collection=	Microscope
#StageXY=	Marzhauser
#StageZ=	Marzhauser
#X (µm)=	28332.4
#Y (µm)=	-3279.5
#Z (µm)=	1041.35
#Full time(mm:ss)=	3:19
#Project=	
#Sample=	
#Site=	
#Title=	Mb_50_18_28_2x_45s_532 nm_x100_100%_600 gr_mm
#Remark=	
#Date=	12.07.2022 12:55
#Acquired=	12.07.2022 12:55:29
#Base:Fit=	10.08.2022 10:49:18
#Base:Sub=	10.08.2022 10:49:30
#Filter:Polynom=	16.08.2022 10:14:59
#AxisType[0]=Intens
#AxisUnit[0]=Cnt
#AxisType[1]=Spectr
#AxisUnit[1]=1/cm
200.388	17.7116
202.204	17.2628
204.019	18.7431
205.832	19.0808
207.646	18.6492
209.459	17.8997
211.274	16.4585
213.087	15.6992
214.899	15.1999
216.711	15.3982
218.524	14.5622
220.335	12.3161
222.146	10.7268
223.956	10.7461
225.766	9.59925
227.576	8.29081
229.388	6.85582
231.197	4.64008
233.005	4.05179
234.813	4.00293
236.621	4.15198
238.429	5.30894
240.236	6.03388
242.045	5.58415
243.852	5.7367
245.658	6.14264
247.464	5.83697
249.269	5.49009
251.074	4.15801
252.879	4.77543
254.683	6.45458
256.487	8.29103
258.291	9.63844
260.094	9.10188
261.897	9.79951
263.702	10.3147
265.504	11.0504
267.306	10.5959
269.108	11.5729
270.909	11.9063
272.71	11.8137
274.511	11.4922
276.311	10.3358
278.111	9.24465
279.91	8.75273
281.709	8.90576
283.508	8.99552
285.306	9.20539
287.105	10.0854
288.9	10.8324
290.698	11.0739
292.495	12.5163
294.291	12.9654
296.088	14.5491
297.884	15.6629
299.679	16.1353
301.475	18.503
303.27	20.8198
305.064	21.9796
306.858	23.464
308.652	23.4142
310.444	23.8822
312.237	25.8728
314.03	27.9827
315.822	29.6419
317.615	31.694
319.406	33.187
321.198	34.509
322.987	36.9493
324.778	38.4151
326.568	37.9593
328.358	37.1128
330.148	35.5864
331.935	33.9359
333.724	32.7944
335.513	30.9336
337.301	28.622
339.089	27.4914
340.875	25.8032
342.662	26.1184
344.449	26.5364
346.236	27.1629
348.02	27.1978
349.806	28.1601
351.592	31.2744
353.375	34.0462
355.16	38.165
356.944	42.4142
358.728	48.9133
360.51	54.9037
362.294	61.4905
364.077	68.0936
365.858	75.4452
367.64	81.9855
369.422	88.263
371.202	95.2527
372.983	101.486
374.764	107.735
376.543	113.965
378.324	119.414
380.102	123.631
381.881	128.603
383.661	132.269
385.438	135.707
387.216	137.397
388.993	138.757
390.771	140.201
392.548	140.867
394.324	141.108
396.101	140.09
397.875	138.685
399.651	136.815
401.425	135.046
403.201	131.545
404.974	127.289
406.749	121.158
408.524	114.605
410.296	106.713
412.07	98.4887
413.841	89.0318
415.614	78.9163
417.385	70.1257
419.156	61.0888
420.928	52.1029
422.698	42.9802
424.469	35.2138
426.238	27.916
428.009	21.7283
429.777	15.7532
431.548	11.0572
433.315	7.38235
435.083	4.54806
436.852	1.68447
438.618	1.27769
440.387	1.45042
442.153	1.48528
443.919	1.97021
445.686	2.1225
447.451	3.00831
449.218	2.90211
450.982	2.59628
452.746	2.2547
454.512	2.29965
456.275	2.44661
458.038	2.82415
459.803	3.68486
461.565	3.23005
463.327	3.29964
465.091	4.24732
466.852	5.2095
468.613	5.0613
470.374	4.95908
472.136	5.20954
473.896	5.99775
475.655	7.72274
477.415	9.93051
479.176	13.0557
480.934	16.8414
482.692	20.9031
484.45	25.2703
486.21	30.5576
487.967	35.6602
489.724	41.4067
491.481	47.1128
493.237	54.4635
494.995	61.5896
496.75	67.8295
498.506	74.5242
500.26	81.0819
502.015	86.8541
503.771	92.3179
505.525	97.6123
507.279	102.914
509.032	107.059
510.785	110.534
512.537	114.281
514.289	117.064
516.041	119.249
517.793	121.55
519.546	121.515
521.297	122.321
523.047	122.747
524.797	122.295
526.547	122.164
528.297	120.548
530.046	118.187
531.795	114.867
533.543	111.458
535.291	107.428
537.039	103.331
538.787	98.4489
540.534	94.09
542.281	88.9715
544.027	82.7652
545.773	76.5071
547.519	70.4824
549.264	63.276
551.01	57.0465
552.754	50.0927
554.499	43.5684
556.243	37.5507
557.987	31.953
559.73	28.9752
561.474	25.7385
563.216	23.9106
564.959	20.9976
566.701	19.0658
568.441	17.9806
570.182	17.7276
571.923	18.0025
573.664	18.9287
575.405	20.7066
577.145	23.4608
578.885	26.215
580.624	28.1888
582.361	30.0015
584.1	31.8209
585.839	32.8919
587.577	32.3768
589.315	33.2642
591.052	34.2709
592.787	34.8793
594.524	35.0377
596.26	34.8007
597.997	35.5267
599.732	35.9437
601.466	35.5071
603.201	34.9843
604.936	34.9547
606.67	35.6466
608.403	36.3517
610.136	34.2253
611.87	33.7659
613.603	32.8059
615.334	31.0522
617.067	30.402
618.799	29.0062
620.529	27.4705
622.26	24.9736
623.991	23.8094
625.72	21.4878
627.451	20.7182
629.181	18.8533
630.909	17.5393
632.638	15.5627
634.368	13.4687
636.095	11.2583
637.823	9.55573
639.551	7.58201
641.277	7.52933
643.005	6.65226
644.73	5.86196
646.457	7.50636
648.184	7.10476
649.908	7.29502
651.634	6.04865
653.357	6.08199
655.083	6.31909
656.806	6.82306
658.53	7.51762
660.253	7.51902
661.977	8.48676
663.7	9.1697
665.422	8.78176
667.145	7.76371
668.865	7.32378
670.588	7.21635
672.308	5.99075
674.027	5.69788
675.749	7.02821
677.468	6.75129
679.188	6.36444
680.907	7.31557
682.627	7.97542
684.345	8.10546
686.064	8.48049
687.781	8.90259
689.498	9.5872
691.216	10.4171
692.932	11.5555
694.65	9.99511
696.366	9.26906
698.081	11.3073
699.797	11.5484
701.512	12.3356
703.228	13.8724
704.942	15.3125
706.655	15.0183
708.371	15.3033
710.083	16.5869
711.796	17.3538
713.51	18.8582
715.222	18.0848
716.934	17.8387
718.645	17.5735
720.358	16.9644
722.068	16.6014
723.779	16.0613
725.49	17.5094
727.2	18.5665
728.909	18.8306
730.618	19.3248
732.329	21.5409
734.037	22.3725
735.745	25.8752
737.453	30.088
739.16	36.4754
740.869	44.4571
742.576	54.9024
744.282	66.356
745.988	78.1018
747.694	91.3152
749.401	103.384
751.107	116.117
752.811	128.332
754.516	140.296
756.22	152.077
757.924	162.531
759.627	172.152
761.332	181.535
763.035	189.454
764.738	197.296
766.44	203.659
768.142	208.689
769.843	213.425
771.544	217.609
773.245	220.375
774.946	222.813
776.646	224.403
778.346	224.495
780.046	223.386
781.745	221.695
783.444	219.725
785.143	216.268
786.841	211.109
788.539	205.677
790.237	199.176
791.934	191.337
793.631	184.864
795.328	177.102
797.024	168.211
798.72	157.408
800.416	146.207
802.112	135.577
803.807	123.834
805.502	112.618
807.196	103.183
808.89	92.113
810.584	83.4803
812.278	74.0371
813.971	66.0554
815.664	59.2614
817.354	55.5781
819.047	53.3246
820.739	51.8836
822.43	50.5714
824.122	51.2517
825.813	52.345
827.503	52.5873
829.192	52.1302
830.882	52.9156
832.571	52.1896
834.261	51.0793
835.95	51.0689
837.637	49.9498
839.325	48.0737
841.013	46.6893
842.701	45.0616
844.389	42.8376
846.074	41.6269
847.761	39.7122
849.447	37.1768
851.131	35.0295
852.817	34.2798
854.503	32.1649
856.188	30.5819
857.871	29.4597
859.556	27.266
861.24	25.0929
862.922	23.8869
864.606	22.55
866.289	22.3679
867.97	23.1671
869.653	22.5401
871.336	22.0183
873.016	22.0521
874.698	22.6992
876.379	23.0947
878.058	22.6968
879.739	20.9682
881.418	19.4592
883.098	18.5111
884.778	18.6984
886.456	17.6666
888.135	16.8024
889.812	17.5226
891.49	16.5626
893.167	16.3394
894.845	17.2852
896.523	17.6724
898.198	17.0708
899.875	18.37
901.55	20.6948
903.226	21.0083
904.901	21.236
906.576	22.023
908.25	23.0224
909.925	23.213
911.598	23.8338
913.271	24.9247
914.945	26.4636
916.617	26.4123
918.291	27.2253
919.962	28.0529
921.635	28.1417
923.306	27.2191
924.978	27.3712
926.648	26.881
928.318	26.5437
929.989	25.7998
931.659	23.938
933.328	23.9264
934.998	23.7211
936.666	23.0857
938.336	21.7246
940.004	21.4309
941.671	19.9941
943.34	18.3732
945.007	18.5278
946.673	17.7383
948.339	16.9988
950.007	17.147
951.672	16.2185
953.337	14.2584
955.004	12.6282
956.669	11.0091
958.333	10.225
959.997	7.94707
961.662	6.07867
963.326	3.27282
964.989	2.48661
966.651	1.07697
968.315	-0.585833
969.977	-2.06298
971.639	-1.8557
973.301	-2.2582
974.962	-3.67025
976.624	-2.74786
978.285	-2.84538
979.945	-4.61048
981.605	-6.49482
983.264	-6.09564
984.924	-6.49777
986.583	-7.27158
988.243	-7.92111
989.901	-8.89488
991.56	-9.10534
993.217	-7.67873
994.875	-5.1206
996.532	-2.20154
998.188	1.31229
999.845	5.39182
1001.5	11.7975
1003.16	17.2467
1004.81	24.6765
1006.47	31.3909
1008.12	39.4098
1009.78	47.7858
1011.43	56.3494
1013.09	65.0346
1014.74	74.9382
1016.39	84.0547
1018.05	92.3045
1019.7	100.854
1021.35	108.282
1023	115.414
1024.65	121.823
1026.31	128.695
1027.96	134.031
1029.61	139.021
1031.26	143.992
1032.91	147.552
1034.56	149.876
1036.21	150.668
1037.86	151.244
1039.51	150.628
1041.16	149.32
1042.8	148.296
1044.45	145.32
1046.1	141.807
1047.75	138.596
1049.39	134.924
1051.04	131.797
1052.69	129.496
1054.33	125.87
1055.98	124.151
1057.62	122.031
1059.27	119.609
1060.91	117.895
1062.56	116.681
1064.2	115.922
1065.85	115.687
1067.49	116.645
1069.13	116.69
1070.77	117.232
1072.42	118.559
1074.06	121.087
1075.7	124.329
1077.34	126.87
1078.98	130.434
1080.62	133.581
1082.27	136.725
1083.91	138.7
1085.55	138.822
1087.18	140.653
1088.82	140.649
1090.46	143.051
1092.1	144.36
1093.74	144.186
1095.38	142.976
1097.02	141.017
1098.65	138.136
1100.29	135.906
1101.93	132.847
1103.56	128.249
1105.2	124.116
1106.84	119.072
1108.47	112.774
1110.11	105.465
1111.74	97.1582
1113.38	88.4218
1115.01	80.6483
1116.64	72.643
1118.28	63.7813
1119.91	55.8276
1121.54	47.0453
1123.18	39.3474
1124.81	32.8404
1126.44	25.0043
1128.07	19.2819
1129.7	12.6439
1131.33	8.98139
1132.97	5.72039
1134.6	4.5281
1136.23	4.11382
1137.86	5.21428
1139.49	4.82704
1141.11	5.43353
1142.74	7.17877
1144.37	7.60241
1146	7.59302
1147.63	8.72852
1149.26	10.0583
1150.88	10.0628
1152.51	11.1689
1154.14	11.9472
1155.76	12.7384
1157.39	13.6995
1159.01	15.0478
1160.64	15.8162
1162.27	14.985
1163.89	15.3486
1165.51	16.5108
1167.14	17.3581
1168.76	18.5979
1170.39	20.6238
1172.01	24.1899
1173.63	24.3676
1175.25	24.7725
1176.88	25.6614
1178.5	27.0849
1180.12	28.792
1181.74	29.1478
1183.36	29.9316
1184.98	30.132
1186.6	31.1779
1188.22	30.7428
1189.84	29.5962
1191.46	29.0254
1193.08	28.8035
1194.7	29.6158
1196.32	29.9406
1197.94	30.5768
1199.55	30.114
1201.17	30.628
1202.79	30.4935
1204.41	30.3874
1206.02	29.2832
1207.64	28.95
1209.25	28.6243
1210.87	28.4201
1212.48	29.2388
1214.1	29.9613
1215.71	30.5395
1217.33	30.8787
1218.94	31.4746
1220.56	31.5227
1222.17	31.6656
1223.79	31.9051
1225.4	31.8332
1227.01	33.0274
1228.62	32.8851
1230.23	34.1049
1231.85	33.9011
1233.46	33.9744
1235.07	33.8644
1236.68	33.9527
1238.29	34.6799
1239.9	35.2491
1241.51	35.8429
1243.12	36.0898
1244.73	36.9938
1246.34	37.6915
1247.94	37.5802
1249.55	38.0192
1251.16	39.3161
1252.77	38.3994
1254.37	37.1762
1255.98	37.5431
1257.59	37.4103
1259.2	37.424
1260.8	37.7577
1262.41	38.0628
1264.01	38.1746
1265.62	39.1994
1267.22	39.2124
1268.83	40.0469
1270.43	42.057
1272.03	44.4371
1273.64	46.064
1275.24	47.992
1276.85	49.8688
1278.45	53.0718
1280.05	53.3704
1281.65	53.5938
1283.25	54.7643
1284.85	54.688
1286.46	54.5255
1288.06	56.0182
1289.66	56.517
1291.26	56.4818
1292.86	56.3509
1294.46	56.6266
1296.06	56.8393
1297.66	57.9025
1299.25	58.5043
1300.85	58.3357
1302.45	59.6741
1304.05	59.0545
1305.65	58.8649
1307.24	59.3881
1308.84	58.4585
1310.43	57.7315
1312.03	55.9583
1313.63	56.9222
1315.22	57.0403
1316.82	56.5862
1318.41	55.6224
1320.01	53.8784
1321.6	52.6697
1323.2	50.7517
1324.79	49.4947
1326.38	48.5053
1327.98	46.6608
1329.57	43.3079
1331.16	41.3044
1332.76	39.2625
1334.35	39.2441
1335.94	38.0195
1337.53	36.3973
1339.12	35.8105
1340.71	35.2465
1342.3	33.8209
1343.89	33.1168
1345.48	33.8884
1347.07	32.5401
1348.66	33.8027
1350.25	33.3128
1351.84	31.4889
1353.43	29.4053
1355.01	29.4593
1356.6	28.8473
1358.19	27.7155
1359.77	25.891
1361.36	25.1369
1362.95	24.9365
1364.53	23.4859
1366.12	22.9211
1367.71	23.19
1369.29	23.1243
1370.88	22.815
1372.46	22.6326
1374.04	23.1281
1375.63	22.7264
1377.21	21.8623
1378.8	22.1353
1380.38	21.7769
1381.96	21.5175
1383.54	20.4857
1385.13	21.8191
1386.71	21.6826
1388.29	20.9622
1389.87	21.903
1391.45	22.7141
1393.03	22.4457
1394.61	21.9902
1396.19	20.7098
1397.77	20.5829
1399.35	21.9109
1400.93	24.3169
1402.51	25.7928
1404.09	27.1194
1405.67	29.4245
1407.24	31.9281
1408.82	35.703
1410.4	39.4374
1411.98	42.1196
1413.55	46.1567
1415.13	49.2901
1416.71	53.8925
1418.28	57.6374
1419.86	61.6957
1421.43	64.8935
1423.01	68.8899
1424.58	72.2022
1426.16	75.8829
1427.73	79.5317
1429.31	82.6479
1430.88	85.9524
1432.45	89.8812
1434.02	93.5865
1435.6	96.4639
1437.17	97.8275
1438.74	99.2144
1440.31	100.673
1441.88	101.795
1443.45	102.605
1445.03	102.838
1446.6	103.113
1448.17	102.133
1449.74	101.38
1451.3	99.323
1452.87	98.0612
1454.44	95.7163
1456.01	94.1074
1457.58	93.0824
1459.15	90.4377
1460.72	88.0172
1462.28	85.4944
1463.85	83.2871
1465.42	79.998
1466.98	77.3439
1468.55	74.2613
1470.12	70.2401
1471.68	66.046
1473.25	63.1526
1474.81	59.6155
1476.38	58.1995
1477.94	55.7386
1479.51	52.9507
1481.07	49.7433
1482.63	47.1606
1484.2	46.0145
1485.76	43.9583
1487.32	41.9722
1488.88	38.8777
1490.45	36.7012
1492.01	36.0518
1493.57	33.6024
1495.13	32.383
1496.69	29.2925
1498.25	27.0347
1499.81	25.4841
1501.37	23.951
1502.93	23.9551
1504.49	22.9628
1506.05	21.0481
1507.61	19.3071
1509.17	17.3685
1510.73	15.5994
1512.28	13.3544
1513.84	11.6903
1515.4	8.58777
1516.96	6.98939
1518.51	6.54279
1520.07	4.96935
1521.63	4.33771
1523.18	3.58188
1524.74	3.5458
1526.29	2.5122
1527.85	3.02164
1529.4	2.99024
1530.96	3.56658
1532.51	4.48692
1534.06	4.75364
1535.62	4.86018
1537.17	5.35225
1538.72	5.63031
1540.28	7.69052
1541.83	8.44294
1543.38	8.42503
1544.93	8.64729
1546.48	8.67153
1548.03	9.90714
1549.59	10.3045
1551.14	11.7003
1552.69	12.962
1554.24	13.9543
1555.79	14.9069
1557.34	15.2399
1558.88	16.2691
1560.43	17.4968
1561.98	19.8078
1563.53	20.8798
1565.08	22.5483
1566.62	24.4806
1568.17	25.834
1569.72	27.94
1571.27	30.0458
1572.81	31.0616
1574.36	32.292
1575.9	33.5819
1577.45	35.8571
1579	37.3269
1580.54	39.0256
1582.09	39.236
1583.63	40.7854
1585.17	41.9269
1586.72	43.1426
1588.26	44.3043
1589.8	45.0227
1591.35	44.7544
1592.89	44.5792
1594.43	45.5873
1595.97	45.9844
1597.52	46.1331
1599.06	47.1484
1600.6	46.7659
1602.14	46.8633
1603.68	46.5289
1605.22	47.8382
1606.76	48.3794
1608.3	48.2557
1609.84	48.4781
1611.38	47.9057
1612.92	47.2103
1614.46	47.8844
1615.99	48.294
1617.53	49.4494
1619.07	49.1729
1620.61	49.7641
1622.14	51.2977
1623.68	53.1127
1625.22	54.2129
1626.75	55.2852
1628.29	55.7978
1629.82	55.6883
1631.36	57.2873
1632.9	58.6359
1634.43	60.1081
1635.96	62.7626
1637.5	64.5807
1639.03	67.2915
1640.57	69.2071
1642.1	71.0504
1643.63	72.9483
1645.16	74.132
1646.7	75.0101
1648.23	75.336
1649.76	75.3705
1651.29	76.9259
1652.82	76.7081
1654.36	77.7383
1655.89	78.3135
1657.42	77.6537
1658.95	77.2761
1660.48	76.6084
1662.01	74.014
1663.53	71.7993
1665.06	69.6976
1666.59	67.0929
1668.12	64.1893
1669.65	62.3006
1671.18	59.8142
1672.7	56.6083
1674.23	54.9042
1675.76	51.8313
1677.29	48.7608
1678.81	44.8617
1680.34	42.7461
1681.86	39.5012
1683.39	35.4322
1684.91	32.15
1686.44	29.0907
1687.96	26.074
1689.49	24.3509
1691.01	22.8187
1692.54	20.2744
1694.06	18.0918
1695.58	15.316
1697.11	13.4369
1698.63	11.6105
1700.15	9.44527
1701.67	6.92242
1703.2	4.89621
1704.72	3.17103
1706.24	2.30084
1707.76	2.06672
1709.28	0.95482
1710.8	0.673606
1712.32	0.529627
1713.84	-0.0629626
1715.36	0.269237
1716.88	0.421495
1718.4	0.0754764
1719.91	0.492873
1721.43	0.231629
1722.95	-0.261167
1724.47	0.00791004
1725.99	1.45313
1727.5	2.01178
1729.02	2.0061
1730.54	2.01874
1732.05	2.10892
1733.57	1.8382
1735.09	2.97143
1736.6	2.79641
1738.12	2.77219
1739.63	3.70286
1741.15	3.63409
1742.66	3.77046
1744.18	3.47877
1745.69	3.90086
1747.2	4.15551
1748.72	4.7772
1750.23	5.52169
1751.74	4.81202
1753.25	5.21702
1754.77	5.23206
1756.28	6.72585
1757.79	6.33245
1759.3	6.54346
1760.81	7.95818
1762.32	8.41622
1763.83	8.81884
1765.34	9.31435
1766.85	8.5016
1768.36	8.94036
1769.87	9.26365
1771.38	9.56885
1772.89	10.545
1774.4	10.4114
1775.91	10.5092
1777.41	11.0211
1778.92	11.5995
1780.43	13.0084
1781.94	13.5626
1783.44	13.7031
1784.95	14.3518
1786.45	15.012
1787.96	15.5901
1789.47	15.6725
1790.97	16.3639
1792.48	17.3019
1793.98	17.6299
1795.48	18.4821
1796.99	18.7065
1798.49	18.6822
1800	19.1656
1801.5	19.2372
1803	18.9615
1804.51	18.514
1806.01	17.7949
1807.51	18.2212
1809.01	18.2033
1810.51	18.3538
1812.02	17.9853
1813.52	18.4266
1815.02	18.7792
1816.52	17.7557
1818.02	17.475
1819.52	17.6002
1821.02	18.2833
1822.52	18.0034
1824.02	17.4551
1825.51	17.0825
1827.01	16.6155
1828.51	16.8733
1830.01	16.8027
1831.51	17.0229
1833	16.9402
1834.5	15.9465
1836	16.4931
1837.5	15.9279
1838.99	15.7199
1840.49	16.091
1841.98	16.6239
1843.48	17.279
1844.97	16.8381
1846.47	17.017
1847.96	16.6456
1849.46	16.6212
1850.95	16.1942
1852.45	16.4637
1853.94	16.1539
1855.43	15.7311
1856.92	15.1264
1858.42	14.6806
1859.91	14.6354
1861.4	14.9758
1862.89	14.5554
1864.39	15.0204
1865.88	15.3373
1867.37	15.4513
1868.86	15.1565
1870.35	15.1218
1871.84	14.0585
1873.33	12.7216
1874.82	13.4595
1876.31	13.3007
1877.8	13.5328
1879.29	13.5366
1880.77	13.9736
1882.26	14.6884
1882.51	14.8424
1884	15.7165
1885.5	15.8469
1886.99	16.8258
1888.48	16.7013
1889.98	16.6938
1891.47	16.8115
1892.97	17.3813
1894.46	18.1417
1895.95	18.2667
1897.44	18.4481
1898.93	19.0854
1900.42	19.3765
1901.92	19.1183
1903.41	18.6543
1904.9	18.2804
1906.39	17.9475
1907.88	18.0312
1909.37	18.1647
1910.86	17.9692
1912.35	18.5301
1913.84	18.2912
1915.32	17.2787
1916.81	16.9714
1918.3	15.8935
1919.79	15.7
1921.28	15.5669
1922.76	15.0568
1924.25	13.7737
1925.74	13.8368
1927.22	12.514
1928.71	11.8066
1930.2	11.0567
1931.68	10.2872
1933.17	9.4558
1934.65	8.74571
1936.14	8.05819
1937.62	7.2179
1939.11	5.35345
1940.59	4.68011
1942.08	4.07369
1943.56	3.23175
1945.04	2.34925
1946.53	2.07532
1948.01	2.86839
1949.49	2.76241
1950.97	2.48272
1952.45	2.41779
1953.94	2.00623
1955.42	0.780021
1956.9	1.12802
1958.38	2.3565
1959.86	3.09112
1961.34	3.9341
1962.82	3.78222
1964.3	4.71855
1965.78	5.13629
1967.26	6.44313
1968.74	7.40538
1970.22	7.35058
1971.69	7.28362
1973.17	7.66618
1974.65	7.51581
1976.13	6.96635
1977.61	7.14082
1979.08	7.29165
1980.56	7.55711
1982.03	7.7579
1983.51	7.81231
1984.99	8.08284
1986.46	8.46675
1987.94	8.35433
1989.41	8.0567
1990.89	8.1968
1992.36	8.35611
1993.84	9.14712
1995.31	8.82245
1996.78	8.70235
1998.26	8.28472
1999.73	8.69389
2001.2	7.8143
2002.68	8.22414
2004.15	8.3317
2005.62	7.55655
2007.09	7.3273
2008.56	6.30187
2010.04	5.08835
2011.51	4.31092
2012.98	4.07266
2014.45	4.69883
2015.92	4.94245
2017.39	5.77423
2018.86	6.00173
2020.33	5.79504
2021.8	5.80566
2023.27	6.10323
2024.74	5.05001
2026.2	4.59114
2027.67	4.50475
2029.14	5.11943
2030.61	6.05629
2032.07	6.76212
2033.54	6.87862
2035.01	7.02454
2036.47	7.37859
2037.94	7.48509
2039.41	8.25206
2040.87	7.84742
2042.34	8.23485
2043.8	7.89749
2045.27	8.55213
2046.73	8.936
2048.2	9.28832
2049.66	9.12859
2051.12	9.68833
2052.59	9.45906
2054.05	9.95858
2055.51	10.5767
2056.98	11.4204
2058.44	11.3465
2059.9	12.204
2061.36	12.0852
2062.82	12.4606
2064.29	14.0434
2065.75	16.1291
2067.21	16.5616
2068.67	17.5233
2070.13	18.6954
2071.59	19.0091
2073.05	20.1964
2074.51	20.8697
2075.97	21.6191
2077.43	21.5589
2078.88	22.1391
2080.34	22.3653
2081.8	23.8954
2083.26	24.8726
2084.72	26.9419
2086.17	28.7199
2087.63	30.3443
2089.09	32.0495
2090.54	32.8051
2092	32.8364
2093.46	34.0338
2094.91	35.5208
2096.37	36.8334
2097.82	37.0907
2099.28	38.393
2100.73	39.9228
2102.19	40.4941
2103.64	41.4125
2105.09	43.3836
2106.55	44.9759
2108	46.6815
2109.46	48.7254
2110.91	50.2101
2112.36	52.6353
2113.81	52.8867
2115.27	54.3057
2116.72	55.2809
2118.17	57.4343
2119.62	58.7052
2121.07	61.1308
2122.52	62.2071
2123.97	64.2067
2125.42	65.3231
2126.87	67.6816
2128.32	69.2199
2129.77	70.6557
2131.22	72.3534
2132.67	73.9761
