#Acq. time (s)=	45
#Accumulations=	2
#Range (cm-¹)=	200...3150
#Windows=	2
#Auto scanning=	Off
#Autofocus=	Off
#Macrospot=	Off
#AutoExposure=	Off
#Spike filter=	Multiple accum.
#Delay time (s)=	0
#Binning=	1
#Readout mode=	Signal
#DeNoise=	Off
#ICS correction=	On
#Dark correction=	Off
#Inst. Process=	Off
#Detector Gain=	Best Dynamic Range
#Detector ADC=	20 kHz       
#Detector temperature (°C)=	-69.85
#Instrument=	LabRAM HR Evol
#Detector=	Synapse
#Objective=	x100
#Grating=	600 gr/mm
#ND Filter=	100%
#Laser (nm)=	532 
#Hole=	100.021
#Range=	Auto
#Laser Pol.=	No
#Raman. Pol.=	No
#Laser Pol. (°)=	-0.0007625
#Raman Pol. (°)=	89.9995
#Collection=	Microscope
#StageXY=	Marzhauser
#StageZ=	Marzhauser
#X (µm)=	19359.8
#Y (µm)=	3068.1
#Z (µm)=	1047.55
#Full time(mm:ss)=	3:18
#Project=	
#Sample=	
#Site=	
#Title=	Mb_50_18_05_2x_45s_532 nm_x100_100%_600 gr_mm
#Remark=	
#Date=	12.07.2022 10:35
#Acquired=	12.07.2022 10:35:41
#Base:Fit=	10.08.2022 10:49:18
#Base:Sub=	10.08.2022 10:49:30
#Filter:Polynom=	16.08.2022 10:14:59
#AxisType[0]=Intens
#AxisUnit[0]=Cnt
#AxisType[1]=Spectr
#AxisUnit[1]=1/cm
200.388	11.6626
202.204	9.7136
204.019	9.48384
205.832	8.0093
207.646	7.13362
209.459	6.39071
211.274	5.31958
213.087	4.84646
214.899	4.43143
216.711	3.53179
218.524	2.61485
220.335	2.76483
222.146	2.51768
223.956	2.03527
225.766	1.19163
227.576	1.24708
229.388	0.165347
231.197	0.184477
233.005	-0.0191134
234.813	-0.0593102
236.621	0.820132
238.429	1.03188
240.236	1.40433
242.045	1.81999
243.852	2.28319
245.658	2.95957
247.464	3.14161
249.269	3.07556
251.074	3.69079
252.879	4.01201
254.683	4.79882
256.487	4.8713
258.291	5.0323
260.094	5.87026
261.897	5.81378
263.702	4.52274
265.504	4.52068
267.306	3.88281
269.108	3.79718
270.909	3.70495
272.71	3.95328
274.511	4.30119
276.311	3.78284
278.111	3.01953
279.91	2.90974
281.709	4.12385
283.508	4.44019
285.306	4.95311
287.105	5.43769
288.9	5.25607
290.698	6.9279
292.495	7.05605
294.291	7.17436
296.088	7.56218
297.884	7.46658
299.679	8.95326
301.475	9.28123
303.27	11.0362
305.064	12.1337
306.858	13.0373
308.652	13.8507
310.444	15.287
312.237	14.9603
314.03	15.2488
315.822	17.0684
317.615	18.6257
319.406	19.2706
321.198	21.1637
322.987	22.0896
324.778	22.4863
326.568	23.3996
328.358	23.3701
330.148	24.4475
331.935	24.8175
333.724	25.128
335.513	24.8381
337.301	23.1788
339.089	23.4407
340.875	23.5608
342.662	23.022
344.449	23.6197
346.236	23.7093
348.02	23.5005
349.806	24.3488
351.592	24.0472
353.375	24.669
355.16	26.7985
356.944	27.295
358.728	27.5436
360.51	27.7837
362.294	28.3808
364.077	29.3212
365.858	30.5281
367.64	30.9876
369.422	31.4751
371.202	32.5775
372.983	33.156
374.764	34.8366
376.543	35.0637
378.324	35.4041
380.102	36.6173
381.881	36.2218
383.661	36.9506
385.438	37.5622
387.216	38.9671
388.993	40.1877
390.771	40.5815
392.548	40.2126
394.324	39.6615
396.101	39.0326
397.875	38.4829
399.651	37.8167
401.425	36.254
403.201	35.6043
404.974	35.2846
406.749	33.0991
408.524	31.4202
410.296	29.8406
412.07	27.8004
413.841	26.0262
415.614	24.468
417.385	22.6498
419.156	21.1358
420.928	18.9813
422.698	16.8249
424.469	14.6873
426.238	13.8759
428.009	14.0459
429.777	12.639
431.548	12.2569
433.315	11.1954
435.083	10.3311
436.852	9.64022
438.618	9.52528
440.387	8.73644
442.153	9.38336
443.919	9.08157
445.686	8.75298
447.451	9.02973
449.218	9.85838
450.982	10.5323
452.746	11.314
454.512	12.3748
456.275	12.1438
458.038	12.5458
459.803	13.5324
461.565	14.1557
463.327	15.6169
465.091	15.3524
466.852	16.2915
468.613	18.1277
470.374	19.1928
472.136	19.9275
473.896	20.9183
475.655	21.7612
477.415	22.8774
479.176	24.4045
480.934	24.9818
482.692	26.7477
484.45	29.0854
486.21	30.8866
487.967	31.6717
489.724	32.8852
491.481	33.4209
493.237	35.5859
494.995	36.7819
496.75	37.716
498.506	38.8445
500.26	40.7159
502.015	41.0745
503.771	42.0803
505.525	42.5945
507.279	42.9062
509.032	43.6547
510.785	43.6356
512.537	44.0837
514.289	45.5208
516.041	44.6893
517.793	43.4658
519.546	43.2729
521.297	42.5283
523.047	43.1598
524.797	41.983
526.547	41.6381
528.297	40.9325
530.046	40.5571
531.795	40.0608
533.543	39.8888
535.291	38.3327
537.039	36.2705
538.787	34.2645
540.534	32.9884
542.281	30.4453
544.027	28.2419
545.773	26.2507
547.519	24.0339
549.264	23.5871
551.01	21.2684
552.754	18.9705
554.499	17.1037
556.243	16.2351
557.987	13.9476
559.73	13.2429
561.474	12.5089
563.216	10.7427
564.959	10.3189
566.701	10.1494
568.441	9.481
570.182	8.9
571.923	8.76241
573.664	8.36228
575.405	7.52975
577.145	6.76237
578.885	5.71727
580.624	5.99336
582.361	5.9685
584.1	6.71651
585.839	7.46305
587.577	8.09084
589.315	7.10865
591.052	7.82389
592.787	7.09804
594.524	7.06386
596.26	8.03011
597.997	8.21946
599.732	8.69216
601.466	9.96539
603.201	9.10176
604.936	9.77337
606.67	10.8097
608.403	11.2395
610.136	11.9088
611.87	11.6783
613.603	11.7247
615.334	11.6061
617.067	12.11
618.799	12.7458
620.529	12.9072
622.26	11.4913
623.991	11.0791
625.72	10.7018
627.451	11.5642
629.181	11.0584
630.909	11.0051
632.638	10.3774
634.368	9.66149
636.095	9.14072
637.823	7.28388
639.551	7.0225
641.277	6.2791
643.005	6.164
644.73	4.97823
646.457	5.46561
648.184	4.48882
649.908	4.18254
651.634	5.21697
653.357	5.08637
655.083	5.53891
656.806	4.72055
658.53	6.13448
660.253	6.67693
661.977	6.47148
663.7	5.68334
665.422	5.49153
667.145	6.61194
668.865	7.96907
670.588	8.34585
672.308	8.11933
674.027	8.93478
675.749	9.44696
677.468	10.7053
679.188	11.9953
680.907	13.6947
682.627	16.243
684.345	17.4994
686.064	18.7537
687.781	20.3639
689.498	21.0807
691.216	22.216
692.932	22.252
694.65	22.7068
696.366	23.6195
698.081	23.7179
699.797	24.1809
701.512	25.5174
703.228	26.6991
704.942	27.2124
706.655	28.6667
708.371	29.0398
710.083	30.1715
711.796	30.052
713.51	30.6652
715.222	30.0871
716.934	29.9589
718.645	30.013
720.358	29.4602
722.068	30.4311
723.779	31.1702
725.49	33.138
727.2	33.3524
728.909	34.2856
730.618	34.9743
732.329	37.3402
734.037	38.7478
735.745	41.6427
737.453	43.9992
739.16	47.3968
740.869	50.4413
742.576	52.9667
744.282	55.5523
745.988	57.503
747.694	60.404
749.401	62.7292
751.107	65.42
752.811	69.1114
754.516	71.1012
756.22	73.5325
757.924	75.0594
759.627	77.5808
761.332	80.1996
763.035	81.9715
764.738	83.4702
766.44	85.2085
768.142	86.8431
769.843	87.9922
771.544	88.1357
773.245	89.1218
774.946	89.6226
776.646	89.3133
778.346	89.4637
780.046	90.2902
781.745	90.8296
783.444	91.2159
785.143	91.9017
786.841	92.8096
788.539	92.1752
790.237	91.6445
791.934	91.9892
793.631	90.9275
795.328	88.5976
797.024	87.1803
798.72	86.9172
800.416	85.4457
802.112	83.4308
803.807	81.1301
805.502	79.8933
807.196	79.9628
808.89	77.9215
810.584	77.6091
812.278	75.7574
813.971	75.6749
815.664	75.3035
817.354	75.6888
819.047	74.5871
820.739	75.2606
822.43	74.3573
824.122	74.5593
825.813	72.7924
827.503	71.7579
829.192	70.6069
830.882	70.8252
832.571	70.4161
834.261	67.9021
835.95	66.1259
837.637	64.9386
839.325	61.9413
841.013	61.1091
842.701	60.018
844.389	59.1984
846.074	57.3006
847.761	55.5653
849.447	54.1671
851.131	53.4892
852.817	50.8139
854.503	49.1975
856.188	47.2427
857.871	46.0716
859.556	45.0602
861.24	43.3368
862.922	42.5302
864.606	42.1666
866.289	40.6468
867.97	41.0565
869.653	39.3793
871.336	38.759
873.016	37.1668
874.698	36.4098
876.379	34.1568
878.058	33.4283
879.739	31.9824
881.418	31.7852
883.098	30.8317
884.778	29.146
886.456	28.4821
888.135	28.4669
889.812	28.654
891.49	28.8377
893.167	27.9536
894.845	28.4858
896.523	28.3666
898.198	28.6788
899.875	28.6519
901.55	29.1565
903.226	28.5278
904.901	29.8036
906.576	29.2002
908.25	29.6873
909.925	29.7483
911.598	30.3456
913.271	31.0977
914.945	31.1293
916.617	30.4759
918.291	29.5007
919.962	29.3555
921.635	28.1193
923.306	27.8801
924.978	28.5026
926.648	27.5374
928.318	26.4433
929.989	25.2174
931.659	24.415
933.328	23.7289
934.998	22.4671
936.666	21.3381
938.336	21.4836
940.004	20.6139
941.671	18.9003
943.34	18.9117
945.007	17.2909
946.673	16.4123
948.339	16.8684
950.007	16.1854
951.672	17.4151
953.337	15.9463
955.004	16.4059
956.669	15.5086
958.333	15.2165
959.997	14.4697
961.662	14.4005
963.326	13.7593
964.989	13.6752
966.651	13.4079
968.315	12.8354
969.977	14.1172
971.639	13.9608
973.301	14.1192
974.962	14.3344
976.624	13.8569
978.285	14.2746
979.945	12.8904
981.605	11.6839
983.264	10.7499
984.924	10.5608
986.583	10.4525
988.243	10.6545
989.901	10.4516
991.56	10.3367
993.217	11.1984
994.875	11.2588
996.532	11.3783
998.188	11.4136
999.845	12.0103
1001.5	13.0893
1003.16	13.5407
1004.81	14.4517
1006.47	17.0459
1008.12	18.7555
1009.78	19.756
1011.43	21.7954
1013.09	22.3343
1014.74	23.9836
1016.39	25.7463
1018.05	26.1568
1019.7	27.2195
1021.35	27.9409
1023	27.9042
1024.65	28.1955
1026.31	29.681
1027.96	30.396
1029.61	31.1986
1031.26	31.9608
1032.91	32.6545
1034.56	32.4372
1036.21	31.9285
1037.86	32.4281
1039.51	31.8536
1041.16	31.7522
1042.8	30.5897
1044.45	30.7487
1046.1	31.6695
1047.75	31.0446
1049.39	30.8938
1051.04	30.0492
1052.69	29.0641
1054.33	27.4481
1055.98	26.7608
1057.62	25.9315
1059.27	25.1502
1060.91	24.8237
1062.56	23.8796
1064.2	23.5532
1065.85	23.3079
1067.49	22.9267
1069.13	23.3286
1070.77	22.4448
1072.42	22.3098
1074.06	22.2384
1075.7	23.0858
1077.34	22.1023
1078.98	22.4536
1080.62	22.293
1082.27	22.9015
1083.91	22.3608
1085.55	21.945
1087.18	21.5866
1088.82	22.0466
1090.46	21.6708
1092.1	21.0019
1093.74	21.2834
1095.38	20.6644
1097.02	20.7198
1098.65	19.8713
1100.29	18.8364
1101.93	17.6523
1103.56	16.3123
1105.2	15.0167
1106.84	15.0995
1108.47	14.7324
1110.11	13.6692
1111.74	12.2293
1113.38	11.051
1115.01	11.5284
1116.64	11.348
1118.28	11.33
1119.91	11.9168
1121.54	12.3743
1123.18	12.6494
1124.81	12.1174
1126.44	12.0885
1128.07	11.6279
1129.7	11.9106
1131.33	12.3839
1132.97	11.7344
1134.6	12.1373
1136.23	13.2579
1137.86	13.6032
1139.49	13.3819
1141.11	12.8349
1142.74	13.7177
1144.37	13.2034
1146	12.6572
1147.63	12.5856
1149.26	12.0233
1150.88	12.5646
1152.51	11.0656
1154.14	10.6131
1155.76	10.2333
1157.39	10.1833
1159.01	9.61842
1160.64	10.094
1162.27	9.33197
1163.89	9.18323
1165.51	8.43419
1167.14	7.54023
1168.76	6.95699
1170.39	7.16778
1172.01	7.25971
1173.63	6.7744
1175.25	6.3557
1176.88	5.58533
1178.5	4.22704
1180.12	3.42601
1181.74	3.35727
1183.36	2.80184
1184.98	2.80476
1186.6	3.43982
1188.22	4.28426
1189.84	3.40272
1191.46	2.88035
1193.08	3.39144
1194.7	3.97911
1196.32	4.5287
1197.94	5.18735
1199.55	4.93948
1201.17	6.6601
1202.79	7.13274
1204.41	6.39641
1206.02	6.04649
1207.64	6.07063
1209.25	6.84315
1210.87	7.79326
1212.48	8.10759
1214.1	8.25913
1215.71	8.93492
1217.33	9.68436
1218.94	10.7447
1220.56	11.442
1222.17	13.0973
1223.79	14.9101
1225.4	15.3755
1227.01	15.9851
1228.62	17.3473
1230.23	17.7241
1231.85	19.2928
1233.46	20.0371
1235.07	21.713
1236.68	23.5158
1238.29	25.3676
1239.9	26.3505
1241.51	27.3421
1243.12	28.0751
1244.73	29.0909
1246.34	30.4343
1247.94	30.9549
1249.55	32.5233
1251.16	34.1679
1252.77	36.2668
1254.37	35.9
1255.98	37.3963
1257.59	39.1248
1259.2	40.6161
1260.8	43.1999
1262.41	44.9688
1264.01	45.2681
1265.62	46.6586
1267.22	48.2726
1268.83	49.2343
1270.43	49.5229
1272.03	51.4855
1273.64	52.5005
1275.24	52.8875
1276.85	54.3714
1278.45	55.9453
1280.05	57.0294
1281.65	58.5672
1283.25	58.9824
1284.85	59.5794
1286.46	60.3695
1288.06	62.0774
1289.66	64.038
1291.26	65.4158
1292.86	66.3065
1294.46	67.0064
1296.06	67.4792
1297.66	68.1751
1299.25	68.194
1300.85	67.8615
1302.45	67.5068
1304.05	67.6536
1305.65	67.7178
1307.24	66.5044
1308.84	66.7209
1310.43	66.4394
1312.03	66.4622
1313.63	65.2683
1315.22	64.9837
1316.82	64.1378
1318.41	63.3193
1320.01	62.2754
1321.6	61.6292
1323.2	61.4218
1324.79	60.9209
1326.38	60.8762
1327.98	59.6993
1329.57	59.8575
1331.16	59.0016
1332.76	58.1378
1334.35	56.0335
1335.94	56.0075
1337.53	54.8679
1339.12	53.5724
1340.71	52.5615
1342.3	51.07
1343.89	49.3992
1345.48	48.8095
1347.07	47.1131
1348.66	45.9046
1350.25	44.5995
1351.84	43.3295
1353.43	42.0362
1355.01	41.4844
1356.6	40.2101
1358.19	39.4699
1359.77	38.5231
1361.36	37.7403
1362.95	37.331
1364.53	37.3358
1366.12	36.482
1367.71	36.4995
1369.29	36.7406
1370.88	36.5951
1372.46	34.929
1374.04	33.6583
1375.63	33.0961
1377.21	32.8759
1378.8	32.0121
1380.38	31.6642
1381.96	31.1541
1383.54	31.2554
1385.13	30.6318
1386.71	29.8599
1388.29	29.7881
1389.87	28.7557
1391.45	27.973
1393.03	27.5072
1394.61	27.6917
1396.19	25.8113
1397.77	26.8544
1399.35	26.4134
1400.93	26.2348
1402.51	27.7481
1404.09	29.042
1405.67	29.8848
1407.24	29.9739
1408.82	31.3935
1410.4	31.791
1411.98	33.0295
1413.55	33.8504
1415.13	35.5734
1416.71	36.6736
1418.28	39.4608
1419.86	41.6087
1421.43	43.7865
1423.01	45.8968
1424.58	47.9887
1426.16	50.7422
1427.73	53.9364
1429.31	55.7976
1430.88	58.4959
1432.45	60.4407
1434.02	62.7248
1435.6	65.053
1437.17	68.7719
1438.74	69.8623
1440.31	72.9646
1441.88	76.2947
1443.45	78.1882
1445.03	79.6363
1446.6	81.5892
1448.17	83.4859
1449.74	84.2794
1451.3	84.7712
1452.87	86.1036
1454.44	87.3749
1456.01	87.5235
1457.58	88.6956
1459.15	88.6502
1460.72	89.4511
1462.28	89.7905
1463.85	89.8577
1465.42	89.871
1466.98	88.821
1468.55	88.2709
1470.12	87.881
1471.68	86.6763
1473.25	85.6535
1474.81	85.4324
1476.38	85.8432
1477.94	84.8553
1479.51	84.4865
1481.07	84.6212
1482.63	82.8189
1484.2	81.4642
1485.76	80.561
1487.32	79.3016
1488.88	77.9663
1490.45	76.2693
1492.01	75.3118
1493.57	74.2844
1495.13	73.1454
1496.69	71.6507
1498.25	69.0609
1499.81	67.8468
1501.37	65.5312
1502.93	63.2177
1504.49	60.836
1506.05	57.9564
1507.61	55.385
1509.17	52.6617
1510.73	49.2223
1512.28	47.1926
1513.84	44.3223
1515.4	40.863
1516.96	38.408
1518.51	37.077
1520.07	34.6374
1521.63	32.058
1523.18	29.6274
1524.74	27.9444
1526.29	26.2389
1527.85	24.7202
1529.4	22.7982
1530.96	20.9747
1532.51	20.9236
1534.06	20.095
1535.62	20.4522
1537.17	18.9823
1538.72	18.816
1540.28	18.1479
1541.83	17.9959
1543.38	18.5609
1544.93	17.7301
1546.48	18.6332
1548.03	18.9312
1549.59	19.6654
1551.14	20.2739
1552.69	20.6197
1554.24	21.4718
1555.79	21.839
1557.34	21.595
1558.88	22.0796
1560.43	23.4431
1561.98	25.5283
1563.53	26.6428
1565.08	27.3468
1566.62	29.2543
1568.17	31.1665
1569.72	34.6367
1571.27	36.8851
1572.81	37.9937
1574.36	39.5672
1575.9	42.0915
1577.45	43.6245
1579	44.602
1580.54	46.2387
1582.09	47.5339
1583.63	49.2453
1585.17	50.5973
1586.72	51.6639
1588.26	53.0582
1589.8	54.1126
1591.35	54.7509
1592.89	55.5091
1594.43	57.0251
1595.97	57.5166
1597.52	57.4417
1599.06	56.8984
1600.6	56.7022
1602.14	56.7557
1603.68	56.8946
1605.22	56.9173
1606.76	57.1043
1608.3	57.9927
1609.84	59.4988
1611.38	59.8127
1612.92	60.274
1614.46	59.2761
1615.99	59.1608
1617.53	59.7576
1619.07	60.0959
1620.61	59.69
1622.14	59.0433
1623.68	59.1534
1625.22	59.1702
1626.75	59.4229
1628.29	60.311
1629.82	61.1516
1631.36	62.5474
1632.9	62.2383
1634.43	62.7891
1635.96	64.459
1637.5	66.9158
1639.03	68.4739
1640.57	69.547
1642.1	71.3414
1643.63	73.6849
1645.16	75.7729
1646.7	76.4191
1648.23	76.9275
1649.76	76.9314
1651.29	77.9079
1652.82	77.4967
1654.36	76.9378
1655.89	76.1826
1657.42	75.5499
1658.95	74.7769
1660.48	73.4628
1662.01	72.2447
1663.53	70.3435
1665.06	68.4944
1666.59	66.1077
1668.12	64.2226
1669.65	61.7459
1671.18	59.2662
1672.7	56.6637
1674.23	53.2931
1675.76	51.0044
1677.29	48.7324
1678.81	46.5141
1680.34	45.2791
1681.86	43.1838
1683.39	41.9113
1684.91	39.6224
1686.44	37.5893
1687.96	34.8067
1689.49	31.6411
1691.01	28.8282
1692.54	26.7828
1694.06	25.4958
1695.58	22.9107
1697.11	20.5199
1698.63	19.3951
1700.15	17.3069
1701.67	16.4193
1703.2	15.0495
1704.72	14.2961
1706.24	13.7461
1707.76	12.8272
1709.28	11.6005
1710.8	10.798
1712.32	11.1635
1713.84	10.8867
1715.36	10.7024
1716.88	10.3075
1718.4	9.93941
1719.91	9.24549
1721.43	8.37738
1722.95	7.62895
1724.47	7.83356
1725.99	6.56513
1727.5	6.19903
1729.02	5.67965
1730.54	5.41912
1732.05	4.89971
1733.57	5.22697
1735.09	4.9217
1736.6	4.55756
1738.12	4.76137
1739.63	3.56579
1741.15	3.59123
1742.66	3.35891
1744.18	3.18612
1745.69	2.68021
1747.2	2.9147
1748.72	2.8042
1750.23	2.83107
1751.74	2.99277
1753.25	2.23632
1754.77	2.48126
1756.28	2.74845
1757.79	2.45556
1759.3	2.30521
1760.81	1.87905
1762.32	1.85828
1763.83	1.29108
1765.34	0.961036
1766.85	1.12263
1768.36	1.24476
1769.87	1.39759
1771.38	0.831443
1772.89	0.91337
1774.4	1.05709
1775.91	0.616666
1777.41	0.796144
1778.92	0.899194
1780.43	1.29774
1781.94	1.75868
1783.44	0.983342
1784.95	0.990445
1786.45	0.947551
1787.96	1.22094
1789.47	1.28995
1790.97	1.42602
1792.48	0.916456
1793.98	1.11358
1795.48	1.26929
1796.99	1.61564
1798.49	1.91314
1800	1.75781
1801.5	1.62786
1803	2.29952
1804.51	2.39417
1806.01	1.8493
1807.51	1.89249
1809.01	2.53988
1810.51	2.50847
1812.02	2.68116
1813.52	2.5832
1815.02	2.08639
1816.52	2.74527
1818.02	2.71898
1819.52	2.78304
1821.02	2.74065
1822.52	3.188
1824.02	3.11302
1825.51	3.54028
1827.01	3.22049
1828.51	3.43072
1830.01	3.71995
1831.51	3.65333
1833	4.10896
1834.5	4.68293
1836	5.26078
1837.5	5.33637
1838.99	5.55728
1840.49	6.014
1841.98	6.49531
1843.48	6.38143
1844.97	6.1088
1846.47	5.86601
1847.96	5.89809
1849.46	5.73168
1850.95	5.36488
1852.45	5.64297
1853.94	5.6327
1855.43	4.86603
1856.92	4.14099
1858.42	3.66983
1859.91	3.45584
1861.4	3.0937
1862.89	2.9647
1864.39	2.59259
1865.88	1.60449
1867.37	1.60376
1868.86	1.42403
1870.35	1.40309
1871.84	1.2284
1873.33	1.18759
1874.82	0.0550312
1876.31	-0.171593
1877.8	-0.499637
1879.29	-0.770734
1880.77	-0.70876
1882.26	-0.291624
1882.51	-0.827615
1884	-1.00117
1885.5	-0.698721
1886.99	-1.73162
1888.48	-1.16417
1889.98	-0.942773
1891.47	-0.90645
1892.97	-0.57378
1894.46	-0.477133
1895.95	0.0844304
1897.44	-0.0341364
1898.93	0.267158
1900.42	-0.0270256
1901.92	0.335594
1903.41	0.376334
1904.9	0.642097
1906.39	1.07809
1907.88	1.68997
1909.37	1.68378
1910.86	1.81124
1912.35	1.93722
1913.84	2.54042
1915.32	2.66028
1916.81	2.71267
1918.3	3.40051
1919.79	3.71215
1921.28	4.08582
1922.76	3.8448
1924.25	3.80616
1925.74	3.69091
1927.22	3.20637
1928.71	2.40222
1930.2	2.22834
1931.68	2.44173
1933.17	2.34815
1934.65	2.32976
1936.14	2.14466
1937.62	1.85089
1939.11	1.71782
1940.59	2.30055
1942.08	2.42675
1943.56	2.66637
1945.04	2.86388
1946.53	2.86871
1948.01	2.58908
1949.49	3.81858
1950.97	4.47803
1952.45	5.22517
1953.94	5.72305
1955.42	5.8865
1956.9	6.14153
1958.38	6.58684
1959.86	6.56296
1961.34	6.31965
1962.82	6.9668
1964.3	6.18567
1965.78	6.63876
1967.26	6.40746
1968.74	6.3607
1970.22	5.901
1971.69	5.41916
1973.17	5.12237
1974.65	5.08854
1976.13	5.58698
1977.61	5.23959
1979.08	5.543
1980.56	5.94155
1982.03	7.28132
1983.51	7.21175
1984.99	7.38365
1986.46	7.75439
1987.94	8.30796
1989.41	7.88781
1990.89	8.10218
1992.36	8.32563
1993.84	8.2581
1995.31	7.97294
1996.78	7.76524
1998.26	8.27059
1999.73	8.1709
2001.2	7.97446
2002.68	8.07126
2004.15	8.36086
2005.62	9.11532
2007.09	9.66107
2008.56	9.60428
2010.04	9.61266
2011.51	10.3256
2012.98	10.5572
2014.45	11.5298
2015.92	12.1639
2017.39	12.7454
2018.86	13.6418
2020.33	13.9328
2021.8	14.168
2023.27	15.2475
2024.74	15.2473
2026.2	14.6837
2027.67	14.8511
2029.14	14.4608
2030.61	13.9039
2032.07	13.433
2033.54	13.3883
2035.01	12.6028
2036.47	12.4899
2037.94	12.3878
2039.41	12.5282
2040.87	11.2532
2042.34	11.407
2043.8	11.3498
2045.27	11.3766
2046.73	11.5615
2048.2	11.7872
2049.66	11.6953
2051.12	11.8082
2052.59	11.9072
2054.05	11.802
2055.51	11.7445
2056.98	11.3838
2058.44	11.3773
2059.9	11.6584
2061.36	11.8881
2062.82	12.5757
2064.29	13.5562
2065.75	14.4878
2067.21	15.4449
2068.67	16.0615
2070.13	17.3096
2071.59	18.5872
2073.05	19.1087
2074.51	20.3503
2075.97	21.3995
2077.43	21.8327
2078.88	22.8019
2080.34	23.6601
2081.8	24.4504
2083.26	25.4484
2084.72	26.9336
2086.17	27.6875
2087.63	29.4653
2089.09	30.2523
2090.54	31.5355
2092	33.0468
2093.46	33.7334
2094.91	34.4353
2096.37	35.7509
2097.82	36.0592
2099.28	36.8076
2100.73	38.2594
2102.19	38.7576
2103.64	39.806
2105.09	40.7502
2106.55	41.6557
2108	42.8543
2109.46	44.4787
2110.91	44.9015
2112.36	46.299
2113.81	47.1058
2115.27	48.7717
2116.72	49.8228
2118.17	50.6421
2119.62	52.209
2121.07	53.5193
2122.52	54.7329
2123.97	56.2087
2125.42	57.5352
2126.87	59.6412
2128.32	61.3698
2129.77	63.5728
2131.22	65.3119
