#Acq. time (s)=	45
#Accumulations=	2
#Range (cm-¹)=	200...3150
#Windows=	2
#Auto scanning=	Off
#Autofocus=	Off
#Macrospot=	Off
#AutoExposure=	Off
#Spike filter=	Multiple accum.
#Delay time (s)=	0
#Binning=	1
#Readout mode=	Signal
#DeNoise=	Off
#ICS correction=	On
#Dark correction=	Off
#Inst. Process=	Off
#Detector Gain=	Best Dynamic Range
#Detector ADC=	20 kHz       
#Detector temperature (°C)=	-69.85
#Instrument=	LabRAM HR Evol
#Detector=	Synapse
#Objective=	x100
#Grating=	600 gr/mm
#ND Filter=	100%
#Laser (nm)=	532 
#Hole=	100.021
#Range=	Auto
#Laser Pol.=	No
#Raman. Pol.=	No
#Laser Pol. (°)=	-0.0007625
#Raman Pol. (°)=	89.9995
#Collection=	Microscope
#StageXY=	Marzhauser
#StageZ=	Marzhauser
#X (µm)=	28464.6
#Y (µm)=	-3006.6
#Z (µm)=	1043.05
#Full time(mm:ss)=	3:19
#Project=	
#Sample=	
#Site=	
#Title=	Mb_50_18_44_2x_45s_532 nm_x100_100%_600 gr_mm
#Remark=	
#Date=	12.07.2022 14:29
#Acquired=	12.07.2022 14:29:04
#Base:Fit=	10.08.2022 10:49:18
#Base:Sub=	10.08.2022 10:49:30
#Filter:Polynom=	16.08.2022 10:14:59
#AxisType[0]=Intens
#AxisUnit[0]=Cnt
#AxisType[1]=Spectr
#AxisUnit[1]=1/cm
200.388	3.81526
202.204	4.45755
204.019	3.71897
205.832	3.59219
207.646	3.31264
209.459	3.08265
211.274	3.32428
213.087	3.63311
214.899	3.89632
216.711	3.29086
218.524	2.32999
220.335	1.98734
222.146	2.61084
223.956	3.98223
225.766	3.32248
227.576	2.78079
229.388	2.8808
231.197	3.61975
233.005	3.67025
234.813	3.40542
236.621	3.12337
238.429	2.76053
240.236	3.60552
242.045	4.81774
243.852	6.00106
245.658	7.16799
247.464	6.85579
249.269	7.04516
251.074	6.91124
252.879	7.29969
254.683	8.76082
256.487	9.73554
258.291	9.78588
260.094	9.39906
261.897	10.671
263.702	10.7745
265.504	11.9162
267.306	11.4095
269.108	10.5223
270.909	10.3603
272.71	9.25987
274.511	9.47471
276.311	9.04975
278.111	8.58095
279.91	8.81379
281.709	9.92329
283.508	9.00415
285.306	7.96399
287.105	8.34194
288.9	8.80965
290.698	8.19092
292.495	8.12577
294.291	8.63617
296.088	8.1833
297.884	7.93364
299.679	7.30447
301.475	8.12705
303.27	7.76887
305.064	7.50651
306.858	7.05533
308.652	7.44129
310.444	7.85488
312.237	8.95569
314.03	8.64543
315.822	8.21315
317.615	9.27213
319.406	10.2604
321.198	9.97329
322.987	10.3912
324.778	10.5908
326.568	11.4163
328.358	13.4524
330.148	14.9851
331.935	15.7269
333.724	15.9739
335.513	16.9151
337.301	17.1812
339.089	18.2465
340.875	18.32
342.662	20.1913
344.449	20.4037
346.236	20.581
348.02	20.5289
349.806	20.7307
351.592	21.7007
353.375	20.757
355.16	20.0878
356.944	18.9711
358.728	19.0721
360.51	19.2818
362.294	19.3777
364.077	20.7906
365.858	21.2232
367.64	21.8559
369.422	21.8692
371.202	21.464
372.983	20.5709
374.764	19.5714
376.543	20.9307
378.324	20.6563
380.102	20.4513
381.881	20.7593
383.661	21.3627
385.438	20.8613
387.216	20.2511
388.993	20.2048
390.771	20.2871
392.548	19.0142
394.324	18.1694
396.101	17.5557
397.875	16.6844
399.651	17.0079
401.425	16.8485
403.201	15.4138
404.974	15.654
406.749	14.584
408.524	13.7686
410.296	12.5914
412.07	12.5443
413.841	11.7886
415.614	11.9258
417.385	11.8521
419.156	10.2461
420.928	10.5367
422.698	10.3222
424.469	10.3989
426.238	8.70087
428.009	7.72193
429.777	7.3652
431.548	6.97411
433.315	5.51293
435.083	5.40033
436.852	5.81421
438.618	5.16125
440.387	5.41348
442.153	4.57334
443.919	4.25562
445.686	4.74485
447.451	5.77881
449.218	6.37332
450.982	7.31539
452.746	7.31187
454.512	7.89527
456.275	8.73072
458.038	8.02629
459.803	8.77564
461.565	9.4087
463.327	10.3178
465.091	11.582
466.852	11.4178
468.613	11.9158
470.374	12.229
472.136	11.9378
473.896	10.7815
475.655	10.5191
477.415	10.8426
479.176	11.8871
480.934	12.9455
482.692	14.2051
484.45	15.0111
486.21	15.5438
487.967	16.8958
489.724	17.1706
491.481	17.8333
493.237	18.3218
494.995	19.2292
496.75	20.3942
498.506	20.0433
500.26	20.9823
502.015	21.8541
503.771	21.9943
505.525	22.0484
507.279	22.1737
509.032	22.5594
510.785	21.9893
512.537	21.1672
514.289	20.5052
516.041	21.9718
517.793	22.577
519.546	22.3017
521.297	22.2039
523.047	23.0156
524.797	23.1255
526.547	22.7845
528.297	23.468
530.046	22.7153
531.795	22.6757
533.543	22.2764
535.291	21.6702
537.039	21.5752
538.787	20.6026
540.534	19.8867
542.281	20.0623
544.027	19.2204
545.773	17.378
547.519	15.624
549.264	13.8933
551.01	12.4506
552.754	11.3417
554.499	10.4932
556.243	9.39826
557.987	8.09206
559.73	7.36342
561.474	6.20263
563.216	6.79227
564.959	6.45867
566.701	6.28751
568.441	5.87118
570.182	4.97864
571.923	4.58906
573.664	4.55221
575.405	4.67099
577.145	3.95115
578.885	3.10193
580.624	2.51122
582.361	2.42099
584.1	1.44147
585.839	0.772586
587.577	1.75264
589.315	1.55908
591.052	1.12872
592.787	0.619194
594.524	0.635364
596.26	0.784699
597.997	0.857192
599.732	1.82512
601.466	2.5212
603.201	2.90987
604.936	3.1207
606.67	2.97562
608.403	3.58849
610.136	4.59519
611.87	4.68073
613.603	5.05914
615.334	5.61069
617.067	4.89355
618.799	5.12645
620.529	4.71675
622.26	4.81929
623.991	5.16412
625.72	4.91499
627.451	4.80006
629.181	5.25108
630.909	4.71572
632.638	4.5823
634.368	4.75654
636.095	6.09664
637.823	6.65493
639.551	6.83101
641.277	6.77821
643.005	6.50125
644.73	7.0992
646.457	7.19292
648.184	7.47573
649.908	7.2395
651.634	7.6706
653.357	7.66073
655.083	8.23595
656.806	8.96673
658.53	8.00862
660.253	8.19216
661.977	7.60928
663.7	6.92192
665.422	7.67165
667.145	8.17314
668.865	8.95193
670.588	10.1482
672.308	11.4096
674.027	12.6638
675.749	12.3882
677.468	12.7153
679.188	14.047
680.907	16.0721
682.627	16.897
684.345	17.7981
686.064	19.1054
687.781	19.1559
689.498	20.2987
691.216	22.2334
692.932	22.7256
694.65	23.064
696.366	22.619
698.081	23.0784
699.797	23.9595
701.512	24.4063
703.228	24.1956
704.942	25.3152
706.655	25.8844
708.371	26.5312
710.083	26.977
711.796	28.0891
713.51	28.8966
715.222	30.8222
716.934	31.0774
718.645	31.1385
720.358	30.7117
722.068	31.0371
723.779	31.717
725.49	32.2996
727.2	33.0907
728.909	33.6031
730.618	35.4825
732.329	35.9202
734.037	36.6342
735.745	36.4325
737.453	37.9101
739.16	37.9486
740.869	39.1539
742.576	40.9096
744.282	42.0434
745.988	44.4838
747.694	46.6308
749.401	49.1933
751.107	51.9216
752.811	54.1355
754.516	56.1184
756.22	58.6564
757.924	60.4575
759.627	62.9224
761.332	65.3318
763.035	67.9505
764.738	70.71
766.44	72.9435
768.142	74.0643
769.843	76.6404
771.544	77.9001
773.245	78.1835
774.946	78.901
776.646	79.372
778.346	79.4661
780.046	79.9645
781.745	81.2637
783.444	82.5291
785.143	83.0482
786.841	83.4238
788.539	83.9496
790.237	84.2839
791.934	83.6039
793.631	83.363
795.328	82.0927
797.024	82.3218
798.72	81.3458
800.416	81.1864
802.112	80.0589
803.807	78.5941
805.502	78.1772
807.196	78.4724
808.89	77.5154
810.584	76.6665
812.278	76.7054
813.971	75.7975
815.664	76.0542
817.354	75.0247
819.047	73.8405
820.739	73.8886
822.43	74.0339
824.122	74.6843
825.813	74.7454
827.503	75.5381
829.192	74.9741
830.882	74.6577
832.571	74.8522
834.261	74.1601
835.95	73.9733
837.637	74.3185
839.325	73.4258
841.013	73.4163
842.701	71.6728
844.389	71.8398
846.074	70.4731
847.761	69.1555
849.447	68.4264
851.131	67.0242
852.817	65.3565
854.503	64.9003
856.188	63.1804
857.871	61.3907
859.556	61.3707
861.24	60.2368
862.922	59.9213
864.606	59.1809
866.289	58.4782
867.97	56.1958
869.653	54.6014
871.336	53.7341
873.016	52.6235
874.698	51.6644
876.379	50.9859
878.058	49.7395
879.739	48.0172
881.418	48.1187
883.098	47.3305
884.778	47.0498
886.456	45.5803
888.135	45.2636
889.812	45.1665
891.49	45.0525
893.167	45.1399
894.845	45.8094
896.523	45.8558
898.198	45.5044
899.875	45.7208
901.55	45.0583
903.226	44.6855
904.901	44.753
906.576	44.3789
908.25	43.4476
909.925	43.4626
911.598	44.1732
913.271	43.0389
914.945	43.2376
916.617	42.4173
918.291	42.2297
919.962	42.1405
921.635	41.031
923.306	39.2312
924.978	38.8768
926.648	37.1993
928.318	36.4083
929.989	34.9245
931.659	34.7588
933.328	33.9826
934.998	33.5544
936.666	33.3776
938.336	33.0456
940.004	32.0776
941.671	31.2037
943.34	30.8819
945.007	29.4036
946.673	29.1217
948.339	29.2357
950.007	29.5517
951.672	29.312
953.337	29.7973
955.004	30.4923
956.669	30.7852
958.333	30.1214
959.997	29.8874
961.662	28.9892
963.326	29.2766
964.989	30.2687
966.651	30.8255
968.315	31.2309
969.977	31.4177
971.639	32.475
973.301	32.4503
974.962	31.8147
976.624	32.226
978.285	31.8146
979.945	31.6559
981.605	31.864
983.264	31.64
984.924	31.834
986.583	31.3304
988.243	31.3177
989.901	31.6121
991.56	31.7087
993.217	34.0205
994.875	34.299
996.532	34.0856
998.188	35.3889
999.845	35.8956
1001.5	36.9415
1003.16	36.9452
1004.81	37.4111
1006.47	38.3078
1008.12	38.5986
1009.78	39.3189
1011.43	40.0362
1013.09	41.1388
1014.74	41.9981
1016.39	42.5202
1018.05	43.0957
1019.7	43.4029
1021.35	43.4647
1023	43.7636
1024.65	44.0775
1026.31	44.4646
1027.96	45.343
1029.61	45.9483
1031.26	46.2665
1032.91	46.8601
1034.56	48.0744
1036.21	48.2554
1037.86	47.5
1039.51	47.4964
1041.16	47.0108
1042.8	47.033
1044.45	47.1245
1046.1	47.8022
1047.75	47.3689
1049.39	47.1568
1051.04	46.0677
1052.69	45.0327
1054.33	44.6732
1055.98	43.531
1057.62	41.9523
1059.27	42.779
1060.91	41.6472
1062.56	41.4159
1064.2	40.3154
1065.85	39.5038
1067.49	38.8505
1069.13	37.7586
1070.77	37.3399
1072.42	36.9449
1074.06	37.3835
1075.7	37.2395
1077.34	35.6878
1078.98	35.5876
1080.62	35.0066
1082.27	34.5961
1083.91	34.0796
1085.55	33.7916
1087.18	34.1999
1088.82	33.5605
1090.46	33.8595
1092.1	35.4318
1093.74	34.481
1095.38	34.1407
1097.02	33.1933
1098.65	32.5843
1100.29	31.9156
1101.93	31.0828
1103.56	30.7374
1105.2	30.3131
1106.84	30.4617
1108.47	29.8995
1110.11	29.1256
1111.74	28.5768
1113.38	28.2237
1115.01	28.4026
1116.64	27.3665
1118.28	25.5807
1119.91	25.0571
1121.54	25.3132
1123.18	24.9664
1124.81	24.8814
1126.44	25.0289
1128.07	24.1084
1129.7	22.9846
1131.33	22.4182
1132.97	20.8742
1134.6	21.0174
1136.23	20.3379
1137.86	19.2995
1139.49	18.6406
1141.11	18.1943
1142.74	16.7948
1144.37	15.988
1146	14.3572
1147.63	13.4685
1149.26	12.1712
1150.88	10.7131
1152.51	10.3752
1154.14	9.34701
1155.76	8.77762
1157.39	7.33215
1159.01	6.89105
1160.64	6.65356
1162.27	6.33929
1163.89	5.35627
1165.51	4.55335
1167.14	4.91547
1168.76	5.26028
1170.39	4.24965
1172.01	5.0819
1173.63	3.7243
1175.25	2.65781
1176.88	2.0427
1178.5	1.16472
1180.12	0.846521
1181.74	1.04054
1183.36	0.325499
1184.98	0.357917
1186.6	-0.083828
1188.22	-0.0252087
1189.84	-0.593779
1191.46	-0.741601
1193.08	-0.262355
1194.7	-0.517301
1196.32	1.01015
1197.94	2.484
1199.55	3.70463
1201.17	5.49972
1202.79	6.56946
1204.41	7.87266
1206.02	8.97071
1207.64	9.49575
1209.25	10.7419
1210.87	12.5989
1212.48	13.8913
1214.1	14.9035
1215.71	16.4974
1217.33	16.8742
1218.94	18.3459
1220.56	19.6994
1222.17	20.3942
1223.79	20.9194
1225.4	21.7237
1227.01	23.2965
1228.62	24.4365
1230.23	25.9785
1231.85	26.2963
1233.46	28.2581
1235.07	28.0402
1236.68	29.2299
1238.29	30.3729
1239.9	32.0955
1241.51	32.9733
1243.12	34.1572
1244.73	34.7139
1246.34	34.9381
1247.94	36.0436
1249.55	36.1478
1251.16	36.5341
1252.77	38.3733
1254.37	38.7557
1255.98	40.5483
1257.59	41.0971
1259.2	42.9938
1260.8	43.7104
1262.41	45.2013
1264.01	45.531
1265.62	47.2794
1267.22	49.4916
1268.83	51.7037
1270.43	53.1883
1272.03	54.7722
1273.64	56.8294
1275.24	58.9626
1276.85	62.3079
1278.45	62.9676
1280.05	64.6141
1281.65	66.9487
1283.25	67.8189
1284.85	68.8616
1286.46	70.0723
1288.06	70.5837
1289.66	70.9966
1291.26	71.8175
1292.86	71.5281
1294.46	71.4252
1296.06	70.7657
1297.66	70.1678
1299.25	70.328
1300.85	69.1816
1302.45	68.9362
1304.05	69.103
1305.65	69.2419
1307.24	68.6465
1308.84	67.4447
1310.43	66.6434
1312.03	65.238
1313.63	65.9159
1315.22	64.5792
1316.82	65.4938
1318.41	65.5472
1320.01	65.349
1321.6	63.1612
1323.2	62.0326
1324.79	61.0669
1326.38	58.6483
1327.98	59.1987
1329.57	58.5759
1331.16	59.1414
1332.76	58.4213
1334.35	57.5226
1335.94	57.7918
1337.53	57.6239
1339.12	57.1388
1340.71	56.405
1342.3	56.7074
1343.89	56.254
1345.48	55.9811
1347.07	55.2199
1348.66	54.2711
1350.25	52.8193
1351.84	52.3077
1353.43	52.0438
1355.01	51.6078
1356.6	50.7061
1358.19	48.9388
1359.77	48.3154
1361.36	46.8908
1362.95	44.4959
1364.53	42.92
1366.12	41.6119
1367.71	40.0238
1369.29	39.0011
1370.88	37.865
1372.46	36.2448
1374.04	34.1033
1375.63	31.9016
1377.21	31.5495
1378.8	30.767
1380.38	29.1719
1381.96	28.6996
1383.54	26.7199
1385.13	24.526
1386.71	22.701
1388.29	22.3173
1389.87	21.8353
1391.45	21.9807
1393.03	21.9202
1394.61	21.4994
1396.19	21.8418
1397.77	20.5854
1399.35	20.4387
1400.93	19.2605
1402.51	19.7365
1404.09	21.0297
1405.67	22.0407
1407.24	24.7542
1408.82	25.2149
1410.4	27.0099
1411.98	28.1302
1413.55	31.394
1415.13	34.6402
1416.71	36.7872
1418.28	38.515
1419.86	41.2124
1421.43	43.3376
1423.01	45.3941
1424.58	47.6059
1426.16	50.1056
1427.73	52.634
1429.31	54.027
1430.88	57.4735
1432.45	60.4427
1434.02	61.9648
1435.6	63.5857
1437.17	65.1798
1438.74	66.2788
1440.31	67.1402
1441.88	68.0193
1443.45	69.2989
1445.03	70.0999
1446.6	71.4409
1448.17	71.6503
1449.74	71.492
1451.3	71.4824
1452.87	71.0472
1454.44	71.1601
1456.01	70.8152
1457.58	69.0096
1459.15	67.2833
1460.72	65.7597
1462.28	64.0196
1463.85	62.8994
1465.42	61.7081
1466.98	61.4396
1468.55	59.5845
1470.12	58.5675
1471.68	56.7861
1473.25	55.105
1474.81	53.2833
1476.38	50.7533
1477.94	49.4569
1479.51	47.9635
1481.07	46.5063
1482.63	45.6839
1484.2	44.3106
1485.76	42.182
1487.32	39.9484
1488.88	39.4453
1490.45	38.0426
1492.01	36.8067
1493.57	34.1976
1495.13	32.4989
1496.69	30.8977
1498.25	29.1532
1499.81	27.6174
1501.37	25.6425
1502.93	23.9798
1504.49	22.1398
1506.05	20.8662
1507.61	19.142
1509.17	18.7087
1510.73	16.8277
1512.28	14.9526
1513.84	14.073
1515.4	13.4406
1516.96	12.4246
1518.51	11.7529
1520.07	11.6169
1521.63	10.8418
1523.18	10.4188
1524.74	10.5934
1526.29	9.04623
1527.85	9.06801
1529.4	9.07434
1530.96	9.8866
1532.51	9.60162
1534.06	9.33804
1535.62	9.98239
1537.17	10.9711
1538.72	12.0288
1540.28	14.4148
1541.83	15.1303
1543.38	16.6725
1544.93	18.34
1546.48	19.4516
1548.03	21.3975
1549.59	22.4841
1551.14	23.2799
1552.69	24.5097
1554.24	25.471
1555.79	27.0619
1557.34	27.9736
1558.88	28.5888
1560.43	30.2727
1561.98	30.8143
1563.53	31.5991
1565.08	33.6894
1566.62	34.9378
1568.17	35.8447
1569.72	37.5467
1571.27	39.1353
1572.81	40.7526
1574.36	41.9542
1575.9	42.3493
1577.45	43.9106
1579	44.7341
1580.54	45.9873
1582.09	46.9
1583.63	48.1358
1585.17	49.0505
1586.72	50.1807
1588.26	51.2996
1589.8	51.5162
1591.35	51.1401
1592.89	51.7397
1594.43	51.5537
1595.97	52.06
1597.52	51.3729
1599.06	50.9655
1600.6	50.9167
1602.14	50.5763
1603.68	50.2539
1605.22	50.742
1606.76	50.789
1608.3	50.8437
1609.84	50.2308
1611.38	50.4232
1612.92	50.0012
1614.46	49.8124
1615.99	50.2102
1617.53	50.7242
1619.07	49.0218
1620.61	50.1767
1622.14	50.7526
1623.68	51.9163
1625.22	52.72
1626.75	52.6368
1628.29	53.0826
1629.82	53.9461
1631.36	54.0633
1632.9	54.7524
1634.43	55.7787
1635.96	57.1659
1637.5	58.266
1639.03	59.4341
1640.57	61.2282
1642.1	62.3852
1643.63	63.701
1645.16	65.0163
1646.7	66.0202
1648.23	66.6345
1649.76	66.6239
1651.29	67.3873
1652.82	67.4216
1654.36	67.7276
1655.89	67.5591
1657.42	66.3249
1658.95	65.3593
1660.48	64.594
1662.01	63.0739
1663.53	61.5192
1665.06	60.3625
1666.59	58.811
1668.12	57.3455
1669.65	56.6886
1671.18	54.5848
1672.7	51.8844
1674.23	49.1215
1675.76	47.7026
1677.29	46.0732
1678.81	43.9709
1680.34	41.8567
1681.86	40.0104
1683.39	37.7815
1684.91	35.2864
1686.44	33.1721
1687.96	31.3395
1689.49	28.6728
1691.01	27.4135
1692.54	25.6966
1694.06	24.5092
1695.58	23.4896
1697.11	23.6984
1698.63	22.7395
1700.15	21.5959
1701.67	20.5805
1703.2	18.73
1704.72	18.0832
1706.24	17.93
1707.76	16.6659
1709.28	16.5264
1710.8	16.3477
1712.32	15.9883
1713.84	15.9402
1715.36	15.1789
1716.88	14.985
1718.4	14.6908
1719.91	14.3036
1721.43	13.0824
1722.95	12.5759
1724.47	12.1134
1725.99	11.6598
1727.5	11.4004
1729.02	10.8172
1730.54	9.25477
1732.05	8.50805
1733.57	8.12805
1735.09	8.57552
1736.6	8.3952
1738.12	7.95826
1739.63	7.63603
1741.15	7.25804
1742.66	6.46945
1744.18	5.32756
1745.69	4.60575
1747.2	3.83608
1748.72	3.39823
1750.23	4.20904
1751.74	4.76596
1753.25	4.3258
1754.77	3.56919
1756.28	3.67482
1757.79	3.90785
1759.3	3.89767
1760.81	3.97911
1762.32	4.18144
1763.83	3.74275
1765.34	3.63292
1766.85	4.47144
1768.36	4.57525
1769.87	5.3406
1771.38	5.58367
1772.89	5.30699
1774.4	4.94398
1775.91	4.58591
1777.41	4.77193
1778.92	4.41935
1780.43	4.56196
1781.94	4.47108
1783.44	3.5864
1784.95	4.04879
1786.45	4.36272
1787.96	4.39318
1789.47	4.17013
1790.97	3.41608
1792.48	4.12032
1793.98	4.22203
1795.48	4.73783
1796.99	5.61171
1798.49	6.40868
1800	6.60218
1801.5	6.88076
1803	6.72899
1804.51	6.32496
1806.01	6.43401
1807.51	6.61556
1809.01	6.68663
1810.51	6.20344
1812.02	5.76426
1813.52	5.49569
1815.02	4.87767
1816.52	4.54558
1818.02	4.44436
1819.52	4.59314
1821.02	4.60207
1822.52	5.20822
1824.02	4.79842
1825.51	4.74923
1827.01	4.62643
1828.51	4.59465
1830.01	5.02926
1831.51	5.35718
1833	5.17791
1834.5	4.90228
1836	4.34045
1837.5	3.96815
1838.99	4.11388
1840.49	4.3214
1841.98	4.01732
1843.48	3.68526
1844.97	3.75807
1846.47	3.5869
1847.96	3.01678
1849.46	2.74126
1850.95	2.5473
1852.45	2.29775
1853.94	1.99584
1855.43	1.66421
1856.92	1.81047
1858.42	2.44708
1859.91	2.52652
1861.4	2.61749
1862.89	2.89987
1864.39	3.20954
1865.88	3.5828
1867.37	4.15685
1868.86	4.44798
1870.35	4.37245
1871.84	4.06982
1873.33	4.34995
1874.82	3.74595
1876.31	3.41737
1877.8	2.92004
1879.29	2.27482
1880.77	2.26683
1882.26	2.61392
1882.51	2.65033
1884	1.81111
1885.5	0.933975
1886.99	1.12419
1888.48	1.78773
1889.98	1.86211
1891.47	2.02335
1892.97	2.21225
1894.46	2.12683
1895.95	1.86706
1897.44	1.42368
1898.93	1.79978
1900.42	1.81067
1901.92	2.48268
1903.41	2.00781
1904.9	0.995883
1906.39	0.341387
1907.88	0.590306
1909.37	0.678467
1910.86	0.53467
1912.35	0.317187
1913.84	0.607841
1915.32	0.764639
1916.81	1.01072
1918.3	0.584889
1919.79	0.472415
1921.28	0.467436
1922.76	0.621242
1924.25	1.20067
1925.74	1.39586
1927.22	1.47641
1928.71	1.89575
1930.2	1.79182
1931.68	2.11374
1933.17	2.56995
1934.65	3.3961
1936.14	3.91822
1937.62	4.30448
1939.11	3.99098
1940.59	4.09205
1942.08	4.09187
1943.56	4.11629
1945.04	4.08841
1946.53	4.17781
1948.01	3.61316
1949.49	4.01944
1950.97	4.10748
1952.45	3.55157
1953.94	3.52166
1955.42	3.66181
1956.9	2.92204
1958.38	3.0806
1959.86	2.99696
1961.34	3.81926
1962.82	4.07852
1964.3	2.84346
1965.78	3.36418
1967.26	3.36702
1968.74	3.15434
1970.22	3.13412
1971.69	3.48083
1973.17	3.41055
1974.65	3.09972
1976.13	2.86373
1977.61	1.57401
1979.08	1.61737
1980.56	1.80899
1982.03	2.39696
1983.51	2.12957
1984.99	2.1546
1986.46	2.365
1987.94	3.03265
1989.41	3.17672
1990.89	3.20196
1992.36	3.07877
1993.84	4.09522
1995.31	4.31145
1996.78	4.66044
1998.26	4.7777
1999.73	4.29178
2001.2	4.63695
2002.68	5.33557
2004.15	5.76089
2005.62	6.64055
2007.09	7.29221
2008.56	6.88941
2010.04	7.83699
2011.51	8.19703
2012.98	8.41637
2014.45	8.96622
2015.92	9.36761
2017.39	9.55333
2018.86	9.88094
2020.33	10.7946
2021.8	11.0408
2023.27	11.1431
2024.74	10.979
2026.2	11.0141
2027.67	11.7189
2029.14	12.484
2030.61	12.9472
2032.07	13.3016
2033.54	13.6688
2035.01	15.2879
2036.47	15.6756
2037.94	15.4331
2039.41	16.6891
2040.87	16.6635
2042.34	17.3906
2043.8	17.8518
2045.27	18.3793
2046.73	18.8132
2048.2	19.6831
2049.66	20.0734
2051.12	20.2789
2052.59	20.9622
2054.05	21.4684
2055.51	22.1322
2056.98	23.363
2058.44	24.6499
2059.9	24.8877
2061.36	25.6799
2062.82	25.7783
2064.29	25.4298
2065.75	26.0848
2067.21	26.4079
2068.67	26.1904
2070.13	26.5368
2071.59	27.1462
2073.05	27.8227
2074.51	28.4398
2075.97	28.9038
2077.43	29.6363
2078.88	30.5368
2080.34	31.708
2081.8	32.7807
2083.26	34.275
2084.72	35.2054
2086.17	36.4109
2087.63	36.5193
2089.09	37.5366
2090.54	38.3648
2092	39.5608
2093.46	40.6889
2094.91	41.3599
2096.37	42.5943
2097.82	43.6768
2099.28	44.6394
2100.73	45.7835
2102.19	47.2105
2103.64	48.981
2105.09	50.3797
2106.55	51.9313
2108	53.2571
2109.46	54.0552
2110.91	55.7535
2112.36	57.5267
2113.81	58.8793
2115.27	60.8323
2116.72	62.942
2118.17	65.8278
2119.62	67.421
2121.07	68.9648
2122.52	69.8096
2123.97	71.922
2125.42	74.4255
2126.87	75.8958
2128.32	77.5547
2129.77	79.5362
2131.22	79.8386
2132.67	80.2259
