#Acq. time (s)=	45
#Accumulations=	2
#Range (cm-¹)=	200...3150
#Windows=	2
#Auto scanning=	Off
#Autofocus=	Off
#Macrospot=	Off
#AutoExposure=	Off
#Spike filter=	Multiple accum.
#Delay time (s)=	0
#Binning=	1
#Readout mode=	Signal
#DeNoise=	Off
#ICS correction=	On
#Dark correction=	Off
#Inst. Process=	Off
#Detector Gain=	Best Dynamic Range
#Detector ADC=	20 kHz       
#Detector temperature (°C)=	-69.85
#Instrument=	LabRAM HR Evol
#Detector=	Synapse
#Objective=	x100
#Grating=	600 gr/mm
#ND Filter=	100%
#Laser (nm)=	532 
#Hole=	100.021
#Range=	Auto
#Laser Pol.=	No
#Raman. Pol.=	No
#Laser Pol. (°)=	-0.0007625
#Raman Pol. (°)=	89.9995
#Collection=	Microscope
#StageXY=	Marzhauser
#StageZ=	Marzhauser
#X (µm)=	-1181.5
#Y (µm)=	1252
#Z (µm)=	578.2
#Full time(mm:ss)=	3:18
#Project=	
#Sample=	
#Site=	
#Title=	Mbcal_20_25_14_2x_45s_532 nm_x100_100%_600 gr_mm
#Remark=	
#Date=	18.07.2022 10:26
#Acquired=	18.07.2022 10:26:07
#Base:Fit=	10.08.2022 10:55:08
#Base:Sub=	10.08.2022 10:55:14
#Filter:Polynom=	16.08.2022 10:07:28
#AxisType[0]=Intens
#AxisUnit[0]=Cnt
#AxisType[1]=Spectr
#AxisUnit[1]=1/cm
200.419	35.5696
202.234	33.2601
204.048	32.2246
205.862	30.1009
207.678	28.9251
209.491	28.8209
211.304	28.1205
213.116	27.3039
214.928	25.249
216.742	23.2944
218.554	23.411
220.365	21.6956
222.176	19.1387
223.986	18.1083
225.798	17.1581
227.608	17.3338
229.417	16.7023
231.226	16.1555
233.035	15.8942
234.843	15.8587
236.653	17.0664
238.46	16.7392
240.268	16.5542
242.074	17.8784
243.881	17.4057
245.687	16.6148
247.493	14.6286
249.298	14.0699
251.103	13.6353
252.908	13.5777
254.715	13.9622
256.519	14.4984
258.322	14.1413
260.126	13.9089
261.929	13.3051
263.731	13.9274
265.534	13.0927
267.336	13.2787
269.137	13.0016
270.938	12.2739
272.739	11.7692
274.54	11.8409
276.34	11.5797
278.14	10.9665
279.939	10.6099
281.739	9.75251
283.537	7.97387
285.336	7.29205
287.134	6.93351
288.932	7.72216
290.729	7.46096
292.526	8.16263
294.323	8.20574
296.117	10.8099
297.913	10.7496
299.709	10.1505
301.504	9.90624
303.299	11.5715
305.093	11.7603
306.888	13.124
308.682	14.1551
310.475	13.2222
312.268	13.8324
314.059	16.0535
315.852	18.2114
317.644	20.8622
319.436	23.1677
321.227	24.7643
323.018	26.5454
324.807	27.9949
326.597	29.4588
328.387	29.7018
330.177	31.2518
331.967	32.243
333.753	31.1261
335.542	31.5504
337.331	32.7546
339.119	35.0475
340.906	35.3505
342.691	35.6055
344.478	35.2584
346.265	34.2402
348.051	33.8091
349.835	32.6931
351.621	32.0847
353.406	31.5944
355.189	29.5428
356.973	28.2039
358.757	26.9118
360.541	25.0613
362.323	23.7711
364.106	22.3044
365.889	21.131
367.669	18.8284
369.451	18.3216
371.233	16.9394
373.012	15.8171
374.793	15.922
376.574	15.5594
378.353	15.4235
380.133	15.143
381.91	14.7349
383.69	15.4736
385.469	16.1395
387.245	15.0724
389.024	15.3152
390.8	15.95
392.577	15.3999
394.353	13.8125
396.129	12.2781
397.906	12.1816
399.68	12.1586
401.456	12.8719
403.23	13.73
405.005	15.3936
406.778	15.4956
408.552	15.6645
410.325	14.3949
412.099	14.2355
413.87	14.3506
415.643	15.0495
417.414	14.7156
419.187	14.8219
420.957	14.0779
422.728	13.9041
424.498	13.9754
426.269	13.7112
428.038	12.7583
429.806	11.5878
431.576	11.6521
433.344	10.3409
435.114	9.57275
436.881	8.87639
438.649	8.12174
440.416	8.07716
442.182	7.38374
443.949	7.98417
445.715	8.75574
447.48	8.43101
449.247	8.78895
451.011	8.02568
452.777	8.11223
454.541	8.37473
456.304	8.75503
458.069	10.6625
459.832	10.4896
461.594	11.1662
463.358	12.2151
465.119	13.2535
466.881	14.2442
468.642	15.0027
470.404	15.747
472.165	17.0239
473.925	17.148
475.684	17.5634
477.445	17.6762
479.204	19.3687
480.963	19.028
482.721	18.47
484.481	17.9327
486.239	19.278
487.996	19.5515
489.753	19.674
491.511	20.697
493.268	22.3989
495.023	22.9366
496.779	24.6813
498.534	25.4466
500.289	27.2171
502.046	29.1125
503.8	29.9091
505.554	30.2292
507.307	32.7087
509.06	33.8806
510.813	34.7164
512.566	35.9703
514.32	37.1125
516.072	37.5633
517.823	37.7807
519.574	38.2586
521.325	37.1818
523.076	38.9974
524.826	39.5552
526.576	41.0943
528.325	41.7829
530.074	42.0721
531.823	41.974
533.572	40.9753
535.32	39.8864
537.068	39.4221
538.815	37.5658
540.562	38.7039
542.309	38.3356
544.056	37.6395
545.802	36.2518
547.547	34.1095
549.293	33.884
551.038	32.3432
552.783	31.106
554.527	29.0601
556.271	26.1147
558.015	24.9241
559.759	23.1251
561.502	21.2576
563.245	19.4236
564.987	17.6717
566.729	16.2611
568.471	13.3785
570.213	11.8764
571.954	9.98081
573.693	8.93555
575.433	8.03412
577.173	7.68827
578.913	8.27406
580.652	7.37802
582.392	7.61238
584.13	7.13662
585.867	7.15227
587.605	7.11643
589.343	6.28244
591.08	5.05496
592.817	4.96088
594.552	5.33659
596.289	3.96892
598.025	2.85229
599.761	4.41938
601.496	3.74612
603.229	4.03418
604.964	4.7915
606.699	5.29928
608.433	6.15126
610.165	7.83728
611.898	8.1347
613.631	7.60296
615.364	5.98654
617.095	5.60723
618.827	5.61244
620.559	5.33382
622.288	3.97041
624.02	3.75344
625.75	4.94609
627.479	5.65326
629.209	4.36759
630.939	3.45079
632.667	3.34771
634.396	4.53624
636.125	6.18615
637.851	5.9032
639.58	6.34861
641.305	6.13608
643.033	6.31436
644.76	7.45413
646.485	7.51284
648.212	7.18638
649.936	7.12409
651.662	7.70453
653.388	7.93801
655.111	9.68664
656.836	9.95712
658.558	9.47566
660.283	10.7126
662.005	10.1
663.728	10.6464
665.45	10.9551
667.173	11.2007
668.893	11.7972
670.616	11.5738
672.336	11.7761
674.057	11.5561
675.777	11.401
677.498	12.1153
679.216	12.8115
680.937	13.5001
682.655	14.0737
684.375	14.9974
686.092	17.15
687.809	17.0056
689.528	17.9035
691.244	18.7002
692.962	19.1655
694.678	20.6761
696.393	21.3104
698.111	21.0014
699.825	20.559
701.54	21.1674
703.256	23.0014
704.97	24.2321
706.685	25.516
708.398	26.1085
710.111	27.7495
711.826	29.6566
713.538	30.0732
715.25	30.7226
716.961	30.9821
718.675	33.4196
720.386	34.1117
722.096	33.3481
723.808	32.6199
725.518	33.1961
727.228	33.1869
728.937	32.9205
730.648	32.3103
732.357	31.6915
734.065	31.5306
735.773	31.7633
737.483	31.9993
739.19	32.497
740.897	33.589
742.604	32.6677
744.31	32.5422
746.018	32.7481
747.724	31.4531
749.429	33.6655
751.134	34.3609
752.839	34.9925
754.544	35.2949
756.248	36.3852
757.953	36.8907
759.657	38.4492
761.36	40.2533
763.063	41.9126
764.765	42.2648
766.468	43.7694
768.169	45.2736
769.871	46.6319
771.572	48.5446
773.273	50.3925
774.976	51.6737
776.676	52.5934
778.376	54.8618
780.075	57.6912
781.775	59.6928
783.474	60.9475
785.172	63.303
786.871	65.136
788.569	66.5678
790.266	67.7041
791.964	68.0926
793.661	67.5707
795.358	67.1169
797.054	67.8652
798.75	68.0016
800.446	66.3393
802.141	65.3414
803.834	64.2736
805.529	63.1701
807.224	61.8405
808.918	62.5765
810.612	61.9563
812.305	60.972
813.998	59.9941
815.691	59.6926
817.384	59.2275
819.076	58.4306
820.766	57.5706
822.458	57.9587
824.149	59.4491
825.84	60.9171
827.531	61.8877
829.221	62.6224
830.909	64.2563
832.599	65.5373
834.288	69.033
835.977	70.2868
837.666	71.5818
839.353	73.3978
841.041	76.2026
842.729	78.2344
844.416	81.8673
846.103	83.9364
847.788	84.6888
849.475	85.0909
851.161	86.1544
852.845	88.0447
854.53	89.1703
856.216	89.4598
857.901	89.7974
859.583	89.4514
861.268	89.6846
862.952	91.1358
864.633	90.5521
866.317	88.0947
868	86.7783
869.681	84.7811
871.363	82.7229
873.045	80.929
874.725	79.1248
876.406	76.5776
878.088	74.5508
879.767	72.6232
881.447	70.2281
883.125	66.653
884.805	62.691
886.483	59.4416
888.162	56.69
889.841	54.8805
891.518	52.5029
893.196	51.0919
894.872	49.2154
896.55	47.5536
898.225	45.4065
899.902	43.771
901.577	42.0515
903.254	41.6682
904.928	40.6503
906.604	40.7169
908.277	40.7967
909.952	41.3248
911.625	40.8652
913.3	41.3348
914.972	43.0964
916.646	44.1666
918.318	45.9411
919.991	45.971
921.662	47.5544
923.333	49.5424
925.005	50.2109
926.675	50.9083
928.347	52.4762
930.017	51.5624
931.686	51.2991
933.357	51.5365
935.025	52.1239
936.693	51.8367
938.363	50.415
940.031	49.6912
941.698	49.6993
943.367	48.5448
945.034	47.0763
946.7	46.7246
948.368	46.794
950.034	45.9898
951.699	46.1071
953.367	45.9082
955.031	45.9591
956.696	45.9657
958.36	45.1067
960.026	43.3827
961.689	41.8781
963.353	40.5163
965.016	39.0556
966.68	38.1837
968.343	37.6164
970.005	37.3899
971.666	36.5801
973.328	36.2981
974.991	35.922
976.652	36.334
978.312	36.1461
979.972	35.062
981.632	33.824
983.292	33.4921
984.953	33.7508
986.612	32.5273
988.27	32.9983
989.929	32.8353
991.587	33.6237
993.244	34.3911
994.902	33.7397
996.559	34.804
998.216	34.7096
999.872	33.564
1001.53	33.1248
1003.19	33.2212
1004.84	32.7281
1006.5	33.1177
1008.15	34.734
1009.81	36.1967
1011.46	36.996
1013.11	38.0133
1014.77	39.4613
1016.42	40.6285
1018.07	42.9552
1019.73	44.4051
1021.38	46.2604
1023.03	47.6845
1024.68	48.9962
1026.34	50.3576
1027.99	51.8209
1029.64	54.1208
1031.29	54.7705
1032.94	54.7753
1034.59	55.5044
1036.24	55.5635
1037.89	54.5559
1039.53	53.6356
1041.18	52.4239
1042.83	50.8087
1044.48	50.3353
1046.13	51.6997
1047.77	51.6158
1049.42	50.3242
1051.07	48.9371
1052.71	48.8942
1054.36	47.0833
1056	47.4012
1057.65	47.3111
1059.3	46.8695
1060.94	45.0007
1062.59	43.8571
1064.23	44.0083
1065.87	43.8886
1067.52	44.4047
1069.16	42.9113
1070.8	43.1576
1072.44	40.7654
1074.09	40.9441
1075.73	39.7098
1077.37	39.3254
1079.01	38.7324
1080.65	37.5961
1082.29	37.6329
1083.93	37.9358
1085.57	38.1056
1087.21	37.9384
1088.85	40.1338
1090.49	42.0252
1092.13	41.9834
1093.77	43.3656
1095.41	44.7126
1097.04	45.6857
1098.68	46.7653
1100.32	47.9814
1101.95	47.7797
1103.59	47.6126
1105.23	48.2733
1106.86	47.783
1108.5	48.0218
1110.13	46.8695
1111.77	46.1972
1113.4	44.6597
1115.04	43.7645
1116.67	43.0886
1118.31	40.7939
1119.94	39.9685
1121.57	40.017
1123.2	39.4213
1124.84	39.3854
1126.47	39.7366
1128.1	39.3274
1129.73	37.7436
1131.36	35.9158
1132.99	35.4974
1134.62	35.3581
1136.25	34.017
1137.88	33.88
1139.51	32.3883
1141.14	30.464
1142.77	29.6479
1144.4	29.6194
1146.03	29.7302
1147.66	27.4403
1149.28	25.8417
1150.91	24.4533
1152.54	23.1193
1154.16	21.1831
1155.79	19.2544
1157.42	16.9349
1159.04	15.6754
1160.67	13.4193
1162.29	12.0287
1163.92	10.1058
1165.54	8.33621
1167.17	6.95703
1168.79	7.00155
1170.41	6.53903
1172.04	5.95409
1173.66	4.53478
1175.28	5.16216
1176.9	4.30673
1178.53	3.82263
1180.15	3.4419
1181.77	3.75558
1183.39	3.87378
1185.01	4.18027
1186.63	4.51746
1188.25	4.86524
1189.87	5.71374
1191.49	5.53004
1193.11	6.79875
1194.73	7.31449
1196.35	8.60508
1197.96	10.0327
1199.58	11.5602
1201.2	14.222
1202.82	17.5287
1204.43	19.1049
1206.05	21.7279
1207.66	22.267
1209.28	24.8912
1210.9	26.5038
1212.51	28.4376
1214.13	31.3029
1215.74	33.5794
1217.36	36.655
1218.97	38.7113
1220.58	40.6794
1222.2	42.4486
1223.81	45.189
1225.42	47.2893
1227.04	49.1739
1228.65	50.644
1230.26	53.0086
1231.87	55.4689
1233.48	56.6627
1235.1	59.0612
1236.71	60.7718
1238.32	63.341
1239.93	64.9271
1241.53	65.6484
1243.14	67.7598
1244.75	69.5272
1246.36	71.4462
1247.97	73.3078
1249.58	75.2978
1251.19	76.2049
1252.8	78.0476
1254.4	79.4997
1256.01	80.8643
1257.62	79.833
1259.22	80.6022
1260.83	81.4833
1262.43	83.216
1264.04	83.7458
1265.64	85.4801
1267.25	86.341
1268.85	87.8369
1270.46	88.4098
1272.06	90.0953
1273.66	90.9932
1275.27	92.0416
1276.87	93.0887
1278.48	93.8925
1280.08	96.0179
1281.68	97.2594
1283.28	99.205
1284.88	99.9005
1286.48	101.276
1288.08	102.484
1289.68	104.797
1291.28	105.354
1292.88	108.136
1294.48	109.993
1296.08	111.776
1297.68	113.2
1299.28	113.988
1300.88	115.245
1302.48	116.489
1304.07	117.115
1305.67	118.42
1307.27	120.018
1308.87	120.297
1310.46	121.354
1312.06	122.608
1313.65	124.273
1315.25	124.812
1316.85	123.904
1318.44	123.75
1320.03	124.996
1321.63	125.15
1323.22	126.636
1324.82	125.661
1326.41	125.758
1328	125.255
1329.6	125.481
1331.19	124.509
1332.78	124.174
1334.37	122.613
1335.96	120.255
1337.56	119.174
1339.15	117.74
1340.74	116.873
1342.33	115.847
1343.92	114.357
1345.51	112.438
1347.1	110.643
1348.69	109.733
1350.28	108.062
1351.86	107.035
1353.45	105.627
1355.04	104.575
1356.63	102.839
1358.21	102.058
1359.8	101.735
1361.39	99.1921
1362.97	96.9898
1364.56	95.22
1366.15	94.6006
1367.73	92.8605
1369.32	91.8858
1370.9	90.686
1372.49	90.3049
1374.07	88.8618
1375.65	87.0752
1377.24	85.4378
1378.82	84.2757
1380.41	83.3845
1381.99	81.7555
1383.57	80.349
1385.15	80.1141
1386.73	78.9054
1388.32	77.6541
1389.9	78.712
1391.48	79.0075
1393.06	78.9028
1394.64	78.2295
1396.22	77.958
1397.8	78.3
1399.38	79.8542
1400.96	79.8091
1402.54	81.1103
1404.11	82.55
1405.69	84.7395
1407.27	86.6661
1408.85	88.581
1410.43	89.073
1412	91.6336
1413.58	93.4536
1415.16	96.1282
1416.73	99.6703
1418.31	102.651
1419.88	107.741
1421.46	111.663
1423.03	116.382
1424.61	120.998
1426.18	126.506
1427.76	132.006
1429.33	136.453
1430.9	141.76
1432.48	146.945
1434.05	150.801
1435.62	154.555
1437.2	159.128
1438.77	162.376
1440.34	164.351
1441.91	167.996
1443.48	171.075
1445.05	172.642
1446.62	173.939
1448.19	175.626
1449.76	176.026
1451.33	176.339
1452.9	175.507
1454.47	174.581
1456.04	173.754
1457.61	172.574
1459.17	170.745
1460.74	168.454
1462.31	166.033
1463.88	163.464
1465.44	160.889
1467.01	158.68
1468.58	155.117
1470.14	150.657
1471.71	145.721
1473.27	141.364
1474.84	136.808
1476.4	132.891
1477.97	129.167
1479.53	125.023
1481.1	120.182
1482.66	115.928
1484.22	110.411
1485.78	105.274
1487.35	99.7459
1488.91	94.9208
1490.47	91.5912
1492.03	88.3396
1493.59	84.7479
1495.16	81.151
1496.72	78.724
1498.28	75.6221
1499.84	71.9524
1501.4	69.7665
1502.96	66.4635
1504.52	63.9738
1506.08	62.1643
1507.64	59.7569
1509.19	58.1625
1510.75	56.1814
1512.31	53.7335
1513.87	52.4763
1515.42	50.9364
1516.98	48.8785
1518.54	47.2329
1520.1	46.0555
1521.65	43.6187
1523.21	42.4957
1524.76	41.6063
1526.32	40.4797
1527.87	39.104
1529.43	37.8435
1530.98	38.074
1532.54	36.8735
1534.09	36.4433
1535.64	36.0295
1537.2	36.8109
1538.75	36.8385
1540.3	36.9479
1541.85	38.2097
1543.41	37.8762
1544.96	38.3348
1546.51	38.0401
1548.06	39.1083
1549.61	40.2379
1551.16	42.2037
1552.71	42.8762
1554.26	43.5395
1555.81	43.5168
1557.36	44.6991
1558.91	45.6932
1560.46	47.2427
1562.01	47.3988
1563.56	48.2481
1565.1	49.5161
1566.65	50.8081
1568.2	52.7274
1569.75	54.4982
1571.29	55.3127
1572.84	56.3602
1574.38	58.0345
1575.93	58.7328
1577.48	60.7968
1579.02	62.9879
1580.57	64.0269
1582.11	66.5299
1583.65	67.6008
1585.2	69.0067
1586.74	70.3972
1588.29	72.0881
1589.83	73.3435
1591.37	74.9316
1592.92	75.6024
1594.46	77.07
1596	76.836
1597.54	76.5199
1599.08	76.9557
1600.62	77.9378
1602.16	77.7893
1603.7	78.8678
1605.24	79.6432
1606.78	79.9725
1608.32	81.2561
1609.86	81.0893
1611.4	82.0134
1612.94	82.3258
1614.48	82.8115
1616.02	83.1201
1617.56	84.0959
1619.09	84.8643
1620.63	85.506
1622.17	86.4971
1623.71	87.3736
1625.24	87.7994
1626.78	88.9439
1628.31	90.0747
1629.85	91.2028
1631.39	92.5103
1632.92	93.269
1634.46	95.0924
1635.99	96.8377
1637.52	98.5656
1639.06	99.3109
1640.59	100.7
1642.12	102.007
1643.66	102.87
1645.19	103.754
1646.72	104.829
1648.25	105.228
1649.79	105.629
1651.32	107.661
1652.85	108.676
1654.38	109.513
1655.91	108.58
1657.44	108.459
1658.97	108.769
1660.5	108.098
1662.03	107.408
1663.56	106.111
1665.09	104.54
1666.62	102.539
1668.15	100.47
1669.67	97.998
1671.2	95.1884
1672.73	91.8778
1674.26	89.3352
1675.79	86.3603
1677.31	82.886
1678.84	79.0663
1680.36	76.0978
1681.89	72.0546
1683.42	67.9109
1684.94	63.8139
1686.47	60.0519
1687.99	55.5943
1689.51	51.5284
1691.04	46.9035
1692.56	43.7466
1694.08	39.8534
1695.61	36.0144
1697.13	32.6055
1698.65	28.9286
1700.18	26.2445
1701.7	22.8905
1703.22	21.0554
1704.74	19.5258
1706.26	16.954
1707.78	14.2517
1709.3	12.4724
1710.82	11.5184
1712.35	10.1836
1713.86	8.20324
1715.39	6.1681
1716.9	4.83513
1718.42	3.83289
1719.94	3.11695
1721.46	3.22634
1722.98	3.09507
1724.5	2.81687
1726.01	3.00084
1727.53	3.47263
1729.05	2.66925
1730.56	2.0097
1732.08	1.91642
1733.6	2.28939
1735.11	2.89609
1736.63	1.99788
1738.14	1.5973
1739.66	1.89561
1741.17	1.3457
1742.69	1.17629
1744.2	1.18682
1745.71	1.39055
1747.23	1.10803
1748.74	1.3341
1750.25	1.32559
1751.77	1.08842
1753.28	1.4766
1754.79	1.43152
1756.3	1.32747
1757.81	1.03728
1759.33	1.25313
1760.84	0.821016
1762.35	0.780928
1763.86	0.134721
1765.37	-0.035611
1766.88	-0.475522
1768.39	0.365163
1769.9	0.658683
1771.41	0.52723
1772.91	0.806147
1774.42	0.605927
1775.93	0.270602
1777.44	0.217336
1778.95	0.665564
1780.45	0.334544
1781.96	0.181616
1783.47	0.976427
1784.97	1.33235
1786.48	0.711539
1787.99	0.390829
1789.49	0.982464
1791	1.13452
1792.5	0.901023
1794.01	1.41354
1795.51	1.71585
1797.01	2.01296
1798.52	1.46783
1800.02	1.17045
1801.52	1.34613
1803.03	1.04333
1804.53	0.997116
1806.03	1.03648
1807.54	1.36508
1809.04	1.72848
1810.54	2.08634
1812.04	1.48045
1813.54	1.88864
1815.04	1.95341
1816.54	1.68353
1818.04	1.67052
1819.54	1.79038
1821.04	1.65701
1822.54	0.987658
1824.04	1.01819
1825.54	1.5957
1827.04	1.36729
1828.54	0.914114
1830.03	0.604313
1831.53	0.528161
1833.03	1.06533
1834.53	1.5257
1836.02	1.34323
1837.52	1.19837
1839.02	1.75888
1840.51	1.6177
1842.01	1.84228
1843.5	2.13996
1845	2.21633
1846.49	1.75233
1847.99	1.84914
1849.48	1.65148
1850.98	1.84292
1852.47	1.99699
1853.96	1.65023
1855.46	1.76837
1856.95	2.2673
1858.44	1.86724
1859.94	3.03339
1861.43	2.98632
1862.92	2.93653
1864.41	3.06799
1865.9	2.38901
1867.39	2.1327
1868.88	2.91685
1870.37	3.4555
1871.86	3.73201
1873.35	3.47935
1874.84	3.47384
1876.33	3.81966
1877.82	3.67252
1879.31	3.78435
1880.8	3.93841
1882.29	3.40655
1882.58	3.70462
1884.08	3.23205
1885.57	3.14164
1887.06	2.67484
1888.56	2.82517
1890.05	2.60165
1891.54	1.85903
1893.04	2.32438
1894.53	2.04209
1896.02	1.80937
1897.51	1.5928
1899	1.46429
1900.5	1.20451
1901.99	1.88367
1903.48	2.38143
1904.97	2.37054
1906.46	2.51505
1907.95	2.41447
1909.44	1.86435
1910.93	1.74643
1912.42	1.72531
1913.91	2.13963
1915.4	2.36223
1916.88	2.28052
1918.37	2.71814
1919.86	2.6429
1921.35	2.53994
1922.84	2.85462
1924.32	3.30703
1925.81	2.89603
1927.3	3.57025
1928.78	3.9915
1930.27	4.06643
1931.75	4.42227
1933.24	4.81843
1934.72	2.96981
1936.21	2.45146
1937.69	2.58969
1939.18	2.74952
1940.66	2.70279
1942.15	3.63632
1943.63	3.74156
1945.11	3.87361
1946.6	3.82399
1948.08	3.98058
1949.56	4.00485
1951.04	3.69717
1952.53	3.28867
1954.01	3.37678
1955.49	3.15552
1956.97	3.68943
1958.45	3.40817
1959.93	4.14468
1961.41	4.41109
1962.89	4.48497
1964.37	4.69883
1965.85	5.76277
1967.33	5.85255
1968.81	5.45814
1970.29	5.55081
1971.77	5.92806
1973.24	6.7491
1974.72	7.15563
1976.2	7.05661
1977.68	7.1008
1979.15	7.41092
1980.63	7.79614
1982.11	8.42059
1983.58	8.97897
1985.06	9.57784
1986.53	9.98662
1988.01	10.5576
1989.48	11.1097
1990.96	10.8259
1992.43	10.9924
1993.91	11.3574
1995.38	11.57
1996.86	12.333
1998.33	12.1395
1999.8	11.5533
2001.27	11.2853
2002.75	10.4569
2004.22	10.337
2005.69	9.92846
2007.16	9.39047
2008.64	8.98584
2010.11	9.75601
2011.58	10.1666
2013.05	9.72701
2014.52	9.87096
2015.99	10.6147
2017.46	10.1991
2018.93	10.5204
2020.4	10.6112
2021.87	10.8223
2023.34	10.6898
2024.8	11.1898
2026.27	11.8792
2027.74	13.5272
2029.21	14.1839
2030.68	14.5461
2032.14	15.252
2033.61	16.0362
2035.08	16.1034
2036.54	15.9043
2038.01	16.936
2039.48	17.2896
2040.94	16.89
2042.41	17.6334
2043.87	17.4672
2045.34	17.1192
2046.8	17.4869
2048.27	17.873
2049.73	17.8221
2051.19	18.2531
2052.66	18.1441
2054.12	17.8211
2055.58	17.821
2057.05	18.1425
2058.51	17.8966
2059.97	17.892
2061.43	18.0602
2062.9	18.8078
2064.36	17.8564
2065.82	18.0463
2067.28	18.6695
2068.74	18.1604
2070.2	18.2087
2071.66	17.408
2073.12	16.8726
2074.58	17.4213
2076.04	17.8052
2077.5	18.1116
2078.95	18.4361
2080.41	18.603
2081.87	18.804
2083.33	20.1441
2084.79	20.369
2086.24	20.4977
2087.7	21.3595
2089.16	22.1924
2090.61	22.8894
2092.07	24.4967
2093.53	25.3756
2094.98	26.4929
2096.44	27.5922
2097.89	29.2301
2099.35	29.8008
2100.8	30.1448
2102.26	30.2577
2103.71	30.3891
2105.16	31.3658
2106.62	32.5646
2108.07	33.3184
2109.53	33.8401
2110.98	35.3412
2112.43	36.0407
2113.88	36.7644
2115.33	37.6073
2116.79	38.2485
2118.24	39.6804
2119.69	40.2268
2121.14	41.3001
2122.59	42.1233
2124.04	44.0185
2125.49	45.0308
2126.94	45.9056
2128.39	47.5589
2129.84	48.5649
2131.29	49.6657
2132.74	51.0681
2134.19	52.103
