#Acq. time (s)=	45
#Accumulations=	2
#Range (cm-¹)=	200...3150
#Windows=	2
#Auto scanning=	Off
#Autofocus=	Off
#Macrospot=	Off
#AutoExposure=	Off
#Spike filter=	Multiple accum.
#Delay time (s)=	0
#Binning=	1
#Readout mode=	Signal
#DeNoise=	Off
#ICS correction=	On
#Dark correction=	Off
#Inst. Process=	Off
#Detector Gain=	Best Dynamic Range
#Detector ADC=	20 kHz       
#Detector temperature (°C)=	-69.85
#Instrument=	LabRAM HR Evol
#Detector=	Synapse
#Objective=	x100
#Grating=	600 gr/mm
#ND Filter=	100%
#Laser (nm)=	532 
#Hole=	100.021
#Range=	Auto
#Laser Pol.=	No
#Raman. Pol.=	No
#Laser Pol. (°)=	-0.0007625
#Raman Pol. (°)=	89.9995
#Collection=	Microscope
#StageXY=	Marzhauser
#StageZ=	Marzhauser
#X (µm)=	-1133.4
#Y (µm)=	1294.5
#Z (µm)=	578.05
#Full time(mm:ss)=	3:18
#Project=	
#Sample=	
#Site=	
#Title=	Mbcal_20_25_32_2x_45s_532 nm_x100_100%_600 gr_mm
#Remark=	
#Date=	18.07.2022 12:27
#Acquired=	18.07.2022 12:27:31
#Base:Fit=	10.08.2022 10:55:08
#Base:Sub=	10.08.2022 10:55:14
#Filter:Polynom=	16.08.2022 10:07:28
#AxisType[0]=Intens
#AxisUnit[0]=Cnt
#AxisType[1]=Spectr
#AxisUnit[1]=1/cm
200.419	45.8714
202.234	42.3074
204.048	37.5869
205.862	32.7474
207.678	28.183
209.491	24.7366
211.304	21.8641
213.116	19.1022
214.928	18.3284
216.742	17.1898
218.554	16.0424
220.365	14.0211
222.176	13.9938
223.986	13.0048
225.798	11.8838
227.608	10.3755
229.417	10.0383
231.226	9.34093
233.035	8.42355
234.843	8.30025
236.653	8.57922
238.46	7.35298
240.268	7.35456
242.074	6.58731
243.881	6.03769
245.687	5.66484
247.493	5.7361
249.298	6.49158
251.103	8.30581
252.908	9.17783
254.715	7.35804
256.519	6.42736
258.322	6.94866
260.126	7.72892
261.929	7.87482
263.731	8.38594
265.534	7.71096
267.336	9.36185
269.137	8.16526
270.938	8.81902
272.739	8.70063
274.54	7.94131
276.34	7.45976
278.14	6.91347
279.939	4.48105
281.739	3.33427
283.537	2.04021
285.336	0.828686
287.134	-0.00207499
288.932	-1.4014
290.729	-0.438161
292.526	-0.522973
294.323	0.500848
296.117	2.97786
297.913	3.93019
299.709	4.99707
301.504	5.55107
303.299	7.42974
305.093	8.85555
306.888	9.62481
308.682	11.2078
310.475	11.778
312.268	14.0555
314.059	14.8019
315.852	17.4931
317.644	20.2802
319.436	22.1359
321.227	23.6187
323.018	24.9827
324.807	26.4721
326.597	26.7989
328.387	28.3558
330.177	30.5354
331.967	31.6894
333.753	33.6724
335.542	34.3429
337.331	35.8306
339.119	37.1555
340.906	37.8008
342.691	36.4052
344.478	35.033
346.265	34.9306
348.051	36.2431
349.835	35.6652
351.621	35.1819
353.406	34.4585
355.189	31.7566
356.973	31.6921
358.757	30.0072
360.541	29.1501
362.323	26.5724
364.106	24.76
365.889	24.4197
367.669	22.0787
369.451	21.377
371.233	19.8984
373.012	19.5359
374.793	19.1206
376.574	18.2762
378.353	19.1433
380.133	19.8125
381.91	18.6215
383.69	19.2981
385.469	19.1145
387.245	18.2641
389.024	18.3071
390.8	17.8887
392.577	19.2198
394.353	18.8911
396.129	20.1559
397.906	20.1251
399.68	20.966
401.456	23.202
403.23	24.4117
405.005	24.8298
406.778	24.2898
408.552	23.4144
410.325	23.6101
412.099	23.8046
413.87	23.8066
415.643	24.5915
417.414	25.1042
419.187	24.0427
420.957	24.2874
422.728	23.7631
424.498	22.1283
426.269	22.5681
428.038	22.4128
429.806	22.1043
431.576	20.6948
433.344	20.6265
435.114	20.1555
436.881	19.3428
438.649	16.7312
440.416	16.2397
442.182	15.5747
443.949	15.1768
445.715	16.8588
447.48	16.2019
449.247	16.3207
451.011	17.1695
452.777	18.4032
454.541	18.2357
456.304	17.6736
458.069	18.3946
459.832	18.7683
461.594	19.3615
463.358	19.8207
465.119	20.8278
466.881	21.5153
468.642	21.1828
470.404	21.417
472.165	21.1835
473.925	21.1007
475.684	22.9843
477.445	22.8021
479.204	23.9548
480.963	25.1828
482.721	26.7006
484.481	29.1103
486.239	29.9118
487.996	31.6582
489.753	31.859
491.511	31.7376
493.268	31.6275
495.023	33.2414
496.779	32.9214
498.534	33.852
500.289	34.5598
502.046	34.8167
503.8	35.9393
505.554	36.3388
507.307	37.423
509.06	38.8749
510.813	38.8904
512.566	39.7695
514.32	40.8567
516.072	42.2005
517.823	42.823
519.574	42.1617
521.325	42.6464
523.076	42.9376
524.826	42.554
526.576	43.4587
528.325	44.9039
530.074	46.5694
531.823	46.7045
533.572	48.3083
535.32	47.2944
537.068	48.4659
538.815	49.4232
540.562	48.2986
542.309	48.7958
544.056	47.9615
545.802	47.4004
547.547	46.4283
549.293	45.3
551.038	44.9694
552.783	43.8064
554.527	42.4554
556.271	41.1266
558.015	39.2717
559.759	37.4378
561.502	37.1224
563.245	36.3232
564.987	33.5635
566.729	31.9827
568.471	30.4257
570.213	28.9203
571.954	26.4657
573.693	23.7917
575.433	19.8088
577.173	18.4395
578.913	16.4375
580.652	13.9634
582.392	12.6642
584.13	11.1289
585.867	11.6958
587.605	11.08
589.343	9.03891
591.08	7.29573
592.817	5.7744
594.552	4.48861
596.289	3.64409
598.025	3.5423
599.761	3.37949
601.496	2.33766
603.229	3.3653
604.964	2.91876
606.699	3.21896
608.433	4.6224
610.165	5.65993
611.898	6.28451
613.631	7.00202
615.364	7.4031
617.095	8.71041
618.827	8.64194
620.559	10.0444
622.288	9.75245
624.02	10.4567
625.75	10.7156
627.479	10.067
629.209	11.6039
630.939	11.2672
632.667	11.9912
634.396	12.789
636.125	13.2418
637.851	13.3563
639.58	13.7904
641.305	13.7829
643.033	12.0395
644.76	11.2673
646.485	11.4083
648.212	11.2874
649.936	10.2713
651.662	9.50424
653.388	9.2865
655.111	9.33007
656.836	9.22847
658.558	8.09909
660.283	7.0299
662.005	7.00353
663.728	7.62679
665.45	5.60545
667.173	4.54441
668.893	4.84445
670.616	4.92191
672.336	3.94292
674.057	2.78166
675.777	1.39307
677.498	1.02011
679.216	1.94358
680.937	3.57176
682.655	4.22328
684.375	5.16153
686.092	6.52256
687.809	7.51384
689.528	9.69807
691.244	10.9202
692.962	12.1875
694.678	12.7813
696.393	13.6168
698.111	14.5773
699.825	15.4205
701.54	17.5059
703.256	18.9227
704.97	19.994
706.685	20.6669
708.398	22.3546
710.111	23.7501
711.826	26.0763
713.538	27.9919
715.25	29.3917
716.961	29.9873
718.675	31.0738
720.386	31.5593
722.096	32.1846
723.808	33.0202
725.518	33.1813
727.228	32.1253
728.937	31.8292
730.648	32.2821
732.357	32.8755
734.065	33.3682
735.773	32.993
737.483	33.879
739.19	33.6788
740.897	34.1081
742.604	34.1422
744.31	34.2549
746.018	34.5975
747.724	35.1608
749.429	32.9798
751.134	33.4661
752.839	34.0309
754.544	35.5358
756.248	36.2893
757.953	37.6362
759.657	39.7235
761.36	41.0587
763.063	42.6221
764.765	45.2992
766.468	47.0373
768.169	46.9717
769.871	47.6809
771.572	48.7654
773.273	50.3074
774.976	51.3381
776.676	51.7835
778.376	52.9818
780.075	54.8536
781.775	56.8849
783.474	57.6747
785.172	58.9993
786.871	59.9993
788.569	59.37
790.266	59.9523
791.964	60.9945
793.661	62.2813
795.358	61.3762
797.054	61.903
798.75	62.5149
800.446	62.6519
802.141	62.3143
803.834	62.7744
805.529	61.8598
807.224	63.0643
808.918	62.7468
810.612	62.5044
812.305	61.4378
813.998	63.0146
815.691	62.404
817.384	63.089
819.076	63.7158
820.766	63.1756
822.458	64.0171
824.149	64.2822
825.84	66.8975
827.531	67.1929
829.221	68.9329
830.909	69.9143
832.599	70.2573
834.288	71.1021
835.977	74.2511
837.666	76.1978
839.353	79.399
841.041	80.4359
842.729	82.4195
844.416	83.3277
846.103	82.8441
847.788	82.5651
849.475	82.2216
851.161	81.5453
852.845	80.5388
854.53	80.0429
856.216	80.6433
857.901	82.2431
859.583	82.3464
861.268	81.2381
862.952	81.3281
864.633	80.1441
866.317	77.5488
868	74.8643
869.681	71.8121
871.363	70.9147
873.045	69.0995
874.725	68.0221
876.406	65.5274
878.088	63.3644
879.767	60.3297
881.447	59.5106
883.125	58.0128
884.805	55.897
886.483	53.7146
888.162	52.1831
889.841	48.7824
891.518	48.5134
893.196	46.0971
894.872	44.6286
896.55	43.1993
898.225	42.4887
899.902	40.6049
901.577	41.4223
903.254	41.6157
904.928	41.2247
906.604	41.3423
908.277	43.0228
909.952	44.4744
911.625	43.7642
913.3	45.66
914.972	46.1189
916.646	46.8824
918.318	48.2482
919.991	49.6635
921.662	48.7758
923.333	49.1261
925.005	48.3847
926.675	49.5048
928.347	49.8482
930.017	49.257
931.686	49.7831
933.357	48.9193
935.025	49.0083
936.693	48.5634
938.363	49.0681
940.031	50.5156
941.698	51.0474
943.367	49.632
945.034	47.6444
946.7	47.5926
948.368	45.9284
950.034	44.8234
951.699	44.4292
953.367	43.6588
955.031	43.4661
956.696	40.0997
958.36	37.0569
960.026	33.7181
961.689	32.1909
963.353	30.9328
965.016	31.7957
966.68	31.3429
968.343	31.2177
970.005	30.1428
971.666	30.1265
973.328	29.9115
974.991	30.8262
976.652	29.9535
978.312	29.5057
979.972	29.3021
981.632	28.9114
983.292	29.4196
984.953	30.0685
986.612	28.5786
988.27	27.614
989.929	26.8623
991.587	28.23
993.244	27.8571
994.902	28.4364
996.559	29.0022
998.216	28.6391
999.872	27.7731
1001.53	28.5368
1003.19	28.1258
1004.84	28.2981
1006.5	30.4013
1008.15	31.7724
1009.81	33.1995
1011.46	33.665
1013.11	34.4129
1014.77	35.4777
1016.42	36.0551
1018.07	37.6562
1019.73	39.5685
1021.38	41.7109
1023.03	42.7492
1024.68	44.1242
1026.34	44.5084
1027.99	46.7517
1029.64	47.3471
1031.29	47.146
1032.94	47.2574
1034.59	46.1428
1036.24	44.9244
1037.89	43.5196
1039.53	43.4966
1041.18	43.6656
1042.83	43.2291
1044.48	43.6261
1046.13	44.0075
1047.77	43.2273
1049.42	41.8477
1051.07	40.931
1052.71	39.1315
1054.36	38.4304
1056	36.6587
1057.65	35.2351
1059.3	33.8961
1060.94	33.286
1062.59	32.8377
1064.23	32.6826
1065.87	31.7719
1067.52	31.155
1069.16	30.5093
1070.8	29.5079
1072.44	30.4573
1074.09	31.1809
1075.73	30.1521
1077.37	30.4086
1079.01	28.6473
1080.65	28.4252
1082.29	28.9908
1083.93	29.0956
1085.57	28.4923
1087.21	30.2919
1088.85	31.5339
1090.49	31.9883
1092.13	32.3223
1093.77	33.3147
1095.41	34.8206
1097.04	35.7243
1098.68	35.5121
1100.32	36.8088
1101.95	38.619
1103.59	38.774
1105.23	39.7905
1106.86	40.8717
1108.5	40.6648
1110.13	41.1876
1111.77	40.5726
1113.4	39.9254
1115.04	39.7025
1116.67	39.6181
1118.31	38.987
1119.94	38.3709
1121.57	37.7849
1123.2	37.0689
1124.84	36.7847
1126.47	36.6243
1128.1	36.7098
1129.73	36.0138
1131.36	35.681
1132.99	34.701
1134.62	35.6866
1136.25	36.2123
1137.88	35.2737
1139.51	35.6467
1141.14	36.3108
1142.77	36.9193
1144.4	36.3611
1146.03	34.4777
1147.66	33.2028
1149.28	31.756
1150.91	30.7403
1152.54	27.6705
1154.16	27.3266
1155.79	24.7162
1157.42	23.0075
1159.04	21.0209
1160.67	19.2373
1162.29	18.1925
1163.92	16.9157
1165.54	14.6842
1167.17	13.3056
1168.79	13.362
1170.41	12.7382
1172.04	12.0862
1173.66	12.0212
1175.28	13.0382
1176.9	12.9773
1178.53	13.3141
1180.15	12.7412
1181.77	13.675
1183.39	13.527
1185.01	13.8213
1186.63	15.2075
1188.25	15.2926
1189.87	16.7656
1191.49	18.8428
1193.11	20.3017
1194.73	21.5409
1196.35	23.0953
1197.96	25.1024
1199.58	26.9276
1201.2	29.3325
1202.82	31.8059
1204.43	34.0265
1206.05	36.2797
1207.66	38.4817
1209.28	41.1058
1210.9	41.777
1212.51	44.5464
1214.13	47.8648
1215.74	50.9186
1217.36	52.8085
1218.97	54.1486
1220.58	56.4892
1222.2	57.5594
1223.81	58.3281
1225.42	59.6628
1227.04	60.8322
1228.65	63.4261
1230.26	64.6967
1231.87	65.954
1233.48	66.6011
1235.1	69.5009
1236.71	70.4905
1238.32	72.7069
1239.93	74.8345
1241.53	77.6442
1243.14	78.6297
1244.75	80.3176
1246.36	81.1641
1247.97	83.1045
1249.58	86.2935
1251.19	87.3507
1252.8	89.125
1254.4	91.59
1256.01	93.1251
1257.62	94.205
1259.22	96.068
1260.83	96.6612
1262.43	98.2935
1264.04	100.857
1265.64	103.564
1267.25	105.81
1268.85	107.156
1270.46	110.245
1272.06	112.484
1273.66	113.953
1275.27	116.393
1276.87	118.65
1278.48	120.542
1280.08	122.155
1281.68	123.787
1283.28	126.408
1284.88	127.698
1286.48	131.693
1288.08	134.15
1289.68	135.363
1291.28	137.076
1292.88	140.192
1294.48	142.307
1296.08	143.862
1297.68	145.857
1299.28	146.832
1300.88	147.745
1302.48	150.343
1304.07	152.986
1305.67	154.957
1307.27	157.176
1308.87	158.533
1310.46	159.317
1312.06	160.457
1313.65	162.584
1315.25	164.847
1316.85	166.27
1318.44	167.242
1320.03	168.703
1321.63	167.87
1323.22	167.526
1324.82	167.753
1326.41	167.152
1328	167.644
1329.6	167.383
1331.19	166.144
1332.78	165.672
1334.37	164.299
1335.96	162.612
1337.56	162.12
1339.15	161.447
1340.74	159.74
1342.33	158.481
1343.92	157.934
1345.51	156.232
1347.1	155.192
1348.69	153.852
1350.28	153.299
1351.86	151.066
1353.45	149.321
1355.04	147.824
1356.63	145.844
1358.21	143.367
1359.8	141.131
1361.39	138.974
1362.97	137.665
1364.56	135.299
1366.15	134.226
1367.73	130.913
1369.32	128.937
1370.9	127.312
1372.49	124.977
1374.07	120.54
1375.65	120.045
1377.24	117.358
1378.82	114.591
1380.41	112.909
1381.99	112.312
1383.57	109.934
1385.15	107.896
1386.73	107.51
1388.32	105.435
1389.9	104.312
1391.48	103.376
1393.06	103.276
1394.64	101.109
1396.22	100.78
1397.8	99.3918
1399.38	99.7434
1400.96	98.9851
1402.54	100.477
1404.11	101.61
1405.69	102.299
1407.27	103.787
1408.85	105.632
1410.43	108.591
1412	111.955
1413.58	115.292
1415.16	119.508
1416.73	123.562
1418.31	127.871
1419.88	132.535
1421.46	137.479
1423.03	143.896
1424.61	150.282
1426.18	156.551
1427.76	162.146
1429.33	167.896
1430.9	173.514
1432.48	180.088
1434.05	186.587
1435.62	191.245
1437.2	195.892
1438.77	201.019
1440.34	205.294
1441.91	209.85
1443.48	212.209
1445.05	215.029
1446.62	216.852
1448.19	218.601
1449.76	218.763
1451.33	217.91
1452.9	218.293
1454.47	220.646
1456.04	219.569
1457.61	219.907
1459.17	221.082
1460.74	221.45
1462.31	221.462
1463.88	221.678
1465.44	220.429
1467.01	218.908
1468.58	218.619
1470.14	216.178
1471.71	213.844
1473.27	211.057
1474.84	209.026
1476.4	205.255
1477.97	202.51
1479.53	199.888
1481.1	196.442
1482.66	191.167
1484.22	186.758
1485.78	181.701
1487.35	177.668
1488.91	173.259
1490.47	167.462
1492.03	162.238
1493.59	157.663
1495.16	152.642
1496.72	147.998
1498.28	143.773
1499.84	139.548
1501.4	136.354
1502.96	132.378
1504.52	127.862
1506.08	122.731
1507.64	118.042
1509.19	113.907
1510.75	109.263
1512.31	104.52
1513.87	99.0507
1515.42	94.8917
1516.98	91.2604
1518.54	86.5447
1520.1	81.8734
1521.65	77.9607
1523.21	73.6749
1524.76	69.7366
1526.32	67.7116
1527.87	64.3389
1529.43	62.1924
1530.98	62.6119
1532.54	62.6871
1534.09	63.9775
1535.64	64.4222
1537.2	64.2315
1538.75	65.2088
1540.3	65.9768
1541.85	67.1427
1543.41	67.8213
1544.96	69.3819
1546.51	70.1108
1548.06	69.9417
1549.61	72.1978
1551.16	73.1862
1552.71	72.8713
1554.26	73.5742
1555.81	74.5287
1557.36	74.5408
1558.91	74.698
1560.46	75.037
1562.01	75.8678
1563.56	75.5711
1565.1	77.6304
1566.65	78.8679
1568.2	80.6531
1569.75	82.7449
1571.29	84.9732
1572.84	85.972
1574.38	87.8273
1575.93	90.6628
1577.48	92.4985
1579.02	95.6807
1580.57	97.0982
1582.11	99.0183
1583.65	100.652
1585.2	102.71
1586.74	104.892
1588.29	107.795
1589.83	110.048
1591.37	112.017
1592.92	113.385
1594.46	114.162
1596	115.381
1597.54	116.441
1599.08	116.576
1600.62	116.972
1602.16	118.745
1603.7	118.76
1605.24	118.442
1606.78	119.37
1608.32	119.816
1609.86	120.506
1611.4	120.445
1612.94	118.322
1614.48	117.18
1616.02	117.548
1617.56	117.408
1619.09	117.389
1620.63	118.631
1622.17	119.306
1623.71	119.936
1625.24	121.284
1626.78	121.636
1628.31	121.481
1629.85	120.994
1631.39	122.564
1632.92	123.854
1634.46	124.465
1635.99	126.956
1637.52	127.648
1639.06	129.432
1640.59	131.251
1642.12	133.557
1643.66	134.523
1645.19	136.109
1646.72	137.361
1648.25	137.8
1649.79	137.889
1651.32	139.026
1652.85	140.641
1654.38	141.985
1655.91	142.686
1657.44	142.113
1658.97	141.625
1660.5	141.091
1662.03	140.36
1663.56	139.541
1665.09	138.442
1666.62	136.531
1668.15	133.801
1669.67	131.527
1671.2	128.478
1672.73	125.51
1674.26	121.496
1675.79	116.847
1677.31	113.504
1678.84	108.555
1680.36	102.725
1681.89	98.2103
1683.42	92.2556
1684.94	87.0973
1686.47	82.2558
1687.99	75.7655
1689.51	69.4666
1691.04	65.1477
1692.56	61.1111
1694.08	56.7321
1695.61	53.1729
1697.13	49.4654
1698.65	43.9384
1700.18	39.914
1701.7	36.8169
1703.22	33.2103
1704.74	30.4333
1706.26	26.9954
1707.78	24.9856
1709.3	21.7425
1710.82	19.9857
1712.35	18.4673
1713.86	16.3624
1715.39	14.7643
1716.9	12.2007
1718.42	10.4032
1719.94	8.64506
1721.46	7.55598
1722.98	6.59883
1724.5	5.57403
1726.01	5.11659
1727.53	5.80525
1729.05	6.38868
1730.56	6.34609
1732.08	5.06859
1733.6	4.70529
1735.11	4.07274
1736.63	5.24644
1738.14	6.0168
1739.66	5.91445
1741.17	6.95574
1742.69	7.09176
1744.2	6.26649
1745.71	6.50308
1747.23	6.04963
1748.74	6.41419
1750.25	6.96262
1751.77	6.545
1753.28	6.70465
1754.79	6.54145
1756.3	6.33173
1757.81	6.98045
1759.33	7.07643
1760.84	6.95092
1762.35	6.15648
1763.86	5.6388
1765.37	5.52036
1766.88	5.26949
1768.39	5.53816
1769.9	5.35613
1771.41	5.90108
1772.91	6.49629
1774.42	6.22217
1775.93	6.9331
1777.44	7.31353
1778.95	7.15193
1780.45	6.80616
1781.96	7.3342
1783.47	7.40358
1784.97	7.26713
1786.48	7.86052
1787.99	7.47992
1789.49	7.17165
1791	6.18705
1792.5	5.59888
1794.01	4.9907
1795.51	4.88778
1797.01	5.23456
1798.52	5.56455
1800.02	4.94756
1801.52	4.80123
1803.03	5.49841
1804.53	4.95555
1806.03	4.63615
1807.54	4.12492
1809.04	3.66897
1810.54	4.00679
1812.04	4.05433
1813.54	3.44479
1815.04	2.40515
1816.54	2.46868
1818.04	1.38775
1819.54	0.968564
1821.04	0.685683
1822.54	0.284745
1824.04	0.115732
1825.54	-0.751428
1827.04	-0.891382
1828.54	-0.97377
1830.03	-1.39074
1831.53	-1.50148
1833.03	-1.90582
1834.53	-3.01267
1836.02	-3.625
1837.52	-2.96041
1839.02	-2.30471
1840.51	-2.04206
1842.01	-1.0914
1843.5	-0.0461341
1845	-0.0170259
1846.49	0.604329
1847.99	1.41462
1849.48	0.994519
1850.98	1.74841
1852.47	3.03618
1853.96	3.30456
1855.46	4.05695
1856.95	5.41298
1858.44	5.80653
1859.94	6.71229
1861.43	8.08842
1862.92	8.25246
1864.41	8.71606
1865.9	9.20346
1867.39	10.6051
1868.88	12.1493
1870.37	13.7472
1871.86	14.1992
1873.35	13.982
1874.84	14.1273
1876.33	15.5464
1877.82	15.9982
1879.31	15.931
1880.8	15.8993
1882.29	15.9051
1882.58	14.6021
1884.08	14.7258
1885.57	14.434
1887.06	13.9595
1888.56	14.6073
1890.05	13.7625
1891.54	12.7213
1893.04	11.5363
1894.53	10.9114
1896.02	10.0894
1897.51	9.67509
1899	8.72505
1900.5	8.87797
1901.99	7.72792
1903.48	6.29707
1904.97	5.53697
1906.46	5.30838
1907.95	4.78966
1909.44	5.10872
1910.93	5.39843
1912.42	5.08648
1913.91	4.76367
1915.4	5.04815
1916.88	5.13148
1918.37	4.94778
1919.86	4.56293
1921.35	4.61137
1922.84	4.98492
1924.32	5.12732
1925.81	6.16384
1927.3	5.25392
1928.78	5.79373
1930.27	6.48778
1931.75	6.9609
1933.24	7.54698
1934.72	7.74433
1936.21	7.93429
1937.69	9.1673
1939.18	9.17112
1940.66	9.49637
1942.15	9.58929
1943.63	9.00468
1945.11	8.45114
1946.6	8.97853
1948.08	9.72629
1949.56	9.41417
1951.04	8.50785
1952.53	8.49823
1954.01	7.77003
1955.49	7.45588
1956.97	6.18948
1958.45	6.83002
1959.93	6.90052
1961.41	7.00973
1962.89	6.93266
1964.37	6.57433
1965.85	6.89052
1967.33	6.35343
1968.81	6.49828
1970.29	6.2463
1971.77	6.75875
1973.24	6.56531
1974.72	6.45514
1976.2	6.47615
1977.68	6.71416
1979.15	6.31871
1980.63	6.81793
1982.11	7.26407
1983.58	7.69931
1985.06	7.51513
1986.53	8.10139
1988.01	8.36758
1989.48	8.56918
1990.96	8.72958
1992.43	8.1132
1993.91	7.58396
1995.38	7.03175
1996.86	7.22667
1998.33	6.92713
1999.8	7.35623
2001.27	7.79589
2002.75	9.30131
2004.22	9.97226
2005.69	9.96934
2007.16	8.91117
2008.64	8.50975
2010.11	8.84826
2011.58	9.05278
2013.05	7.88578
2014.52	8.41256
2015.99	8.12289
2017.46	8.15446
2018.93	7.43106
2020.4	7.3955
2021.87	6.16556
2023.34	5.53898
2024.8	4.48638
2026.27	3.85418
2027.74	2.73298
2029.21	3.5303
2030.68	4.13234
2032.14	4.59465
2033.61	4.5858
2035.08	4.70207
2036.54	5.79205
2038.01	6.197
2039.48	5.81166
2040.94	6.06447
2042.41	6.6876
2043.87	7.56487
2045.34	8.24224
2046.8	8.44228
2048.27	8.40639
2049.73	9.18766
2051.19	9.56217
2052.66	10.1344
2054.12	11.3129
2055.58	11.2651
2057.05	11.3058
2058.51	12.3458
2059.97	14.0493
2061.43	14.347
2062.9	14.4946
2064.36	14.8014
2065.82	13.7694
2067.28	13.6905
2068.74	14.831
2070.2	15.6867
2071.66	15.8185
2073.12	16.5996
2074.58	16.9952
2076.04	16.6896
2077.5	16.6645
2078.95	17.3237
2080.41	17.6329
2081.87	19.2712
2083.33	20.3608
2084.79	20.6854
2086.24	20.5606
2087.7	20.9093
2089.16	21.3005
2090.61	22.0879
2092.07	21.7353
2093.53	22.4198
2094.98	22.5853
2096.44	22.6953
2097.89	23.1845
2099.35	24.7579
2100.8	26.0191
2102.26	26.8585
2103.71	26.5547
2105.16	26.2957
2106.62	27.1689
2108.07	28.9938
2109.53	30.0713
2110.98	30.2763
2112.43	31.4889
2113.88	33.6609
2115.33	34.2549
2116.79	35.8249
2118.24	37.1556
2119.69	38.6573
2121.14	39.66
2122.59	41.7906
2124.04	43.4505
2125.49	44.7192
2126.94	46.2796
2128.39	48.5376
2129.84	51.235
2131.29	52.9311
