#Acq. time (s)=	45
#Accumulations=	2
#Range (cm-¹)=	200...3150
#Windows=	2
#Auto scanning=	Off
#Autofocus=	Off
#Macrospot=	Off
#AutoExposure=	Off
#Spike filter=	Multiple accum.
#Delay time (s)=	0
#Binning=	1
#Readout mode=	Signal
#DeNoise=	Off
#ICS correction=	On
#Dark correction=	Off
#Inst. Process=	Off
#Detector Gain=	Best Dynamic Range
#Detector ADC=	20 kHz       
#Detector temperature (°C)=	-69.85
#Instrument=	LabRAM HR Evol
#Detector=	Synapse
#Objective=	x100
#Grating=	600 gr/mm
#ND Filter=	100%
#Laser (nm)=	532 
#Hole=	100.021
#Range=	Auto
#Laser Pol.=	No
#Raman. Pol.=	No
#Laser Pol. (°)=	-0.0007625
#Raman Pol. (°)=	89.9995
#Collection=	Microscope
#StageXY=	Marzhauser
#StageZ=	Marzhauser
#X (µm)=	-1207.1
#Y (µm)=	1250.2
#Z (µm)=	578.3
#Full time(mm:ss)=	3:19
#Project=	
#Sample=	
#Site=	
#Title=	Mbcal_20_25_08_2x_45s_532 nm_x100_100%_600 gr_mm
#Remark=	
#Date=	18.07.2022 10:01
#Acquired=	18.07.2022 10:01:07
#Edit:Spike=	18.07.2022 10:04:06
#Edit:Spike=	18.07.2022 10:04:08
#Base:Fit=	10.08.2022 10:55:08
#Base:Sub=	10.08.2022 10:55:14
#Filter:Polynom=	16.08.2022 10:07:28
#AxisType[0]=Intens
#AxisUnit[0]=Cnt
#AxisType[1]=Spectr
#AxisUnit[1]=1/cm
200.419	37.1922
202.234	34.8318
204.048	29.8697
205.862	25.9698
207.678	21.8535
209.491	18.9308
211.304	16.8911
213.116	15.6309
214.928	15.3883
216.742	14.0386
218.554	13.3385
220.365	14.1566
222.176	13.0051
223.986	12.5913
225.798	13.3869
227.608	14.2812
229.417	14.7419
231.226	13.8457
233.035	14.1064
234.843	13.8026
236.653	13.9102
238.46	13.7832
240.268	12.7818
242.074	12.6251
243.881	12.5955
245.687	13.4624
247.493	13.5477
249.298	14.0212
251.103	14.7938
252.908	15.5429
254.715	17.1387
256.519	16.7839
258.322	17.39
260.126	17.6341
261.929	16.8464
263.731	17.4048
265.534	17.6373
267.336	18.1051
269.137	18.1416
270.938	18.7896
272.739	19.5569
274.54	18.6602
276.34	17.6901
278.14	16.1259
279.939	14.7794
281.739	13.8663
283.537	12.3235
285.336	10.686
287.134	10.8343
288.932	10.6276
290.729	9.19122
292.526	8.13904
294.323	8.5544
296.117	8.59475
297.913	10.1477
299.709	9.68336
301.504	10.6485
303.299	10.3199
305.093	10.7723
306.888	10.3071
308.682	11.9672
310.475	13.1833
312.268	12.0283
314.059	12.5207
315.852	13.4852
317.644	13.1709
319.436	13.4616
321.227	13.9382
323.018	14.7016
324.807	14.7117
326.597	14.5704
328.387	14.5269
330.177	14.4585
331.967	15.6993
333.753	16.1091
335.542	16.0894
337.331	15.4882
339.119	16.1985
340.906	16.5224
342.691	16.3854
344.478	16.712
346.265	16.6948
348.051	16.9656
349.835	15.498
351.621	15.8787
353.406	15.4193
355.189	15.0252
356.973	14.5307
358.757	13.2151
360.541	12.392
362.323	10.567
364.106	9.44539
365.889	8.79838
367.669	7.57887
369.451	6.72747
371.233	5.16085
373.012	3.49119
374.793	3.79016
376.574	4.96601
378.353	4.94869
380.133	5.93196
381.91	5.36787
383.69	5.88823
385.469	6.87587
387.245	7.87333
389.024	8.2709
390.8	8.89535
392.577	8.99646
394.353	10.8827
396.129	12.1064
397.906	12.1352
399.68	12.347
401.456	12.3916
403.23	12.676
405.005	14.3463
406.778	15.183
408.552	16.7515
410.325	17.2779
412.099	16.8155
413.87	17.0725
415.643	17.6034
417.414	18.7098
419.187	18.9191
420.957	18.452
422.728	17.4636
424.498	17.2292
426.269	17.2665
428.038	17.7614
429.806	18.0357
431.576	17.1531
433.344	16.4282
435.114	14.6052
436.881	13.1265
438.649	13.5132
440.416	12.8263
442.182	11.2083
443.949	10.996
445.715	9.76474
447.48	8.97811
449.247	8.63389
451.011	8.51104
452.777	7.86551
454.541	6.60851
456.304	5.43362
458.069	4.70312
459.832	3.7505
461.594	3.85464
463.358	4.9668
465.119	4.35795
466.881	5.2536
468.642	5.56984
470.404	4.8851
472.165	6.2285
473.925	6.92255
475.684	6.79701
477.445	7.29233
479.204	6.66129
480.963	7.19525
482.721	9.31574
484.481	9.78315
486.239	9.07077
487.996	10.9142
489.753	10.8552
491.511	11.3291
493.268	12.4147
495.023	13.8547
496.779	14.2609
498.534	15.3548
500.289	16.4005
502.046	18.3704
503.8	19.2663
505.554	20.3095
507.307	20.5533
509.06	21.6206
510.813	22.672
512.566	23.7918
514.32	25.5175
516.072	26.4752
517.823	27.0739
519.574	27.2769
521.325	28.0922
523.076	29.1884
524.826	31.6545
526.576	32.6679
528.325	32.1885
530.074	32.4528
531.823	33.5379
533.572	32.89
535.32	31.5677
537.068	30.9754
538.815	30.6023
540.562	29.2113
542.309	28.1795
544.056	27.8234
545.802	27.1056
547.547	26.08
549.293	26.2174
551.038	26.0821
552.783	25.0179
554.527	24.0238
556.271	22.5615
558.015	21.8742
559.759	21.3687
561.502	19.8688
563.245	18.2254
564.987	18.0494
566.729	16.8987
568.471	17.4421
570.213	16.2215
571.954	14.4514
573.693	13.0097
575.433	11.8599
577.173	10.098
578.913	9.79511
580.652	9.26426
582.392	9.70664
584.13	7.7534
585.867	7.73776
587.605	7.27414
589.343	7.22149
591.08	6.32532
592.817	5.89411
594.552	5.61155
596.289	4.96739
598.025	4.98156
599.761	3.86989
601.496	4.77695
603.229	4.23972
604.964	4.49526
606.699	4.62039
608.433	5.0636
610.165	4.41685
611.898	4.35515
613.631	3.98507
615.364	2.48398
617.095	1.44575
618.827	0.336774
620.559	-0.241596
622.288	-0.638984
624.02	0.639212
625.75	0.252664
627.479	0.357849
629.209	1.14423
630.939	2.25526
632.667	2.01909
634.396	2.26797
636.125	2.69106
637.851	3.68512
639.58	4.17997
641.305	4.28522
643.033	5.45229
644.76	6.15282
646.485	6.25761
648.212	6.3561
649.936	7.57146
651.662	7.78047
653.388	7.94685
655.111	8.45786
656.836	7.97748
658.558	10.5058
660.283	9.92341
662.005	10.0705
663.728	10.8139
665.45	11.3068
667.173	10.4519
668.893	10.884
670.616	12.5007
672.336	13.5084
674.057	14.6038
675.777	14.7465
677.498	14.4833
679.216	14.5842
680.937	16.4284
682.655	15.8325
684.375	16.9668
686.092	16.2057
687.809	18.1392
689.528	17.0581
691.244	17.5426
692.962	18.2044
694.678	17.5116
696.393	15.6611
698.111	14.4164
699.825	15.0421
701.54	14.9226
703.256	16.2914
704.97	17.0383
706.685	18.3637
708.398	18.8646
710.111	20.1748
711.826	19.9116
713.538	20.6131
715.25	19.2074
716.961	20.4876
718.675	18.8646
720.386	20.1348
722.096	20.4411
723.808	21.2366
725.518	20.5328
727.228	19.4431
728.937	20.4126
730.648	20.4868
732.357	19.771
734.065	19.6969
735.773	19.4466
737.483	19.7977
739.19	21.4294
740.897	21.9125
742.604	23.3232
744.31	24.5162
746.018	24.1551
747.724	26.7099
749.429	27.7965
751.134	29.6878
752.839	31.5564
754.544	34.4739
756.248	35.6079
757.953	35.8438
759.657	37.9055
761.36	38.2417
763.063	40.6809
764.765	42.5223
766.468	43.9391
768.169	43.9279
769.871	45.2617
771.572	46.5803
773.273	47.888
774.976	49.1739
776.676	51.5286
778.376	51.0913
780.075	50.3719
781.775	51.2185
783.474	52.4
785.172	54.8583
786.871	54.7717
788.569	53.9547
790.266	54.5976
791.964	56.088
793.661	56.135
795.358	56.2836
797.054	56.711
798.75	56.6207
800.446	56.9328
802.141	57.5318
803.834	57.0298
805.529	57.4751
807.224	56.3587
808.918	54.8725
810.612	53.6035
812.305	52.3755
813.998	52.5584
815.691	49.8629
817.384	48.6207
819.076	48.2718
820.766	47.7648
822.458	49.4768
824.149	50.4804
825.84	51.2495
827.531	53.6535
829.221	56.1212
830.909	59.0599
832.599	60.8759
834.288	62.2052
835.977	64.6221
837.666	66.52
839.353	69.1329
841.041	70.0659
842.729	71.542
844.416	72.5743
846.103	73.4969
847.788	75.9113
849.475	77.0411
851.161	78.466
852.845	79.62
854.53	80.1975
856.216	79.8671
857.901	79.236
859.583	78.3185
861.268	75.7654
862.952	72.3854
864.633	71.0193
866.317	70.9726
868	69.018
869.681	67.517
871.363	65.2183
873.045	63.1742
874.725	62.4994
876.406	59.7236
878.088	56.6222
879.767	53.5129
881.447	50.8022
883.125	47.2172
884.805	43.1946
886.483	39.873
888.162	36.8453
889.841	33.4113
891.518	31.1939
893.196	27.578
894.872	25.3116
896.55	23.1542
898.225	20.9132
899.902	19.4933
901.577	19.2455
903.254	18.9425
904.928	20.1473
906.604	20.4195
908.277	20.3625
909.952	21.3362
911.625	22.4525
913.3	24.4015
914.972	25.2144
916.646	25.2978
918.318	27.4097
919.991	27.8528
921.662	29.3566
923.333	29.4339
925.005	28.7377
926.675	28.9056
928.347	29.234
930.017	29.7288
931.686	30.4737
933.357	29.2231
935.025	28.437
936.693	27.0782
938.363	26.1907
940.031	25.6912
941.698	26.0361
943.367	25.4548
945.034	24.7798
946.7	25.0176
948.368	26.1885
950.034	27.115
951.699	25.5429
953.367	25.3916
955.031	23.9106
956.696	23.8832
958.36	22.7365
960.026	19.9168
961.689	19.348
963.353	18.6188
965.016	19.2975
966.68	19.7671
968.343	19.7914
970.005	21.7238
971.666	22.5604
973.328	24.5453
974.991	24.4567
976.652	23.8056
978.312	24.2133
979.972	24.0954
981.632	23.1613
983.292	23.4316
984.953	22.599
986.612	21.6342
988.27	22.0853
989.929	21.4239
991.587	22.408
993.244	23.7442
994.902	23.8376
996.559	24.6637
998.216	24.0809
999.872	22.4997
1001.53	21.8611
1003.19	19.8879
1004.84	18.3032
1006.5	16.5179
1008.15	16.1818
1009.81	16.301
1011.46	16.457
1013.11	17.3776
1014.77	18.2657
1016.42	18.5243
1018.07	18.9512
1019.73	20.2089
1021.38	21.4367
1023.03	23.9622
1024.68	24.3918
1026.34	25.064
1027.99	24.6311
1029.64	25.6379
1031.29	26.4741
1032.94	27.1702
1034.59	27.0518
1036.24	27.3454
1037.89	27.2475
1039.53	27.4546
1041.18	26.6875
1042.83	27.4471
1044.48	29.7602
1046.13	30.2314
1047.77	31.7031
1049.42	33.0931
1051.07	33.6644
1052.71	35.1081
1054.36	34.9897
1056	34.4524
1057.65	32.7909
1059.3	32.2553
1060.94	31.2876
1062.59	30.6369
1064.23	29.8763
1065.87	29.3705
1067.52	28.3876
1069.16	28.1543
1070.8	29.1123
1072.44	28.8224
1074.09	28.3978
1075.73	27.7938
1077.37	26.1462
1079.01	25.5001
1080.65	23.7275
1082.29	21.9893
1083.93	21.3476
1085.57	20.2414
1087.21	19.7066
1088.85	21.0026
1090.49	21.3721
1092.13	22.5198
1093.77	21.5045
1095.41	22.0493
1097.04	21.7991
1098.68	21.2272
1100.32	20.866
1101.95	22.6705
1103.59	22.8061
1105.23	23.7778
1106.86	22.0363
1108.5	21.7985
1110.13	19.9763
1111.77	21.0208
1113.4	21.4571
1115.04	19.8874
1116.67	20.3186
1118.31	20.684
1119.94	19.8244
1121.57	18.6006
1123.2	18.6927
1124.84	18.5692
1126.47	19.1969
1128.1	18.0507
1129.73	18.3064
1131.36	18.0895
1132.99	16.7763
1134.62	15.4102
1136.25	14.4402
1137.88	13.2676
1139.51	13.2242
1141.14	12.8544
1142.77	11.4828
1144.4	10.9148
1146.03	11.0752
1147.66	9.81104
1149.28	9.23418
1150.91	9.36875
1152.54	7.98164
1154.16	7.87186
1155.79	6.69478
1157.42	6.1248
1159.04	5.90085
1160.67	4.82058
1162.29	2.73707
1163.92	2.48721
1165.54	1.731
1167.17	1.16896
1168.79	1.25644
1170.41	1.52252
1172.04	1.46527
1173.66	2.67028
1175.28	1.51675
1176.9	2.76248
1178.53	2.46492
1180.15	3.61303
1181.77	5.39866
1183.39	6.6805
1185.01	7.47446
1186.63	7.64402
1188.25	6.9734
1189.87	7.78862
1191.49	7.1611
1193.11	9.18916
1194.73	8.52911
1196.35	9.21076
1197.96	10.8514
1199.58	10.8989
1201.2	10.4426
1202.82	13.0064
1204.43	14.5617
1206.05	15.7473
1207.66	17.648
1209.28	16.4892
1210.9	18.1742
1212.51	20.1572
1214.13	21.5126
1215.74	23.9778
1217.36	26.2702
1218.97	27.0086
1220.58	29.1407
1222.2	29.6731
1223.81	31.2085
1225.42	32.6925
1227.04	33.7129
1228.65	34.2041
1230.26	36.0285
1231.87	39.4325
1233.48	40.061
1235.1	43.0691
1236.71	44.1989
1238.32	47.3715
1239.93	49.2655
1241.53	50.6416
1243.14	53.015
1244.75	55.3228
1246.36	57.1164
1247.97	59.7201
1249.58	60.8935
1251.19	62.8377
1252.8	64.6934
1254.4	67.7018
1256.01	67.9041
1257.62	69.7238
1259.22	70.5332
1260.83	73.226
1262.43	74.424
1264.04	74.4682
1265.64	74.4952
1267.25	73.8687
1268.85	73.9417
1270.46	75.753
1272.06	75.642
1273.66	76.9879
1275.27	77.4655
1276.87	79.604
1278.48	80.6967
1280.08	81.4001
1281.68	82.3027
1283.28	84.5927
1284.88	84.5858
1286.48	86.0703
1288.08	86.9534
1289.68	87.5505
1291.28	90.7188
1292.88	91.388
1294.48	92.0409
1296.08	93.4897
1297.68	92.881
1299.28	93.268
1300.88	94.8752
1302.48	96.2556
1304.07	97.7253
1305.67	99.0783
1307.27	101.903
1308.87	104.686
1310.46	105.335
1312.06	108.284
1313.65	109.225
1315.25	111.879
1316.85	113.168
1318.44	114.919
1320.03	116.268
1321.63	116.405
1323.22	117.658
1324.82	117.792
1326.41	119.061
1328	119.517
1329.6	119.124
1331.19	119.536
1332.78	119.505
1334.37	119.339
1335.96	117.274
1337.56	116.859
1339.15	116.59
1340.74	115.552
1342.33	114.931
1343.92	112.683
1345.51	111.445
1347.1	110.225
1348.69	109.805
1350.28	109.058
1351.86	107.013
1353.45	106.086
1355.04	104.614
1356.63	103.182
1358.21	102.879
1359.8	100.844
1361.39	100.852
1362.97	99.6567
1364.56	97.3325
1366.15	95.6817
1367.73	93.5054
1369.32	91.8139
1370.9	90.4304
1372.49	88.2395
1374.07	87.1244
1375.65	85.7688
1377.24	83.1212
1378.82	82.6859
1380.41	82.6466
1381.99	81.9879
1383.57	79.7113
1385.15	79.2279
1386.73	77.8817
1388.32	76.784
1389.9	73.902
1391.48	74.8201
1393.06	74.2277
1394.64	73.8198
1396.22	73.5642
1397.8	72.8427
1399.38	73.2805
1400.96	73.5613
1402.54	74.8739
1404.11	76.2081
1405.69	78.5853
1407.27	79.4076
1408.85	81.2784
1410.43	83.7718
1412	87.3239
1413.58	90.2951
1415.16	92.5193
1416.73	95.5201
1418.31	99.2998
1419.88	102.272
1421.46	106.502
1423.03	108.562
1424.61	112.807
1426.18	118.117
1427.76	123.028
1429.33	127.838
1430.9	132.477
1432.48	136.403
1434.05	140.385
1435.62	144.575
1437.2	148.499
1438.77	150.444
1440.34	153.799
1441.91	155.694
1443.48	157.133
1445.05	158.441
1446.62	159.594
1448.19	160.489
1449.76	161.925
1451.33	161.706
1452.9	160.603
1454.47	160.141
1456.04	159.127
1457.61	157.448
1459.17	156.846
1460.74	154.552
1462.31	152.469
1463.88	151.105
1465.44	148.975
1467.01	146.562
1468.58	143.92
1470.14	143.263
1471.71	141.313
1473.27	137.399
1474.84	134.373
1476.4	130.584
1477.97	128.862
1479.53	126.568
1481.1	123.197
1482.66	120.453
1484.22	118.006
1485.78	114.092
1487.35	110.964
1488.91	107.062
1490.47	103.037
1492.03	98.5078
1493.59	94.529
1495.16	91.3541
1496.72	88.4554
1498.28	84.5247
1499.84	81.4576
1501.4	78.4476
1502.96	75.9338
1504.52	74.3392
1506.08	70.0987
1507.64	67.1148
1509.19	64.2846
1510.75	61.182
1512.31	58.36
1513.87	55.3828
1515.42	49.9899
1516.98	47.1921
1518.54	44.9329
1520.1	42.9688
1521.65	41.9904
1523.21	41.1083
1524.76	41.2295
1526.32	40.696
1527.87	42.0305
1529.43	41.4792
1530.98	41.9146
1532.54	42.9408
1534.09	43.3139
1535.64	44.0578
1537.2	46.4273
1538.75	46.9267
1540.3	47.5217
1541.85	50.037
1543.41	52.3192
1544.96	54.5473
1546.51	57.5074
1548.06	59.7257
1549.61	60.7731
1551.16	61.55
1552.71	63.8992
1554.26	64.7831
1555.81	67.1672
1557.36	68.1339
1558.91	68.426
1560.46	69.4581
1562.01	70.6238
1563.56	69.7957
1565.1	69.9727
1566.65	70.2466
1568.2	71.4486
1569.75	72.6087
1571.29	73.9224
1572.84	74.3691
1574.38	75.2274
1575.93	75.9505
1577.48	77.9689
1579.02	78.4606
1580.57	79.1406
1582.11	79.8624
1583.65	79.6544
1585.2	81.0222
1586.74	80.7735
1588.29	80.0951
1589.83	80.0208
1591.37	79.9057
1592.92	79.8434
1594.46	82.744
1596	82.9298
1597.54	83.5116
1599.08	83.1789
1600.62	82.1639
1602.16	82.6295
1603.7	81.9016
1605.24	82.6842
1606.78	80.9094
1608.32	80.6264
1609.86	80.7841
1611.4	81.0769
1612.94	80.4962
1614.48	80.5
1616.02	80.0436
1617.56	79.3489
1619.09	81.0226
1620.63	81.1957
1622.17	81.1453
1623.71	81.4344
1625.24	81.9696
1626.78	81.3641
1628.31	81.7035
1629.85	81.5623
1631.39	82.0101
1632.92	82.9934
1634.46	82.7022
1635.99	82.2069
1637.52	82.3174
1639.06	82.8837
1640.59	83.3515
1642.12	84.5072
1643.66	85.3459
1645.19	87.1877
1646.72	87.1485
1648.25	87.6049
1649.79	88.2477
1651.32	89.3918
1652.85	90.3467
1654.38	90.5347
1655.91	90.4078
1657.44	90.4875
1658.97	90.304
1660.5	89.2931
1662.03	88.1748
1663.56	87.4595
1665.09	85.7395
1666.62	83.2917
1668.15	80.3159
1669.67	77.6267
1671.2	74.5937
1672.73	72.0455
1674.26	69.7344
1675.79	67.6144
1677.31	63.9156
1678.84	61.4034
1680.36	58.9075
1681.89	56.5768
1683.42	53.6096
1684.94	50.9783
1686.47	48.284
1687.99	44.89
1689.51	41.5332
1691.04	39.6372
1692.56	36.5506
1694.08	34.2741
1695.61	32.8902
1697.13	30.825
1698.65	28.437
1700.18	25.5226
1701.7	23.4106
1703.22	20.5132
1704.74	18.4793
1706.26	17.1819
1707.78	15.9181
1709.3	13.648
1710.82	11.7324
1712.35	9.66856
1713.86	9.01954
1715.39	8.59305
1716.9	7.64541
1718.42	6.61672
1719.94	6.04139
1721.46	5.4054
1722.98	3.8338
1724.5	3.99804
1726.01	4.59029
1727.53	4.0467
1729.05	3.69241
1730.56	4.04099
1732.08	4.19888
1733.6	4.00103
1735.11	3.50217
1736.63	3.12293
1738.14	3.36577
1739.66	3.46034
1741.17	2.33792
1742.69	1.93961
1744.2	1.4011
1745.71	1.92028
1747.23	2.21134
1748.74	2.89412
1750.25	2.13091
1751.77	1.66081
1753.28	0.669664
1754.79	1.78539
1756.3	2.36956
1757.81	2.22427
1759.33	2.26091
1760.84	1.83728
1762.35	2.34519
1763.86	2.43789
1765.37	2.65541
1766.88	2.25793
1768.39	1.40047
1769.9	1.86639
1771.41	1.50582
1772.91	1.279
1774.42	0.660507
1775.93	0.34853
1777.44	1.59521
1778.95	1.52618
1780.45	1.96814
1781.96	2.57959
1783.47	2.00603
1784.97	2.21962
1786.48	2.29724
1787.99	0.851889
1789.49	1.22248
1791	1.32941
1792.5	1.48531
1794.01	1.39061
1795.51	1.86424
1797.01	1.71501
1798.52	1.84452
1800.02	2.59062
1801.52	2.88332
1803.03	2.53124
1804.53	2.79563
1806.03	3.52661
1807.54	3.3558
1809.04	3.52449
1810.54	3.24341
1812.04	3.95391
1813.54	4.21727
1815.04	4.55312
1816.54	4.74494
1818.04	4.30226
1819.54	4.17561
1821.04	4.27626
1822.54	4.5809
1824.04	4.52527
1825.54	3.58698
1827.04	3.99867
1828.54	4.22218
1830.03	4.40214
1831.53	4.98788
1833.03	4.40346
1834.53	4.39311
1836.02	4.55138
1837.52	4.98624
1839.02	5.19334
1840.51	5.40784
1842.01	5.67763
1843.5	6.01599
1845	6.91969
1846.49	6.91697
1847.99	7.42507
1849.48	7.32331
1850.98	7.81023
1852.47	8.11024
1853.96	7.92577
1855.46	7.09459
1856.95	6.0726
1858.44	5.75773
1859.94	5.41027
1861.43	4.33604
1862.92	3.50408
1864.41	4.55877
1865.9	4.95338
1867.39	5.00003
1868.88	4.86019
1870.37	5.37621
1871.86	5.27754
1873.35	4.70507
1874.84	4.21725
1876.33	3.66294
1877.82	3.52067
1879.31	3.72641
1880.8	4.84189
1882.29	4.7975
1882.58	4.64315
1884.08	4.8035
1885.57	5.12748
1887.06	5.70789
1888.56	6.13261
1890.05	6.41303
1891.54	6.0605
1893.04	5.86083
1894.53	5.62929
1896.02	6.02526
1897.51	6.15322
1899	5.83446
1900.5	5.88282
1901.99	5.45549
1903.48	6.1316
1904.97	6.12959
1906.46	5.01108
1907.95	5.83547
1909.44	6.00545
1910.93	6.99514
1912.42	7.35585
1913.91	7.31565
1915.4	7.81889
1916.88	8.29342
1918.37	8.16198
1919.86	7.48157
1921.35	7.18689
1922.84	6.82852
1924.32	7.27788
1925.81	6.60773
1927.3	5.39113
1928.78	4.90518
1930.27	4.9956
1931.75	5.45084
1933.24	4.83099
1934.72	4.20496
1936.21	3.79588
1937.69	5.05512
1939.18	5.00255
1940.66	4.1437
1942.15	4.27184
1943.63	4.37603
1945.11	3.95529
1946.6	3.93625
1948.08	4.21065
1949.56	5.5066
1951.04	5.613
1952.53	5.75002
1954.01	6.30831
1955.49	6.04727
1956.97	6.16547
1958.45	6.00804
1959.93	6.09666
1961.41	6.97492
1962.89	6.80688
1964.37	6.24481
1965.85	6.30494
1967.33	6.24223
1968.81	7.04934
1970.29	7.13401
1971.77	7.66143
1973.24	7.0168
1974.72	6.93472
1976.2	7.25215
1977.68	7.75296
1979.15	7.37424
1980.63	7.86698
1982.11	8.0448
1983.58	8.85924
1985.06	9.49042
1986.53	8.07029
1988.01	7.81519
1989.48	7.6446
1990.96	6.93103
1992.43	6.12822
1993.91	6.32815
1995.38	7.11989
1996.86	7.61406
1998.33	6.59091
1999.8	5.95161
2001.27	5.53734
2002.75	5.56117
2004.22	4.83589
2005.69	4.70087
2007.16	3.93786
2008.64	3.7461
2010.11	3.54139
2011.58	3.99274
2013.05	2.89595
2014.52	2.75529
2015.99	3.48383
2017.46	3.45603
2018.93	3.26275
2020.4	3.84465
2021.87	4.11377
2023.34	4.70899
2024.8	3.79042
2026.27	4.27059
2027.74	4.51843
2029.21	4.78098
2030.68	5.16255
2032.14	5.8156
2033.61	6.75262
2035.08	8.83101
2036.54	9.08139
2038.01	10.0915
2039.48	10.7411
2040.94	11.203
2042.41	11.8384
2043.87	11.476
2045.34	12.3467
2046.8	12.2402
2048.27	12.8644
2049.73	13.6534
2051.19	13.942
2052.66	14.3684
2054.12	14.5011
2055.58	13.8425
2057.05	14.0728
2058.51	13.24
2059.97	13.0245
2061.43	13.9428
2062.9	14.3865
2064.36	15.7567
2065.82	16.1994
2067.28	16.8749
2068.74	16.6945
2070.2	16.8027
2071.66	15.4726
2073.12	15.7622
2074.58	16.1818
2076.04	15.865
2077.5	15.5188
2078.95	15.685
2080.41	15.7973
2081.87	16.0585
2083.33	15.6681
2084.79	16.5663
2086.24	16.7051
2087.7	17.1491
2089.16	17.4836
2090.61	17.5379
2092.07	17.8568
2093.53	19.1186
2094.98	19.2607
2096.44	20.2431
2097.89	20.6426
2099.35	21.7572
2100.8	22.1028
2102.26	23.3537
2103.71	24.4081
2105.16	25.4223
2106.62	26.2117
2108.07	26.7707
2109.53	27.025
2110.98	27.7698
2112.43	27.1889
2113.88	27.9193
2115.33	28.3506
2116.79	28.4717
2118.24	29.2581
2119.69	30.4254
2121.14	30.963
2122.59	31.9729
2124.04	32.6721
2125.49	34.2767
2126.94	34.8064
2128.39	35.7655
