#Acq. time (s)=	45
#Accumulations=	2
#Range (cm-¹)=	200...3150
#Windows=	2
#Auto scanning=	Off
#Autofocus=	Off
#Macrospot=	Off
#AutoExposure=	Off
#Spike filter=	Multiple accum.
#Delay time (s)=	0
#Binning=	1
#Readout mode=	Signal
#DeNoise=	Off
#ICS correction=	On
#Dark correction=	Off
#Inst. Process=	Off
#Detector Gain=	Best Dynamic Range
#Detector ADC=	20 kHz       
#Detector temperature (°C)=	-69.85
#Instrument=	LabRAM HR Evol
#Detector=	Synapse
#Objective=	x100
#Grating=	600 gr/mm
#ND Filter=	100%
#Laser (nm)=	532 
#Hole=	100.021
#Range=	Auto
#Laser Pol.=	No
#Raman. Pol.=	No
#Laser Pol. (°)=	-0.0007625
#Raman Pol. (°)=	89.9995
#Collection=	Microscope
#StageXY=	Marzhauser
#StageZ=	Marzhauser
#X (µm)=	-1116.2
#Y (µm)=	1274.4
#Z (µm)=	578.55
#Full time(mm:ss)=	3:18
#Project=	
#Sample=	
#Site=	
#Title=	Mbcal_20_25_39_2x_45s_532 nm_x100_100%_600 gr_mm
#Remark=	
#Date=	18.07.2022 13:10
#Acquired=	18.07.2022 13:10:36
#Base:Fit=	10.08.2022 10:55:08
#Base:Sub=	10.08.2022 10:55:14
#Filter:Polynom=	16.08.2022 10:07:28
#AxisType[0]=Intens
#AxisUnit[0]=Cnt
#AxisType[1]=Spectr
#AxisUnit[1]=1/cm
200.419	10.4474
202.234	11.0043
204.048	9.83112
205.862	8.8433
207.678	7.73702
209.491	6.54131
211.304	5.31207
213.116	4.82478
214.928	4.2344
216.742	3.58303
218.554	2.8946
220.365	3.31908
222.176	3.64903
223.986	3.40039
225.798	3.94595
227.608	6.05438
229.417	6.35085
231.226	7.21926
233.035	7.96282
234.843	8.49723
236.653	10.1142
238.46	11.0957
240.268	11.5311
242.074	13.03
243.881	13.9806
245.687	14.5149
247.493	14.8296
249.298	15.5718
251.103	16.0374
252.908	17.3907
254.715	17.2423
256.519	18.7182
258.322	19.0841
260.126	20.4747
261.929	21.7594
263.731	22.2309
265.534	21.785
267.336	21.785
269.137	23.1584
270.938	23.3315
272.739	22.662
274.54	21.9015
276.34	22.8381
278.14	21.8309
279.939	20.65
281.739	19.122
283.537	18.1948
285.336	17.9221
287.134	18.5637
288.932	17.8483
290.729	17.0979
292.526	17.0704
294.323	16.6073
296.117	16.5514
297.913	17.3249
299.709	18.1275
301.504	18.9977
303.299	19.4334
305.093	18.6697
306.888	19.4538
308.682	20.7981
310.475	20.9772
312.268	21.0804
314.059	22.6136
315.852	24.622
317.644	26.2768
319.436	26.2317
321.227	27.3508
323.018	28.5575
324.807	29.7009
326.597	30.7736
328.387	30.4338
330.177	30.1972
331.967	30.6945
333.753	30.6248
335.542	28.845
337.331	28.5673
339.119	28.0649
340.906	27.0193
342.691	25.8791
344.478	24.609
346.265	24.5167
348.051	23.1344
349.835	22.8751
351.621	21.9282
353.406	19.9071
355.189	19.5593
356.973	19.6224
358.757	19.5864
360.541	18.4327
362.323	17.8218
364.106	18.1443
365.889	17.1755
367.669	15.9891
369.451	15.6764
371.233	15.9018
373.012	15.947
374.793	15.5081
376.574	15.0963
378.353	14.8
380.133	14.7148
381.91	15.5602
383.69	16.008
385.469	16.9661
387.245	17.5438
389.024	17.4716
390.8	17.8952
392.577	17.4659
394.353	18.446
396.129	19.5313
397.906	20.463
399.68	19.9679
401.456	21.5533
403.23	23.2315
405.005	23.6736
406.778	23.3711
408.552	23.5084
410.325	24.9226
412.099	26.053
413.87	25.2767
415.643	24.497
417.414	23.7948
419.187	23.6545
420.957	23.6637
422.728	23.0945
424.498	21.239
426.269	22.205
428.038	21.1515
429.806	20.0626
431.576	19.287
433.344	19.2828
435.114	19.1521
436.881	18.3518
438.649	17.5758
440.416	17.9334
442.182	17.4841
443.949	17.9644
445.715	17.7966
447.48	17.6672
449.247	17.1124
451.011	16.1554
452.777	16.6394
454.541	16.1625
456.304	16.3552
458.069	16.3261
459.832	17.5484
461.594	17.9325
463.358	18.4312
465.119	19.0958
466.881	20.0599
468.642	20.4904
470.404	22.2243
472.165	22.915
473.925	22.7573
475.684	23.4928
477.445	24.4363
479.204	25.1375
480.963	26.0255
482.721	26.7933
484.481	27.9602
486.239	28.6615
487.996	28.9589
489.753	30.1109
491.511	30.7301
493.268	31.368
495.023	32.0567
496.779	33.2262
498.534	33.7684
500.289	33.4436
502.046	32.4759
503.8	32.7302
505.554	32.4814
507.307	32.5385
509.06	33.0808
510.813	33.5705
512.566	34.1536
514.32	35.2877
516.072	35.1542
517.823	34.897
519.574	35.6481
521.325	36.1572
523.076	36.8813
524.826	36.6813
526.576	36.417
528.325	36.8939
530.074	35.8669
531.823	35.984
533.572	36.3653
535.32	36.2645
537.068	37.2165
538.815	37.4043
540.562	39.2335
542.309	38.3821
544.056	38.0166
545.802	37.5379
547.547	37.3217
549.293	36.6813
551.038	35.9176
552.783	35.0839
554.527	34.5399
556.271	34.1326
558.015	33.5396
559.759	31.1414
561.502	30.2094
563.245	29.3948
564.987	28.3089
566.729	26.1919
568.471	24.9162
570.213	22.5419
571.954	21.1291
573.693	18.528
575.433	16.6742
577.173	15.3489
578.913	13.8102
580.652	12.1085
582.392	10.3914
584.13	8.19122
585.867	7.41689
587.605	5.60313
589.343	4.32238
591.08	3.77416
592.817	3.38534
594.552	3.41656
596.289	3.69105
598.025	3.17795
599.761	2.93496
601.496	2.64867
603.229	2.04881
604.964	1.88429
606.699	2.61346
608.433	2.35015
610.165	2.49198
611.898	1.88966
613.631	2.21319
615.364	3.45497
617.095	3.59542
618.827	4.2639
620.559	5.50793
622.288	6.30683
624.02	6.95277
625.75	7.38735
627.479	7.83244
629.209	7.64122
630.939	8.46579
632.667	9.54798
634.396	10.9903
636.125	13.0144
637.851	12.8349
639.58	13.3994
641.305	14.4911
643.033	15.0952
644.76	15.2178
646.485	16.6417
648.212	17.5944
649.936	17.5444
651.662	17.711
653.388	18.1079
655.111	18.8409
656.836	18.7128
658.558	19.7643
660.283	20.4738
662.005	20.8267
663.728	22.0214
665.45	20.8945
667.173	20.5194
668.893	20.7507
670.616	20.8332
672.336	21.05
674.057	20.1071
675.777	20.0888
677.498	20.4751
679.216	20.5162
680.937	20.8285
682.655	20.8076
684.375	21.506
686.092	21.3789
687.809	22.715
689.528	21.7886
691.244	22.5475
692.962	23.0242
694.678	22.0205
696.393	23.6006
698.111	25.1775
699.825	25.4025
701.54	25.8504
703.256	25.1813
704.97	26.4696
706.685	26.1463
708.398	26.1336
710.111	26.3613
711.826	26.8423
713.538	27.7281
715.25	28.2925
716.961	29.0515
718.675	29.7342
720.386	29.5856
722.096	30.5179
723.808	30.54
725.518	31.1227
727.228	31.5089
728.937	32.3711
730.648	33.1979
732.357	33.3545
734.065	32.5744
735.773	33.9073
737.483	35.0327
739.19	36.1963
740.897	37.2395
742.604	38.3954
744.31	39.4523
746.018	40.9367
747.724	41.469
749.429	42.3147
751.134	42.96
752.839	45.1577
754.544	46.5492
756.248	47.3194
757.953	48.0966
759.657	49.7702
761.36	51.188
763.063	53.0678
764.765	54.6386
766.468	55.5879
768.169	56.4742
769.871	58.1599
771.572	58.6682
773.273	60.8921
774.976	60.9815
776.676	63.0233
778.376	63.7435
780.075	64.6872
781.775	67.4633
783.474	68.229
785.172	68.1738
786.871	69.2841
788.569	69.1971
790.266	69.8311
791.964	69.772
793.661	71.3742
795.358	72.0286
797.054	72.6416
798.75	72.5477
800.446	72.5235
802.141	72.8934
803.834	72.6949
805.529	73.2319
807.224	73.7612
808.918	73.1636
810.612	73.2446
812.305	72.7381
813.998	72.2385
815.691	71.2928
817.384	70.2793
819.076	70.7961
820.766	70.9222
822.458	70.6073
824.149	70.8689
825.84	71.4363
827.531	71.6423
829.221	72.9383
830.909	74.5038
832.599	75.7317
834.288	77.294
835.977	79.6866
837.666	81.2627
839.353	82.9701
841.041	84.633
842.729	86.3016
844.416	87.9871
846.103	88.4118
847.788	88.6057
849.475	89.5507
851.161	88.6967
852.845	89.2893
854.53	89.141
856.216	89.3149
857.901	89.948
859.583	90.0009
861.268	90.2559
862.952	89.9242
864.633	89.544
866.317	89.8472
868	89.2221
869.681	88.3421
871.363	86.5621
873.045	85.4093
874.725	84.0481
876.406	82.4742
878.088	79.9082
879.767	78.2818
881.447	76.1546
883.125	73.686
884.805	71.4932
886.483	70.3987
888.162	67.5133
889.841	64.9075
891.518	62.1278
893.196	59.6064
894.872	57.0577
896.55	54.3301
898.225	51.977
899.902	50.4496
901.577	48.3881
903.254	46.5176
904.928	45.7778
906.604	45.7535
908.277	46.798
909.952	46.3387
911.625	45.7193
913.3	46.7075
914.972	46.4404
916.646	46.3984
918.318	45.7108
919.991	47.0254
921.662	46.2596
923.333	46.7087
925.005	45.8452
926.675	45.6614
928.347	45.6747
930.017	45.2549
931.686	44.9037
933.357	45.1438
935.025	45.2123
936.693	45.5843
938.363	45.5282
940.031	46.1403
941.698	46.2513
943.367	45.9777
945.034	44.6703
946.7	44.276
948.368	43.3921
950.034	43.6914
951.699	42.1029
953.367	40.9927
955.031	39.17
956.696	38.1201
958.36	36.6972
960.026	35.4931
961.689	34.3415
963.353	34.3275
965.016	32.9804
966.68	32.2894
968.343	32.3527
970.005	33.242
971.666	31.7892
973.328	32.1108
974.991	33.1956
976.652	33.0869
978.312	32.4871
979.972	31.6946
981.632	31.0487
983.292	31.4475
984.953	31.3274
986.612	31.4788
988.27	32.7261
989.929	32.3693
991.587	32.2509
993.244	30.9873
994.902	30.4923
996.559	31.2126
998.216	30.544
999.872	29.2832
1001.53	29.5737
1003.19	30.468
1004.84	30.5785
1006.5	31.7117
1008.15	32.0026
1009.81	33.7307
1011.46	34.4146
1013.11	34.8808
1014.77	35.9506
1016.42	36.4355
1018.07	37.2023
1019.73	36.8835
1021.38	38.1626
1023.03	39.0649
1024.68	39.3555
1026.34	38.6171
1027.99	38.7351
1029.64	39.1112
1031.29	38.103
1032.94	38.8781
1034.59	37.9992
1036.24	37.6476
1037.89	36.2612
1039.53	35.5639
1041.18	34.0636
1042.83	34.2319
1044.48	33.8158
1046.13	34.5628
1047.77	34.7868
1049.42	35.4657
1051.07	35.2372
1052.71	35.2927
1054.36	34.3774
1056	33.6422
1057.65	33.4074
1059.3	32.4031
1060.94	32.0812
1062.59	31.331
1064.23	31.3295
1065.87	31.6785
1067.52	30.7849
1069.16	30.173
1070.8	29.5871
1072.44	27.6271
1074.09	27.8838
1075.73	27.28
1077.37	26.7804
1079.01	26.2937
1080.65	25.9936
1082.29	25.1915
1083.93	26.5222
1085.57	26.783
1087.21	27.2262
1088.85	27.1987
1090.49	28.1691
1092.13	28.8246
1093.77	28.7003
1095.41	29.3672
1097.04	30.3009
1098.68	30.177
1100.32	30.4049
1101.95	30.3666
1103.59	30.0454
1105.23	29.5554
1106.86	29.4671
1108.5	28.844
1110.13	29.0609
1111.77	28.478
1113.4	26.9951
1115.04	26.9031
1116.67	25.6688
1118.31	24.7217
1119.94	23.8101
1121.57	23.2555
1123.2	22.4852
1124.84	23.0641
1126.47	22.4467
1128.1	22.7782
1129.73	22.1173
1131.36	21.4801
1132.99	20.0026
1134.62	20.2068
1136.25	19.576
1137.88	18.9439
1139.51	18.4509
1141.14	16.7825
1142.77	15.7848
1144.4	14.4811
1146.03	14.4189
1147.66	13.8355
1149.28	13.0518
1150.91	12.9632
1152.54	11.29
1154.16	10.3121
1155.79	10.4478
1157.42	9.74496
1159.04	9.13981
1160.67	7.75823
1162.29	6.77888
1163.92	5.27062
1165.54	5.02151
1167.17	4.33262
1168.79	3.89023
1170.41	3.39112
1172.04	3.36765
1173.66	2.98369
1175.28	3.54102
1176.9	3.43678
1178.53	2.88425
1180.15	2.31409
1181.77	1.58937
1183.39	1.51861
1185.01	1.35075
1186.63	2.52617
1188.25	2.87247
1189.87	2.74186
1191.49	2.56733
1193.11	2.77195
1194.73	3.0034
1196.35	5.41922
1197.96	6.90737
1199.58	7.80237
1201.2	9.21053
1202.82	10.6938
1204.43	12.22
1206.05	14.6931
1207.66	16.4489
1209.28	17.7566
1210.9	19.4126
1212.51	22.1576
1214.13	24.4057
1215.74	27.1249
1217.36	29.2358
1218.97	31.1013
1220.58	33.8516
1222.2	36.819
1223.81	39.9852
1225.42	42.3503
1227.04	44.8659
1228.65	45.9574
1230.26	48.9016
1231.87	50.4314
1233.48	52.5048
1235.1	54.804
1236.71	57.0953
1238.32	57.884
1239.93	59.037
1241.53	60.4005
1243.14	61.6255
1244.75	63.2045
1246.36	65.0612
1247.97	67.0101
1249.58	67.9899
1251.19	69.076
1252.8	70.7059
1254.4	70.7063
1256.01	70.276
1257.62	69.8558
1259.22	70.4989
1260.83	70.4354
1262.43	70.3751
1264.04	69.6021
1265.64	69.5777
1267.25	69.6808
1268.85	69.9489
1270.46	70.2198
1272.06	70.4035
1273.66	71.2587
1275.27	71.3714
1276.87	72.8167
1278.48	73.0821
1280.08	73.046
1281.68	73.6047
1283.28	74.5053
1284.88	75.2724
1286.48	76.7037
1288.08	76.6342
1289.68	77.4767
1291.28	79.3135
1292.88	80.966
1294.48	81.2233
1296.08	81.9636
1297.68	83.1915
1299.28	83.7453
1300.88	84.992
1302.48	85.9095
1304.07	86.8219
1305.67	87.5078
1307.27	88.279
1308.87	89.3879
1310.46	91.2041
1312.06	92.0761
1313.65	92.8316
1315.25	93.047
1316.85	93.4233
1318.44	93.5797
1320.03	95.2178
1321.63	96.0385
1323.22	95.7514
1324.82	96.3096
1326.41	97.114
1328	96.9074
1329.6	95.2697
1331.19	94.4194
1332.78	93.1571
1334.37	91.5692
1335.96	90.7579
1337.56	90.1513
1339.15	89.5787
1340.74	87.5677
1342.33	86.4724
1343.92	84.515
1345.51	84.7539
1347.1	83.5031
1348.69	83.3244
1350.28	82.723
1351.86	80.9059
1353.45	80.6793
1355.04	80.6214
1356.63	80.3099
1358.21	79.4061
1359.8	78.5646
1361.39	77.3024
1362.97	76.5013
1364.56	75.1695
1366.15	73.865
1367.73	71.837
1369.32	71.2189
1370.9	70.6748
1372.49	70.8804
1374.07	70.3388
1375.65	69.946
1377.24	69.2536
1378.82	68.1536
1380.41	66.9105
1381.99	65.5537
1383.57	65.3503
1385.15	63.5
1386.73	63.1888
1388.32	63.0664
1389.9	62.1876
1391.48	62.0425
1393.06	61.8186
1394.64	61.7926
1396.22	62.3473
1397.8	63.3694
1399.38	63.4679
1400.96	63.4317
1402.54	63.8189
1404.11	65.1748
1405.69	65.3739
1407.27	65.7458
1408.85	66.7029
1410.43	67.8569
1412	69.1516
1413.58	71.0885
1415.16	73.8288
1416.73	76.5118
1418.31	79.0214
1419.88	81.9875
1421.46	85.6574
1423.03	89.4692
1424.61	94.6395
1426.18	98.4521
1427.76	103.64
1429.33	107.201
1430.9	110.41
1432.48	114.709
1434.05	117.779
1435.62	119.985
1437.2	123.565
1438.77	125.822
1440.34	127.911
1441.91	129.605
1443.48	130.767
1445.05	131.545
1446.62	132.147
1448.19	133.216
1449.76	133.972
1451.33	133.598
1452.9	131.74
1454.47	129.919
1456.04	128.255
1457.61	126.858
1459.17	124.814
1460.74	122.537
1462.31	120.43
1463.88	116.654
1465.44	115.18
1467.01	111.951
1468.58	108.999
1470.14	106.311
1471.71	103.041
1473.27	99.4639
1474.84	96.7142
1476.4	91.8574
1477.97	87.5021
1479.53	83.2881
1481.1	79.1484
1482.66	75.0032
1484.22	71.4189
1485.78	68.0782
1487.35	64.4823
1488.91	61.3659
1490.47	59.3666
1492.03	57.0591
1493.59	54.2403
1495.16	51.206
1496.72	49.2821
1498.28	47.6814
1499.84	45.4406
1501.4	43.0422
1502.96	40.7351
1504.52	38.2413
1506.08	36.2322
1507.64	34.3924
1509.19	32.5349
1510.75	30.3212
1512.31	29.4718
1513.87	27.5458
1515.42	26.7406
1516.98	25.6063
1518.54	23.6632
1520.1	22.5865
1521.65	21.47
1523.21	20.8808
1524.76	21.099
1526.32	21.3905
1527.87	21.2489
1529.43	21.0127
1530.98	21.452
1532.54	21.995
1534.09	21.8732
1535.64	21.6314
1537.2	20.9057
1538.75	20.5461
1540.3	22.5534
1541.85	23.8518
1543.41	25.8521
1544.96	26.4233
1546.51	27.7199
1548.06	28.6042
1549.61	29.446
1551.16	30.8418
1552.71	32.1681
1554.26	32.2301
1555.81	33.7206
1557.36	34.3171
1558.91	36.3474
1560.46	38.0521
1562.01	38.96
1563.56	39.0119
1565.1	40.1709
1566.65	41.6901
1568.2	42.223
1569.75	42.728
1571.29	44.1515
1572.84	46.1371
1574.38	47.1015
1575.93	47.8124
1577.48	49.6323
1579.02	51.3038
1580.57	53.1407
1582.11	55.1103
1583.65	56.6442
1585.2	57.9445
1586.74	58.6913
1588.29	60.2103
1589.83	62.1928
1591.37	62.6429
1592.92	64.521
1594.46	64.3002
1596	64.5002
1597.54	66.0578
1599.08	66.157
1600.62	66.7118
1602.16	67.238
1603.7	67.1647
1605.24	66.7479
1606.78	66.4034
1608.32	65.3399
1609.86	65.0637
1611.4	64.1466
1612.94	64.2084
1614.48	64.4856
1616.02	65.6789
1617.56	66.2608
1619.09	65.3581
1620.63	65.5184
1622.17	65.3095
1623.71	65.9447
1625.24	66.1771
1626.78	66.4818
1628.31	67.2005
1629.85	67.0422
1631.39	66.8147
1632.92	67.2848
1634.46	67.7596
1635.99	68.7095
1637.52	69.2452
1639.06	70.2493
1640.59	72.3543
1642.12	73.7286
1643.66	74.8764
1645.19	76.0092
1646.72	78.108
1648.25	79.6251
1649.79	81.475
1651.32	82.794
1652.85	84.9575
1654.38	86.1438
1655.91	86.825
1657.44	86.8133
1658.97	87.0888
1660.5	87.1271
1662.03	87.5193
1663.56	87.4087
1665.09	86.8729
1666.62	85.6145
1668.15	84.3608
1669.67	82.9575
1671.2	77.9765
1672.73	74.4588
1674.26	70.938
1675.79	68.9466
1677.31	68.5487
1678.84	67.7935
1680.36	65.5414
1681.89	64.2531
1683.42	63.0673
1684.94	61.9995
1686.47	60.8442
1687.99	59.8378
1689.51	57.8381
1691.04	56.8429
1692.56	55.1518
1694.08	53.3206
1695.61	52.0475
1697.13	50.8095
1698.65	49.2492
1700.18	47.8374
1701.7	46.0272
1703.22	44.6744
1704.74	43.5697
1706.26	41.8528
1707.78	40.4234
1709.3	39.4629
1710.82	38.4658
1712.35	37.6901
1713.86	36.6377
1715.39	34.9941
1716.9	33.5222
1718.42	31.8288
1719.94	30.1497
1721.46	29.0603
1722.98	27.7562
1724.5	25.7991
1726.01	25.2419
1727.53	22.812
1729.05	21.6113
1730.56	20.0849
1732.08	18.072
1733.6	16.2819
1735.11	14.8279
1736.63	13.5442
1738.14	12.2129
1739.66	10.0781
1741.17	7.85107
1742.69	5.76201
1744.2	3.92718
1745.71	1.35246
1747.23	-0.384217
1748.74	0.96072
1750.25	2.5133
1751.77	4.63105
1753.28	5.29209
1754.79	4.76062
1756.3	4.07164
1757.81	5.04204
1759.33	5.3099
1760.84	5.32659
1762.35	5.47589
1763.86	5.71002
1765.37	4.65209
1766.88	5.51133
1768.39	5.15043
1769.9	5.48911
1771.41	5.12575
1772.91	4.33598
1774.42	4.32149
1775.93	4.55529
1777.44	5.30281
1778.95	5.11773
1780.45	4.95115
1781.96	4.61085
1783.47	4.10911
1784.97	3.82442
1786.48	3.4722
1787.99	3.53786
1789.49	3.21415
1791	2.93279
1792.5	2.8633
1794.01	2.44227
1795.51	1.78021
1797.01	1.62752
1798.52	1.50368
1800.02	1.60516
1801.52	2.23395
1803.03	1.83375
1804.53	2.4534
1806.03	2.38426
1807.54	1.76504
1809.04	2.61967
1810.54	2.26314
1812.04	2.64102
1813.54	2.471
1815.04	2.43395
1816.54	2.6379
1818.04	3.02658
1819.54	2.99182
1821.04	3.00704
1822.54	3.12343
1824.04	2.72857
1825.54	2.61629
1827.04	3.06208
1828.54	3.31791
1830.03	3.29213
1831.53	3.56658
1833.03	3.9947
1834.53	3.66071
1836.02	3.82662
1837.52	3.5906
1839.02	3.09602
1840.51	3.15401
1842.01	3.71696
1843.5	3.8262
1845	3.83983
1846.49	3.65036
1847.99	3.38004
1849.48	4.12287
1850.98	3.98637
1852.47	3.70377
1853.96	3.65199
1855.46	3.67351
1856.95	3.97112
1858.44	3.65721
1859.94	4.28948
1861.43	4.53949
1862.92	5.02467
1864.41	5.18946
1865.9	4.30493
1867.39	4.21026
1868.88	3.28182
1870.37	3.51867
1871.86	3.81623
1873.35	3.7195
1874.84	4.18467
1876.33	3.73205
1877.82	2.58319
1879.31	2.57014
1880.8	2.82404
1882.29	2.57714
1882.58	2.33478
1884.08	1.87855
1885.57	2.5558
1887.06	1.91648
1888.56	2.42608
1890.05	2.4017
1891.54	1.90948
1893.04	2.04382
1894.53	2.26922
1896.02	2.64066
1897.51	3.19419
1899	3.77131
1900.5	3.38353
1901.99	3.34887
1903.48	3.7095
1904.97	3.30429
1906.46	3.45413
1907.95	2.88361
1909.44	3.23065
1910.93	3.09814
1912.42	2.54517
1913.91	3.00653
1915.4	2.82248
1916.88	2.22473
1918.37	1.45869
1919.86	0.750361
1921.35	0.405133
1922.84	0.506253
1924.32	0.194315
1925.81	-0.105533
1927.3	0.530601
1928.78	0.279097
1930.27	0.455678
1931.75	-0.0262441
1933.24	0.220864
1934.72	-0.326785
1936.21	-0.555947
1937.69	-0.357065
1939.18	-0.81439
1940.66	-0.108896
1942.15	-0.46777
1943.63	0.687126
1945.11	0.350596
1946.6	-0.189464
1948.08	0.28695
1949.56	-0.36169
1951.04	-0.59876
1952.53	-0.0065786
1954.01	0.485375
1955.49	0.478096
1956.97	0.988842
1958.45	1.72119
1959.93	2.29219
1961.41	2.34792
1962.89	3.14013
1964.37	3.69785
1965.85	4.4732
1967.33	5.56663
1968.81	5.79814
1970.29	6.20571
1971.77	6.2439
1973.24	5.78999
1974.72	5.58569
1976.2	5.86003
1977.68	6.03968
1979.15	5.45563
1980.63	6.27572
1982.11	5.82074
1983.58	6.06977
1985.06	6.24807
1986.53	5.65577
1988.01	6.57177
1989.48	6.17985
1990.96	5.60593
1992.43	5.25703
1993.91	5.05634
1995.38	4.75253
1996.86	4.88293
1998.33	4.74003
1999.8	5.00412
2001.27	5.62874
2002.75	5.45084
2004.22	5.84677
2005.69	5.91189
2007.16	5.62951
2008.64	5.65344
2010.11	5.60699
2011.58	5.49839
2013.05	4.27946
2014.52	3.78202
2015.99	3.28033
2017.46	3.17702
2018.93	2.48784
2020.4	2.63821
2021.87	2.98327
2023.34	2.91162
2024.8	3.00508
2026.27	3.40981
2027.74	4.01896
2029.21	3.39659
2030.68	3.57896
2032.14	3.58145
2033.61	3.45233
2035.08	3.10358
2036.54	3.26816
2038.01	3.45694
2039.48	2.71612
2040.94	2.46213
2042.41	1.88777
2043.87	2.69591
2045.34	3.02762
2046.8	2.70369
2048.27	2.05973
2049.73	2.24882
2051.19	2.41385
2052.66	2.45947
2054.12	2.56264
2055.58	2.45797
2057.05	3.06036
2058.51	3.43371
2059.97	3.94643
2061.43	4.26377
2062.9	4.25323
2064.36	3.85375
2065.82	3.93466
2067.28	4.65441
2068.74	4.87034
2070.2	5.60559
2071.66	6.04352
2073.12	6.57598
2074.58	6.2939
2076.04	6.66413
2077.5	7.1703
2078.95	6.36955
2080.41	5.4419
2081.87	5.37842
2083.33	5.00509
2084.79	4.46658
2086.24	5.22962
2087.7	6.12694
2089.16	6.44412
2090.61	6.48022
2092.07	7.26273
2093.53	7.84418
2094.98	8.90574
2096.44	9.30961
2097.89	9.77644
2099.35	9.4667
2100.8	9.18372
2102.26	9.79366
2103.71	10.3832
2105.16	10.0713
2106.62	9.43454
2108.07	9.23426
2109.53	10.2516
2110.98	10.8042
2112.43	11.5396
2113.88	12.5544
2115.33	12.631
2116.79	13.3245
2118.24	12.7345
2119.69	12.9722
2121.14	13.3742
2122.59	14.7282
2124.04	15.7989
2125.49	16.4587
2126.94	17.3798
2128.39	18.4329
2129.84	19.5025
2131.29	20.3778
2132.74	21.4039
