#Acq. time (s)=	45
#Accumulations=	2
#Range (cm-¹)=	200...3150
#Windows=	2
#Auto scanning=	Off
#Autofocus=	Off
#Macrospot=	Off
#AutoExposure=	Off
#Spike filter=	Multiple accum.
#Delay time (s)=	0
#Binning=	1
#Readout mode=	Signal
#DeNoise=	Off
#ICS correction=	On
#Dark correction=	Off
#Inst. Process=	Off
#Detector Gain=	Best Dynamic Range
#Detector ADC=	20 kHz       
#Detector temperature (°C)=	-69.85
#Instrument=	LabRAM HR Evol
#Detector=	Synapse
#Objective=	x100
#Grating=	600 gr/mm
#ND Filter=	100%
#Laser (nm)=	532 
#Hole=	100.021
#Range=	Auto
#Laser Pol.=	No
#Raman. Pol.=	No
#Laser Pol. (°)=	-0.0007625
#Raman Pol. (°)=	89.9995
#Collection=	Microscope
#StageXY=	Marzhauser
#StageZ=	Marzhauser
#X (µm)=	-1141.3
#Y (µm)=	1296.8
#Z (µm)=	578
#Full time(mm:ss)=	3:18
#Project=	
#Sample=	
#Site=	
#Title=	Mbcal_20_25_30_2x_45s_532 nm_x100_100%_600 gr_mm
#Remark=	
#Date=	18.07.2022 11:59
#Acquired=	18.07.2022 11:59:01
#Base:Fit=	10.08.2022 10:55:08
#Base:Sub=	10.08.2022 10:55:14
#Filter:Polynom=	16.08.2022 10:07:28
#AxisType[0]=Intens
#AxisUnit[0]=Cnt
#AxisType[1]=Spectr
#AxisUnit[1]=1/cm
200.419	-2.54694
202.234	-1.59759
204.048	-0.711314
205.862	0.182882
207.678	0.778817
209.491	1.10803
211.304	1.40215
213.116	1.40981
214.928	2.71025
216.742	3.62644
218.554	4.82264
220.365	5.03593
222.176	6.26827
223.986	7.03983
225.798	8.1032
227.608	9.85848
229.417	10.5078
231.226	11.4328
233.035	11.0249
234.843	11.6951
236.653	12.7484
238.46	13.5822
240.268	13.4114
242.074	12.9253
243.881	12.7437
245.687	13.0043
247.493	13.6815
249.298	13.8679
251.103	14.7162
252.908	15.124
254.715	15.2596
256.519	15.5371
258.322	16.1616
260.126	16.7187
261.929	17.2102
263.731	17.9431
265.534	17.1706
267.336	17.7307
269.137	17.9805
270.938	18.0448
272.739	17.013
274.54	16.6246
276.34	15.7794
278.14	16.0014
279.939	15.777
281.739	15.3538
283.537	13.825
285.336	12.7171
287.134	12.7725
288.932	12.6375
290.729	12.6421
292.526	11.7409
294.323	11.9991
296.117	11.9532
297.913	11.9061
299.709	11.8243
301.504	12.9605
303.299	13.7637
305.093	14.1615
306.888	14.1656
308.682	15.0913
310.475	15.4212
312.268	16.7152
314.059	17.3143
315.852	17.4244
317.644	17.5039
319.436	16.9691
321.227	16.9194
323.018	16.5591
324.807	16.5542
326.597	17.3041
328.387	16.6474
330.177	15.7803
331.967	15.5753
333.753	16.4376
335.542	17.1027
337.331	17.8774
339.119	18.2437
340.906	18.5929
342.691	18.1628
344.478	18.9304
346.265	19.2554
348.051	19.8205
349.835	19.8033
351.621	20.7595
353.406	20.4461
355.189	19.6586
356.973	19.6878
358.757	18.8329
360.541	16.5948
362.323	15.2696
364.106	14.3008
365.889	14.509
367.669	14.0655
369.451	12.9297
371.233	12.5338
373.012	11.3665
374.793	11.2707
376.574	11.6385
378.353	10.7232
380.133	10.0342
381.91	10.4728
383.69	10.4828
385.469	9.69494
387.245	9.0161
389.024	8.06056
390.8	8.09913
392.577	7.63719
394.353	7.06404
396.129	7.4867
397.906	7.73775
399.68	6.64516
401.456	5.80712
403.23	5.36601
405.005	4.53343
406.778	3.93303
408.552	3.44364
410.325	3.44264
412.099	3.51734
413.87	3.6137
415.643	4.58208
417.414	4.56693
419.187	4.66445
420.957	5.43616
422.728	5.3542
424.498	4.9297
426.269	5.29002
428.038	5.22668
429.806	5.6666
431.576	6.32976
433.344	7.29354
435.114	7.72473
436.881	8.01974
438.649	7.91572
440.416	8.10993
442.182	7.18747
443.949	6.67865
445.715	6.4466
447.48	6.09464
449.247	5.82317
451.011	6.86217
452.777	6.96807
454.541	7.93605
456.304	7.64658
458.069	7.43999
459.832	7.95556
461.594	7.1711
463.358	8.25972
465.119	8.98496
466.881	9.3813
468.642	10.1839
470.404	10.8885
472.165	10.1127
473.925	10.4289
475.684	10.3975
477.445	9.97818
479.204	11.3062
480.963	10.8775
482.721	11.0125
484.481	11.1697
486.239	11.852
487.996	11.5806
489.753	11.7907
491.511	11.8825
493.268	11.8939
495.023	12.0214
496.779	12.6995
498.534	13.4072
500.289	12.9757
502.046	13.1324
503.8	13.5774
505.554	13.5404
507.307	13.2248
509.06	12.9822
510.813	12.9168
512.566	14.3192
514.32	15.4181
516.072	16.4214
517.823	17.2992
519.574	16.3189
521.325	16.7072
523.076	16.8544
524.826	15.9346
526.576	16.2007
528.325	16.2548
530.074	16.0219
531.823	16.5723
533.572	16.2337
535.32	16.6833
537.068	16.9888
538.815	17.8253
540.562	17.9513
542.309	18.0973
544.056	17.1597
545.802	16.9058
547.547	17.5247
549.293	16.816
551.038	17.5354
552.783	16.9196
554.527	16.416
556.271	15.4247
558.015	14.5658
559.759	12.8821
561.502	12.1266
563.245	11.409
564.987	10.477
566.729	9.87356
568.471	7.98225
570.213	7.40687
571.954	6.97331
573.693	6.77299
575.433	5.76085
577.173	5.20111
578.913	4.46426
580.652	4.37424
582.392	4.00392
584.13	3.72841
585.867	2.66094
587.605	2.59815
589.343	2.81259
591.08	2.31495
592.817	1.79639
594.552	2.53553
596.289	2.76229
598.025	3.83689
599.761	3.80737
601.496	3.79687
603.229	4.56801
604.964	4.5139
606.699	4.3486
608.433	5.33617
610.165	6.01419
611.898	6.39504
613.631	7.73657
615.364	7.9393
617.095	7.97445
618.827	7.99517
620.559	8.10487
622.288	9.07238
624.02	9.57231
625.75	10.3592
627.479	9.57731
629.209	8.64357
630.939	9.08611
632.667	10.0925
634.396	10.4029
636.125	10.56
637.851	11.4114
639.58	10.7355
641.305	10.3071
643.033	10.568
644.76	10.4746
646.485	11.0051
648.212	11.5125
649.936	12.3612
651.662	11.9563
653.388	12.3422
655.111	13.4851
656.836	14.8715
658.558	15.6045
660.283	16.0664
662.005	16.4841
663.728	17.0772
665.45	17.3548
667.173	17.2787
668.893	18.1082
670.616	17.7826
672.336	18.1481
674.057	18.9673
675.777	18.7864
677.498	19.1477
679.216	20.1681
680.937	20.4711
682.655	20.8966
684.375	21.2409
686.092	21.4203
687.809	22.1258
689.528	22.971
691.244	22.7174
692.962	23.0116
694.678	23.5204
696.393	24.3633
698.111	24.8408
699.825	24.3244
701.54	23.5531
703.256	23.3327
704.97	23.6919
706.685	24.0831
708.398	24.9051
710.111	25.0421
711.826	24.549
713.538	24.3203
715.25	24.5969
716.961	25.4687
718.675	25.934
720.386	26.2153
722.096	26.887
723.808	27.4985
725.518	27.8072
727.228	28.8436
728.937	30.2042
730.648	30.3474
732.357	32.3955
734.065	33.1776
735.773	35.0224
737.483	35.538
739.19	37.1474
740.897	38.8185
742.604	39.3957
744.31	40.6333
746.018	41.9404
747.724	43.2266
749.429	44.5416
751.134	45.8075
752.839	46.5303
754.544	48.6584
756.248	49.7592
757.953	52.3575
759.657	53.2829
761.36	54.6138
763.063	55.815
764.765	57.4055
766.468	58.1021
768.169	60.2052
769.871	60.6411
771.572	62.4017
773.273	63.585
774.976	64.8356
776.676	65.9591
778.376	66.299
780.075	66.8128
781.775	67.5839
783.474	68.1231
785.172	67.8403
786.871	68.2298
788.569	69.2434
790.266	69.2195
791.964	69.4103
793.661	70.4752
795.358	70.1085
797.054	70.0193
798.75	70.7606
800.446	70.5928
802.141	71.0359
803.834	71.373
805.529	71.8808
807.224	72.731
808.918	73.5164
810.612	73.9634
812.305	74.459
813.998	74.679
815.691	73.8787
817.384	74.3987
819.076	72.965
820.766	72.8852
822.458	72.631
824.149	73.1541
825.84	72.9761
827.531	73.1792
829.221	73.7057
830.909	74.3133
832.599	74.936
834.288	75.991
835.977	76.565
837.666	77.2061
839.353	77.6976
841.041	78.5117
842.729	78.7313
844.416	77.7003
846.103	78.1244
847.788	77.7606
849.475	77.6179
851.161	76.8683
852.845	76.3523
854.53	75.5768
856.216	74.8763
857.901	73.2056
859.583	72.4653
861.268	71.4959
862.952	69.5236
864.633	69.5583
866.317	69.0053
868	67.7721
869.681	66.788
871.363	66.1707
873.045	65.3752
874.725	63.9952
876.406	62.9832
878.088	62.1519
879.767	60.3124
881.447	59.4336
883.125	59.3541
884.805	57.9036
886.483	57.3478
888.162	56.6895
889.841	56.2239
891.518	55.1129
893.196	54.4351
894.872	52.9675
896.55	51.8937
898.225	50.8005
899.902	49.6044
901.577	49.1272
903.254	48.5693
904.928	49.1184
906.604	49.2591
908.277	49.5163
909.952	49.8028
911.625	51.3352
913.3	51.6045
914.972	52.4899
916.646	52.6568
918.318	52.6706
919.991	53.2858
921.662	53.6752
923.333	53.2832
925.005	53.4629
926.675	53.1109
928.347	52.7401
930.017	52.5133
931.686	52.0068
933.357	51.3577
935.025	50.5844
936.693	50.0476
938.363	49.7737
940.031	48.9583
941.698	49.1388
943.367	48.5959
945.034	48.0154
946.7	47.3676
948.368	47.4787
950.034	46.7719
951.699	45.7315
953.367	46.2058
955.031	45.5584
956.696	44.6214
958.36	43.2971
960.026	41.9624
961.689	41.2683
963.353	40.406
965.016	40.8979
966.68	40.9621
968.343	39.8297
970.005	40.0168
971.666	40.0373
973.328	40.0345
974.991	39.8129
976.652	40.0832
978.312	40.1494
979.972	39.684
981.632	38.8256
983.292	38.4874
984.953	38.2362
986.612	38.0493
988.27	38.0489
989.929	38.2326
991.587	38.2311
993.244	38.2121
994.902	38.2772
996.559	37.3673
998.216	36.5371
999.872	36.6445
1001.53	35.8223
1003.19	35.712
1004.84	34.417
1006.5	33.8154
1008.15	33.6364
1009.81	33.3334
1011.46	33.0699
1013.11	32.9859
1014.77	32.6485
1016.42	31.8748
1018.07	32.2138
1019.73	32.6417
1021.38	31.4861
1023.03	31.1297
1024.68	30.5495
1026.34	29.7325
1027.99	30.3568
1029.64	30.3676
1031.29	31.0181
1032.94	30.794
1034.59	31.2823
1036.24	32.3215
1037.89	31.6133
1039.53	31.3423
1041.18	31.3608
1042.83	32.4003
1044.48	32.6104
1046.13	33.1576
1047.77	33.1342
1049.42	32.9038
1051.07	32.2125
1052.71	32.4686
1054.36	32.1989
1056	32.3676
1057.65	32.6738
1059.3	32.1551
1060.94	31.0148
1062.59	29.9625
1064.23	29.3738
1065.87	29.6953
1067.52	29.5101
1069.16	29.0938
1070.8	29.615
1072.44	29.6457
1074.09	29.5096
1075.73	29.1347
1077.37	28.7964
1079.01	28.2025
1080.65	27.4471
1082.29	27.1731
1083.93	25.8597
1085.57	25.8023
1087.21	25.5147
1088.85	25.6615
1090.49	25.2914
1092.13	25.7381
1093.77	26.3538
1095.41	26.3777
1097.04	26.2253
1098.68	26.6033
1100.32	26.8371
1101.95	26.6102
1103.59	25.6131
1105.23	26.8022
1106.86	26.9867
1108.5	27.4969
1110.13	27.5369
1111.77	27.3666
1113.4	27.2095
1115.04	26.6663
1116.67	26.384
1118.31	25.6533
1119.94	25.0368
1121.57	24.1832
1123.2	23.3761
1124.84	22.1339
1126.47	20.7917
1128.1	20.0513
1129.73	19.546
1131.36	19.3949
1132.99	18.9834
1134.62	19.0897
1136.25	18.9587
1137.88	19.6488
1139.51	19.5923
1141.14	18.4972
1142.77	18.0267
1144.4	18.0106
1146.03	17.5652
1147.66	17.422
1149.28	17.0235
1150.91	16.1877
1152.54	16.635
1154.16	15.2234
1155.79	13.7104
1157.42	11.6435
1159.04	10.6455
1160.67	9.95783
1162.29	8.90131
1163.92	8.34382
1165.54	7.96207
1167.17	7.48754
1168.79	8.19255
1170.41	8.68338
1172.04	9.23077
1173.66	9.5229
1175.28	9.75781
1176.9	9.35394
1178.53	9.81366
1180.15	9.79083
1181.77	9.96525
1183.39	9.66184
1185.01	9.48707
1186.63	9.26275
1188.25	8.73772
1189.87	8.11333
1191.49	7.75516
1193.11	8.66104
1194.73	8.74077
1196.35	9.12231
1197.96	8.99145
1199.58	10.1639
1201.2	11.5857
1202.82	11.8732
1204.43	13.3879
1206.05	15.4487
1207.66	16.8616
1209.28	17.8263
1210.9	19.5874
1212.51	20.0718
1214.13	21.543
1215.74	23.1025
1217.36	24.5445
1218.97	26.0501
1220.58	26.795
1222.2	27.0942
1223.81	28.0415
1225.42	29.3657
1227.04	30.3958
1228.65	31.4388
1230.26	32.6128
1231.87	33.2635
1233.48	34.1165
1235.1	34.2963
1236.71	35.0025
1238.32	35.8669
1239.93	37.6981
1241.53	39.2986
1243.14	40.2021
1244.75	40.9317
1246.36	42.1788
1247.97	43.4601
1249.58	44.5689
1251.19	44.8257
1252.8	46.0491
1254.4	46.2936
1256.01	47.5728
1257.62	47.8226
1259.22	49.6976
1260.83	50.0469
1262.43	50.85
1264.04	51.2467
1265.64	52.5784
1267.25	52.9427
1268.85	54.1768
1270.46	54.5035
1272.06	55.2348
1273.66	56.4408
1275.27	56.9408
1276.87	57.3617
1278.48	57.9938
1280.08	59.6403
1281.68	60.5909
1283.28	60.7528
1284.88	61.7167
1286.48	62.8719
1288.08	62.4389
1289.68	63.1634
1291.28	64.0447
1292.88	64.2564
1294.48	65.4834
1296.08	66.6422
1297.68	66.86
1299.28	67.7244
1300.88	68.3373
1302.48	68.8089
1304.07	70.7569
1305.67	71.692
1307.27	72.4501
1308.87	73.5128
1310.46	73.8591
1312.06	74.5889
1313.65	75.0152
1315.25	75.7226
1316.85	75.7792
1318.44	76.515
1320.03	76.9483
1321.63	77.0786
1323.22	76.391
1324.82	75.4559
1326.41	75.709
1328	75.5334
1329.6	75.1957
1331.19	75.5129
1332.78	75.6049
1334.37	74.2879
1335.96	74.1658
1337.56	74.0516
1339.15	74.0307
1340.74	72.2765
1342.33	70.8694
1343.92	69.7602
1345.51	69.0109
1347.1	67.3891
1348.69	66.3591
1350.28	64.5286
1351.86	63.4813
1353.45	62.5957
1355.04	60.7307
1356.63	58.8553
1358.21	57.411
1359.8	56.5192
1361.39	55.4273
1362.97	54.767
1364.56	54.3872
1366.15	53.9683
1367.73	52.6155
1369.32	52.0404
1370.9	50.95
1372.49	50.2694
1374.07	49.5297
1375.65	49.2386
1377.24	47.6657
1378.82	48.4406
1380.41	49.0558
1381.99	49.0145
1383.57	49.087
1385.15	47.8828
1386.73	48.17
1388.32	48.8556
1389.9	48.2304
1391.48	48.329
1393.06	47.4723
1394.64	47.484
1396.22	47.38
1397.8	47.4023
1399.38	47.2268
1400.96	47.7279
1402.54	47.6104
1404.11	48.402
1405.69	49.6155
1407.27	50.3865
1408.85	50.2535
1410.43	51.5346
1412	51.6383
1413.58	52.2425
1415.16	54.0618
1416.73	54.9058
1418.31	55.26
1419.88	56.3189
1421.46	58.4452
1423.03	61.115
1424.61	63.6067
1426.18	65.2478
1427.76	66.9071
1429.33	68.7233
1430.9	71.2006
1432.48	73.2017
1434.05	74.1912
1435.62	76.0781
1437.2	77.6654
1438.77	79.6188
1440.34	80.7912
1441.91	82.3523
1443.48	82.5572
1445.05	83.1142
1446.62	82.9274
1448.19	82.9227
1449.76	83.1792
1451.33	83.3703
1452.9	82.9539
1454.47	83.0469
1456.04	82.402
1457.61	82.4536
1459.17	81.8046
1460.74	80.3456
1462.31	79.653
1463.88	78.8984
1465.44	78.2216
1467.01	76.3303
1468.58	73.6093
1470.14	71.7938
1471.71	70.7896
1473.27	69.3225
1474.84	68.5869
1476.4	67.2017
1477.97	64.7449
1479.53	62.6585
1481.1	60.3186
1482.66	58.6734
1484.22	56.5306
1485.78	54.172
1487.35	51.589
1488.91	50.5343
1490.47	48.6544
1492.03	47.1055
1493.59	45.6351
1495.16	43.532
1496.72	42.4746
1498.28	42.0534
1499.84	40.7099
1501.4	39.5642
1502.96	38.3719
1504.52	36.5092
1506.08	34.7979
1507.64	33.3355
1509.19	32.3079
1510.75	30.1427
1512.31	28.1529
1513.87	27.0707
1515.42	25.5531
1516.98	24.7155
1518.54	23.4922
1520.1	22.4365
1521.65	21.0024
1523.21	20.2004
1524.76	19.5816
1526.32	20.1465
1527.87	19.933
1529.43	19.5896
1530.98	19.2032
1532.54	19.6456
1534.09	19.3951
1535.64	19.5945
1537.2	20.9469
1538.75	21.5263
1540.3	22.3217
1541.85	23.2289
1543.41	24.3176
1544.96	25.8807
1546.51	27.8511
1548.06	29.803
1549.61	31.6955
1551.16	32.5283
1552.71	34.2268
1554.26	34.759
1555.81	35.431
1557.36	37.264
1558.91	38.3289
1560.46	40.0655
1562.01	41.7002
1563.56	42.8361
1565.1	44.2583
1566.65	45.4975
1568.2	46.7366
1569.75	46.8571
1571.29	48.0883
1572.84	49.1995
1574.38	50.513
1575.93	51.415
1577.48	52.1491
1579.02	54.1911
1580.57	54.8556
1582.11	55.4694
1583.65	55.7317
1585.2	56.0028
1586.74	55.9563
1588.29	55.0428
1589.83	55.4758
1591.37	55.7618
1592.92	56.5646
1594.46	56.8849
1596	56.0155
1597.54	55.3038
1599.08	54.8385
1600.62	54.9484
1602.16	54.9869
1603.7	54.1849
1605.24	53.0855
1606.78	52.664
1608.32	52.1168
1609.86	51.8307
1611.4	51.5011
1612.94	51.176
1614.48	51.225
1616.02	50.8679
1617.56	50.7038
1619.09	50.9632
1620.63	50.9563
1622.17	51.0299
1623.71	50.5243
1625.24	50.9462
1626.78	51.0057
1628.31	51.42
1629.85	52.5369
1631.39	52.6964
1632.92	53.1828
1634.46	54.0598
1635.99	54.9081
1637.52	56.2539
1639.06	56.9856
1640.59	56.9227
1642.12	58.2501
1643.66	59.3984
1645.19	60.737
1646.72	61.3374
1648.25	62.4717
1649.79	63.7715
1651.32	64.3021
1652.85	64.1592
1654.38	64.9459
1655.91	65.6157
1657.44	65.144
1658.97	64.9834
1660.5	63.9714
1662.03	62.9806
1663.56	63.087
1665.09	62.5562
1666.62	62.1189
1668.15	61.0157
1669.67	59.6314
1671.2	58.2218
1672.73	55.7099
1674.26	53.8754
1675.79	52.211
1677.31	50.4767
1678.84	47.7303
1680.36	45.3499
1681.89	43.8294
1683.42	41.567
1684.94	39.38
1686.47	36.6568
1687.99	34.2392
1689.51	31.3185
1691.04	28.9858
1692.56	26.4644
1694.08	24.5286
1695.61	22.4014
1697.13	20.1037
1698.65	18.4194
1700.18	16.8958
1701.7	16.1064
1703.22	14.3714
1704.74	12.8099
1706.26	11.6649
1707.78	9.41055
1709.3	8.6156
1710.82	7.31079
1712.35	6.12085
1713.86	5.99042
1715.39	5.1618
1716.9	4.94201
1718.42	4.87064
1719.94	4.0459
1721.46	3.33225
1722.98	3.1281
1724.5	3.00226
1726.01	3.28451
1727.53	2.71817
1729.05	2.68899
1730.56	3.25145
1732.08	2.93095
1733.6	2.69175
1735.11	2.46746
1736.63	2.86848
1738.14	3.2311
1739.66	3.55081
1741.17	2.95031
1742.69	3.0031
1744.2	2.92185
1745.71	3.30359
1747.23	3.69378
1748.74	2.83418
1750.25	2.92647
1751.77	3.84143
1753.28	3.50138
1754.79	3.34122
1756.3	3.44614
1757.81	3.36395
1759.33	2.95535
1760.84	3.23807
1762.35	2.61227
1763.86	2.76366
1765.37	2.37344
1766.88	2.53047
1768.39	2.66585
1769.9	2.963
1771.41	2.4624
1772.91	2.42906
1774.42	2.51288
1775.93	2.47953
1777.44	2.52197
1778.95	2.09472
1780.45	1.88417
1781.96	2.15224
1783.47	1.8583
1784.97	2.5277
1786.48	2.6592
1787.99	3.19456
1789.49	3.65079
1791	3.09598
1792.5	3.2619
1794.01	2.92785
1795.51	3.45923
1797.01	3.72583
1798.52	4.39761
1800.02	4.26204
1801.52	3.93537
1803.03	3.46085
1804.53	3.88642
1806.03	3.74954
1807.54	3.74193
1809.04	4.32686
1810.54	4.20128
1812.04	4.55364
1813.54	4.38879
1815.04	4.07221
1816.54	3.95186
1818.04	3.44944
1819.54	3.21075
1821.04	3.12663
1822.54	3.04689
1824.04	2.89106
1825.54	3.00944
1827.04	2.89734
1828.54	1.87435
1830.03	1.69277
1831.53	1.41115
1833.03	1.24914
1834.53	1.81271
1836.02	1.97013
1837.52	1.46127
1839.02	1.49294
1840.51	1.50344
1842.01	2.26741
1843.5	2.21042
1845	2.15022
1846.49	2.12538
1847.99	2.15524
1849.48	2.38231
1850.98	2.76483
1852.47	2.56581
1853.96	2.35467
1855.46	2.9907
1856.95	3.10299
1858.44	3.45623
1859.94	3.54118
1861.43	3.53361
1862.92	3.51929
1864.41	3.29672
1865.9	2.84012
1867.39	2.86649
1868.88	3.42375
1870.37	3.37221
1871.86	3.08773
1873.35	3.64547
1874.84	3.15336
1876.33	2.82267
1877.82	3.42585
1879.31	3.45554
1880.8	3.50286
1882.29	3.68006
1882.58	3.42372
1884.08	2.79595
1885.57	3.41441
1887.06	2.76531
1888.56	2.73595
1890.05	2.23282
1891.54	2.08362
1893.04	2.31736
1894.53	2.15049
1896.02	2.63744
1897.51	2.09602
1899	2.12516
1900.5	1.91091
1901.99	1.99736
1903.48	1.95209
1904.97	2.29961
1906.46	3.16751
1907.95	3.48681
1909.44	3.50223
1910.93	3.63829
1912.42	3.97192
1913.91	4.20293
1915.4	4.33115
1916.88	3.81542
1918.37	3.73623
1919.86	3.83175
1921.35	3.4297
1922.84	3.2728
1924.32	3.19557
1925.81	3.28651
1927.3	4.00979
1928.78	4.21349
1930.27	4.2703
1931.75	4.24638
1933.24	3.67263
1934.72	3.97926
1936.21	3.87272
1937.69	3.46743
1939.18	3.49689
1940.66	4.2867
1942.15	3.90886
1943.63	3.71415
1945.11	3.81616
1946.6	3.79624
1948.08	3.50403
1949.56	3.39262
1951.04	3.71273
1952.53	3.35859
1954.01	3.55537
1955.49	3.45926
1956.97	3.52293
1958.45	3.66426
1959.93	4.19137
1961.41	4.07359
1962.89	4.4754
1964.37	4.17615
1965.85	4.49077
1967.33	4.42201
1968.81	4.45242
1970.29	4.45939
1971.77	3.95779
1973.24	4.81867
1974.72	4.80986
1976.2	4.7509
1977.68	4.87716
1979.15	5.4949
1980.63	5.7344
1982.11	5.16345
1983.58	5.21123
1985.06	5.11674
1986.53	5.1802
1988.01	5.3081
1989.48	5.74036
1990.96	5.57408
1992.43	5.5017
1993.91	5.57496
1995.38	5.1875
1996.86	5.13635
1998.33	5.5403
1999.8	5.48999
2001.27	5.5647
2002.75	5.12206
2004.22	5.25463
2005.69	4.73751
2007.16	4.36698
2008.64	4.47572
2010.11	4.10855
2011.58	3.83055
2013.05	4.27225
2014.52	3.98462
2015.99	3.1888
2017.46	3.81821
2018.93	3.75722
2020.4	3.84289
2021.87	3.77771
2023.34	3.55012
2024.8	3.89437
2026.27	4.09266
2027.74	3.59397
2029.21	3.58004
2030.68	3.03949
2032.14	2.99238
2033.61	3.06833
2035.08	3.34451
2036.54	2.90229
2038.01	2.78935
2039.48	2.87983
2040.94	2.87002
2042.41	2.69213
2043.87	3.20596
2045.34	3.75371
2046.8	4.41132
2048.27	4.13553
2049.73	4.34634
2051.19	4.95528
2052.66	5.13572
2054.12	5.15561
2055.58	5.32456
2057.05	5.52498
2058.51	5.9423
2059.97	6.20047
2061.43	6.43973
2062.9	6.78401
2064.36	6.70048
2065.82	6.78495
2067.28	7.09187
2068.74	6.76231
2070.2	6.95465
2071.66	7.42403
2073.12	7.44611
2074.58	7.38677
2076.04	7.03756
2077.5	7.26768
2078.95	6.78361
2080.41	7.05245
2081.87	7.4715
2083.33	8.16484
2084.79	8.49537
2086.24	8.5553
2087.7	8.14631
2089.16	8.27234
2090.61	8.87899
2092.07	8.86223
2093.53	8.53758
2094.98	8.93099
2096.44	9.42972
2097.89	9.99449
2099.35	10.3196
2100.8	10.2976
2102.26	10.756
2103.71	10.9732
2105.16	11.4942
2106.62	12.0642
2108.07	12.243
2109.53	12.428
2110.98	12.8515
2112.43	13.2867
2113.88	13.5766
2115.33	14.0473
2116.79	14.7797
2118.24	15.0149
2119.69	15.8851
2121.14	16.7324
2122.59	17.5392
2124.04	18.0318
2125.49	18.8235
2126.94	20.1862
2128.39	21.1141
2129.84	21.9034
2131.29	23.4455
2132.74	24.9405
2134.19	26.6312
2135.63	28.0684
