#Acq. time (s)=	45
#Accumulations=	2
#Range (cm-¹)=	200...3150
#Windows=	2
#Auto scanning=	Off
#Autofocus=	Off
#Macrospot=	Off
#AutoExposure=	Off
#Spike filter=	Multiple accum.
#Delay time (s)=	0
#Binning=	1
#Readout mode=	Signal
#DeNoise=	Off
#ICS correction=	On
#Dark correction=	Off
#Inst. Process=	Off
#Detector Gain=	Best Dynamic Range
#Detector ADC=	20 kHz       
#Detector temperature (°C)=	-69.85
#Instrument=	LabRAM HR Evol
#Detector=	Synapse
#Objective=	x100
#Grating=	600 gr/mm
#ND Filter=	100%
#Laser (nm)=	532 
#Hole=	100.021
#Range=	Auto
#Laser Pol.=	No
#Raman. Pol.=	No
#Laser Pol. (°)=	-0.0007625
#Raman Pol. (°)=	89.9995
#Collection=	Microscope
#StageXY=	Marzhauser
#StageZ=	Marzhauser
#X (µm)=	-1211.4
#Y (µm)=	1297
#Z (µm)=	578.1
#Full time(mm:ss)=	3:10
#Project=	
#Sample=	
#Site=	
#Title=	Mbcal_20_25_01_2x_45s_532 nm_x100_100%_600 gr_mm
#Remark=	
#Date=	18.07.2022 09:28
#Acquired=	18.07.2022 09:28:55
#Edit:Spike=	18.07.2022 09:30:48
#Edit:Spike=	18.07.2022 09:30:49
#Edit:Spike=	18.07.2022 09:30:49
#Edit:Spike=	18.07.2022 09:30:50
#Edit:Spike=	18.07.2022 09:30:51
#Edit:Spike=	18.07.2022 09:30:52
#Edit:Spike=	18.07.2022 09:30:53
#Edit:Spike=	18.07.2022 09:30:54
#Edit:Spike=	18.07.2022 09:30:54
#Edit:Spike=	18.07.2022 09:30:55
#Edit:Spike=	18.07.2022 09:30:56
#Edit:Spike=	18.07.2022 09:30:56
#Edit:Spike=	18.07.2022 09:30:57
#Edit:Spike=	18.07.2022 09:30:58
#Edit:Spike=	18.07.2022 09:30:59
#Edit:Spike=	18.07.2022 09:31:00
#Edit:Spike=	18.07.2022 09:31:01
#Edit:Spike=	18.07.2022 09:31:02
#Edit:Spike=	18.07.2022 09:31:02
#Edit:Spike=	18.07.2022 09:31:04
#Base:Fit=	10.08.2022 10:55:08
#Base:Sub=	10.08.2022 10:55:14
#Filter:Polynom=	16.08.2022 09:24:11
#Filter:Polynom=	16.08.2022 10:07:27
#AxisType[0]=Intens
#AxisUnit[0]=Cnt
#AxisType[1]=Spectr
#AxisUnit[1]=1/cm
200.419	20.2989
202.234	19.6325
204.048	17.5724
205.862	16.127
207.678	14.8485
209.491	13.7537
211.304	12.6136
213.116	11.0869
214.928	9.52487
216.742	9.39472
218.554	9.79034
220.365	8.36648
222.176	10.0952
223.986	11.1476
225.798	12.8482
227.608	14.825
229.417	15.9579
231.226	16.83
233.035	18.1481
234.843	18.4765
236.653	18.3279
238.46	18.6075
240.268	19.0524
242.074	19.2864
243.881	19.9965
245.687	21.5021
247.493	22.349
249.298	23.4183
251.103	25.0298
252.908	25.8854
254.715	27.8001
256.519	29.0206
258.322	30.7752
260.126	32.2694
261.929	36.3184
263.731	42.1793
265.534	46.7989
267.336	50.3756
269.137	53.5515
270.938	56.8253
272.739	60.5695
274.54	63.7778
276.34	66.7346
278.14	69.2142
279.939	72.0166
281.739	74.4007
283.537	77.7461
285.336	80.777
287.134	83.7213
288.932	86.3142
290.729	89.7515
292.526	93.0323
294.323	96.8767
296.117	100.783
297.913	104.836
299.709	107.037
301.504	109.63
303.299	112.017
305.093	114.949
306.888	117.727
308.682	119.876
310.475	121.076
312.268	123.034
314.059	122.415
315.852	122.861
317.644	121.518
319.436	119.499
321.227	117.582
323.018	115.441
324.807	112.913
326.597	111.585
328.387	109.174
330.177	106.717
331.967	105.118
333.753	102.675
335.542	99.9059
337.331	96.561
339.119	94.6938
340.906	91.04
342.691	88.248
344.478	85.8564
346.265	83.0483
348.051	81.2737
349.835	79.7521
351.621	78.28
353.406	75.6325
355.189	72.4578
356.973	69.7479
358.757	66.9576
360.541	64.0482
362.323	61.9184
364.106	60.3714
365.889	59.2743
367.669	57.9356
369.451	56.9795
371.233	55.042
373.012	53.5864
374.793	52.3835
376.574	50.9112
378.353	50.9329
380.133	52.6652
381.91	52.0596
383.69	51.5867
385.469	51.0323
387.245	48.9808
389.024	47.0246
390.8	46.0587
392.577	44.9155
394.353	43.4789
396.129	41.5769
397.906	40.2808
399.68	39.0074
401.456	36.9646
403.23	34.2414
405.005	32.9264
406.778	29.6898
408.552	28.2398
410.325	26.3211
412.099	25.4989
413.87	24.7981
415.643	24.0827
417.414	21.7284
419.187	20.8952
420.957	20.6195
422.728	17.7107
424.498	15.807
426.269	15.3231
428.038	14.8425
429.806	12.9891
431.576	12.7572
433.344	11.4452
435.114	10.6047
436.881	9.75037
438.649	8.53868
440.416	7.46548
442.182	7.33431
443.949	6.84378
445.715	8.1667
447.48	8.09815
449.247	8.62071
451.011	9.21765
452.777	8.99468
454.541	9.96035
456.304	8.42375
458.069	8.36268
459.832	7.68566
461.594	7.78213
463.358	7.82356
465.119	8.01695
466.881	8.84465
468.642	8.47162
470.404	7.94191
472.165	8.17766
473.925	7.20258
475.684	7.77111
477.445	8.60127
479.204	9.12729
480.963	8.66247
482.721	8.27512
484.481	8.0214
486.239	8.02499
487.996	7.97949
489.753	7.33587
491.511	7.75923
493.268	9.5219
495.023	9.67144
496.779	12.2684
498.534	12.3181
500.289	13.7107
502.046	14.3077
503.8	13.7383
505.554	14.2399
507.307	15.0558
509.06	15.3139
510.813	15.1839
512.566	16.3352
514.32	17.811
516.072	17.7115
517.823	16.8796
519.574	16.3299
521.325	16.9483
523.076	17.2859
524.826	17.404
526.576	17.236
528.325	18.2099
530.074	18.8424
531.823	19.8346
533.572	20.3974
535.32	19.1985
537.068	18.9654
538.815	18.2203
540.562	17.7939
542.309	17.4545
544.056	15.6047
545.802	15.9244
547.547	15.5867
549.293	15.6123
551.038	14.5759
552.783	15.0005
554.527	13.536
556.271	13.1832
558.015	12.9304
559.759	11.5864
561.502	11.1811
563.245	12.2362
564.987	12.3963
566.729	12.799
568.471	12.4126
570.213	12.7552
571.954	12.7506
573.693	12.3971
575.433	12.7335
577.173	13.0837
578.913	13.2111
580.652	11.4613
582.392	10.5509
584.13	10.6745
585.867	8.85594
587.605	8.71587
589.343	8.40253
591.08	8.05089
592.817	8.29086
594.552	8.50607
596.289	9.42336
598.025	10.7364
599.761	11.3474
601.496	11.978
603.229	11.4169
604.964	10.5234
606.699	11.0263
608.433	11.6442
610.165	11.6884
611.898	13.4804
613.631	13.458
615.364	14.2591
617.095	15.5752
618.827	16.577
620.559	15.0144
622.288	15.1024
624.02	16.1223
625.75	17.6195
627.479	18.4578
629.209	18.6808
630.939	20.1789
632.667	21.4976
634.396	21.5259
636.125	20.9311
637.851	21.7919
639.58	23.6259
641.305	22.2571
643.033	22.972
644.76	24.0699
646.485	24.7582
648.212	26.2797
649.936	27.5889
651.662	28.7249
653.388	29.3533
655.111	29.7977
656.836	30.4039
658.558	30.7887
660.283	32.1895
662.005	34.1113
663.728	35.8417
665.45	36.76
667.173	36.7757
668.893	38.6725
670.616	39.7352
672.336	39.8311
674.057	41.1745
675.777	42.7293
677.498	44.2024
679.216	45.7544
680.937	48.7149
682.655	51.5878
684.375	54.4584
686.092	56.9797
687.809	59.2594
689.528	59.4928
691.244	62.444
692.962	65.9279
694.678	68.1626
696.393	70.3225
698.111	72.2725
699.825	72.2163
701.54	73.8249
703.256	74.135
704.97	75.4747
706.685	76.1452
708.398	77.8304
710.111	77.8974
711.826	76.6249
713.538	75.4864
715.25	74.4632
716.961	74.3819
718.675	73.1743
720.386	71.8326
722.096	71.2749
723.808	70.9109
725.518	68.8536
727.228	66.4683
728.937	65.388
730.648	64.745
732.357	62.1676
734.065	61.5929
735.773	60.5858
737.483	60.0954
739.19	58.5824
740.897	57.6186
742.604	56.6864
744.31	54.4664
746.018	53.2398
747.724	51.6318
749.429	50.0398
751.134	48.0843
752.839	47.6513
754.544	47.4978
756.248	46.5578
757.953	46.9852
759.657	47.8739
761.36	48.9787
763.063	49.104
764.765	50.3849
766.468	53.1882
768.169	56.0581
769.871	58.0779
771.572	60.7742
773.273	61.2367
774.976	61.9446
776.676	65.2894
778.376	67.1846
780.075	69.136
781.775	70.3569
783.474	72.826
785.172	74.1826
786.871	75.6607
788.569	76.3713
790.266	78.9851
791.964	79.8663
793.661	79.7599
795.358	80.767
797.054	82.3273
798.75	83.2515
800.446	84.8431
802.141	86.6998
803.834	88.3649
805.529	88.5498
807.224	88.6887
808.918	88.0399
810.612	87.1131
812.305	86.5722
813.998	86.0682
815.691	86.0383
817.384	85.0311
819.076	85.5418
820.766	85.9573
822.458	85.7908
824.149	85.1897
825.84	84.8594
827.531	84.6496
829.221	83.2394
830.909	83.8094
832.599	82.9962
834.288	81.9553
835.977	81.2697
837.666	80.9967
839.353	79.1116
841.041	78.6481
842.729	78.862
844.416	76.4638
846.103	75.3002
847.788	72.8586
849.475	73.6931
851.161	72.867
852.845	71.2994
854.53	70.1724
856.216	69.4615
857.901	67.9217
859.583	67.4608
861.268	68.1113
862.952	67.2423
864.633	67.0966
866.317	65.9865
868	66.0479
869.681	64.3518
871.363	62.646
873.045	61.1013
874.725	61.0054
876.406	59.6167
878.088	58.2601
879.767	57.3299
881.447	56.8673
883.125	55.4228
884.805	55.5812
886.483	55.5808
888.162	54.1936
889.841	51.9058
891.518	51.0099
893.196	50.4277
894.872	49.6163
896.55	50.4355
898.225	50.5145
899.902	51.0313
901.577	51.0736
903.254	50.7482
904.928	51.7526
906.604	51.7057
908.277	51.5918
909.952	51.2408
911.625	51.0019
913.3	51.0575
914.972	51.477
916.646	51.1847
918.318	50.3276
919.991	51.0079
921.662	51.1073
923.333	50.1566
925.005	50.4436
926.675	48.5935
928.347	46.7632
930.017	47.0395
931.686	46.812
933.357	46.5965
935.025	45.0524
936.693	45.1553
938.363	44.7962
940.031	43.847
941.698	44.4487
943.367	43.5782
945.034	43.7059
946.7	41.8376
948.368	40.3077
950.034	39.0475
951.699	36.9596
953.367	35.4527
955.031	34.1714
956.696	32.5689
958.36	31.6441
960.026	30.0456
961.689	28.8266
963.353	27.9986
965.016	26.8191
966.68	26.3475
968.343	26.2075
970.005	25.5945
971.666	23.8383
973.328	23.5202
974.991	23.1423
976.652	21.9459
978.312	21.7673
979.972	21.048
981.632	20.6857
983.292	20.5515
984.953	19.5955
986.612	19.0942
988.27	19.1316
989.929	18.644
991.587	17.5996
993.244	17.6551
994.902	16.9316
996.559	17.0514
998.216	15.6895
999.872	15.4377
1001.53	14.9412
1003.19	14.9386
1004.84	13.668
1006.5	12.7216
1008.15	14.1165
1009.81	13.644
1011.46	14.841
1013.11	15.0905
1014.77	15.3015
1016.42	14.2419
1018.07	14.2184
1019.73	15.4715
1021.38	15.5581
1023.03	16.1263
1024.68	17.4
1026.34	16.139
1027.99	15.306
1029.64	13.766
1031.29	12.9288
1032.94	14.8099
1034.59	14.332
1036.24	14.4056
1037.89	13.6222
1039.53	13.3061
1041.18	13.3916
1042.83	13.2342
1044.48	13.6928
1046.13	14.498
1047.77	13.8223
1049.42	14.8124
1051.07	13.665
1052.71	13.3318
1054.36	13.2997
1056	13.621
1057.65	13.529
1059.3	14.1029
1060.94	15.0399
1062.59	16.318
1064.23	18.0405
1065.87	19.2397
1067.52	20.3195
1069.16	21.7831
1070.8	22.913
1072.44	24.332
1074.09	25.2713
1075.73	26.4025
1077.37	27.0919
1079.01	27.9552
1080.65	28.8559
1082.29	29.8282
1083.93	29.5823
1085.57	29.6342
1087.21	31.5188
1088.85	33.0545
1090.49	34.2973
1092.13	34.7137
1093.77	34.8591
1095.41	35.249
1097.04	35.8444
1098.68	36.967
1100.32	37.1651
1101.95	37.5837
1103.59	35.9681
1105.23	35.6099
1106.86	34.2956
1108.5	33.5279
1110.13	32.8278
1111.77	32.2813
1113.4	32.1731
1115.04	31.8981
1116.67	30.1991
1118.31	28.5564
1119.94	27.0349
1121.57	26.1119
1123.2	24.6779
1124.84	23.8762
1126.47	23.4297
1128.1	22.0892
1129.73	20.4613
1131.36	20.0457
1132.99	19.2124
1134.62	18.3998
1136.25	18.2567
1137.88	17.7506
1139.51	17.3586
1141.14	18.3418
1142.77	17.9755
1144.4	18.2941
1146.03	17.3584
1147.66	17.8874
1149.28	17.4443
1150.91	17.1546
1152.54	15.814
1154.16	14.9026
1155.79	12.998
1157.42	11.2943
1159.04	10.2159
1160.67	8.718
1162.29	8.55879
1163.92	7.3727
1165.54	6.57729
1167.17	6.42577
1168.79	6.67751
1170.41	6.13306
1172.04	4.67021
1173.66	5.80769
1175.28	4.88714
1176.9	4.9825
1178.53	4.25977
1180.15	5.42152
1181.77	3.10097
1183.39	4.2447
1185.01	4.70371
1186.63	5.30916
1188.25	5.28174
1189.87	6.59007
1191.49	6.07342
1193.11	5.97933
1194.73	5.193
1196.35	5.51833
1197.96	6.65643
1199.58	6.69015
1201.2	6.57692
1202.82	8.40904
1204.43	9.38864
1206.05	9.6156
1207.66	10.182
1209.28	9.79797
1210.9	11.0482
1212.51	12.1904
1214.13	12.3911
1215.74	12.5924
1217.36	12.2085
1218.97	12.3892
1220.58	14.0314
1222.2	14.6809
1223.81	15.0736
1225.42	16.067
1227.04	16.315
1228.65	17.3182
1230.26	17.491
1231.87	16.8541
1233.48	16.8427
1235.1	16.2805
1236.71	16.4121
1238.32	16.4675
1239.93	16.3235
1241.53	17.048
1243.14	18.2412
1244.75	18.4835
1246.36	19.2748
1247.97	19.448
1249.58	20.5905
1251.19	21.0126
1252.8	20.8601
1254.4	22.262
1256.01	21.7811
1257.62	23.4052
1259.22	24.1422
1260.83	24.7888
1262.43	24.0076
1264.04	25.54
1265.64	26.2081
1267.25	25.615
1268.85	26.9183
1270.46	28.2585
1272.06	28.4838
1273.66	29.8688
1275.27	30.6968
1276.87	33.0444
1278.48	33.2853
1280.08	33.9946
1281.68	34.514
1283.28	36.2691
1284.88	37.1912
1286.48	37.8747
1288.08	39.1095
1289.68	39.9999
1291.28	41.3818
1292.88	41.9472
1294.48	42.4119
1296.08	42.2892
1297.68	43.6516
1299.28	46.2685
1300.88	47.4086
1302.48	48.1378
1304.07	49.3496
1305.67	49.4718
1307.27	49.3589
1308.87	50.3729
1310.46	50.7637
1312.06	50.2305
1313.65	51.6335
1315.25	50.97
1316.85	51.3403
1318.44	50.9492
1320.03	51.7561
1321.63	53.3234
1323.22	53.0351
1324.82	53.6096
1326.41	53.4568
1328	53.0142
1329.6	53.1324
1331.19	52.1671
1332.78	51.5726
1334.37	51.6519
1335.96	51.4803
1337.56	51.4851
1339.15	49.6685
1340.74	50.0741
1342.33	49.4741
1343.92	50.1063
1345.51	50.5615
1347.1	49.6833
1348.69	50.6495
1350.28	50.7254
1351.86	49.3862
1353.45	48.4534
1355.04	47.6153
1356.63	46.4283
1358.21	45.4304
1359.8	45.8044
1361.39	45.3624
1362.97	45.7744
1364.56	44.7797
1366.15	43.8868
1367.73	43.2643
1369.32	41.9415
1370.9	40.9415
1372.49	40.7858
1374.07	40.0012
1375.65	40.1778
1377.24	41.4081
1378.82	40.5007
1380.41	39.4641
1381.99	40.5395
1383.57	40.6618
1385.15	40.639
1386.73	40.0776
1388.32	40.5042
1389.9	39.764
1391.48	39.5053
1393.06	40.2772
1394.64	39.1175
1396.22	39.6913
1397.8	39.217
1399.38	39.7871
1400.96	39.7369
1402.54	39.132
1404.11	39.4986
1405.69	39.164
1407.27	39.191
1408.85	40.8772
1410.43	41.0042
1412	42.2635
1413.58	42.9622
1415.16	44.184
1416.73	46.008
1418.31	46.9665
1419.88	48.6209
1421.46	48.8136
1423.03	51.9156
1424.61	53.5886
1426.18	55.0986
1427.76	57.373
1429.33	60.2997
1430.9	60.649
1432.48	62.0073
1434.05	63.7867
1435.62	65.8851
1437.2	68.032
1438.77	69.2155
1440.34	70.4619
1441.91	71.4517
1443.48	71.9488
1445.05	73.2147
1446.62	73.0967
1448.19	73.258
1449.76	74.0915
1451.33	75.744
1452.9	77.7717
1454.47	79.1082
1456.04	80.1322
1457.61	81.0257
1459.17	82.2594
1460.74	83.6538
1462.31	83.9887
1463.88	83.9843
1465.44	83.7456
1467.01	85.3163
1468.58	85.8727
1470.14	86.2778
1471.71	86.0658
1473.27	86.1374
1474.84	86.6278
1476.4	85.6091
1477.97	86.4045
1479.53	85.4055
1481.1	85.4899
1482.66	85.8156
1484.22	86.5641
1485.78	86.3207
1487.35	85.0816
1488.91	82.5244
1490.47	81.6973
1492.03	79.9381
1493.59	79.2071
1495.16	77.6165
1496.72	75.4679
1498.28	73.9042
1499.84	72.3112
1501.4	72.4168
1502.96	70.2724
1504.52	68.1401
1506.08	66.3362
1507.64	63.5419
1509.19	59.0206
1510.75	57.4609
1512.31	55.8645
1513.87	53.7144
1515.42	50.0333
1516.98	47.2233
1518.54	45.3653
1520.1	42.7498
1521.65	41.4816
1523.21	39.5505
1524.76	37.8405
1526.32	36.6274
1527.87	36.328
1529.43	36.4792
1530.98	36.7418
1532.54	35.038
1534.09	34.9667
1535.64	34.4147
1537.2	33.6911
1538.75	33.8226
1540.3	34.5369
1541.85	35.3197
1543.41	36.2256
1544.96	37.5104
1546.51	36.3613
1548.06	35.1921
1549.61	35.487
1551.16	36.0856
1552.71	35.8942
1554.26	35.4523
1555.81	35.391
1557.36	36.0811
1558.91	37.1595
1560.46	37.9508
1562.01	37.7109
1563.56	36.5936
1565.1	36.245
1566.65	36.961
1568.2	37.3623
1569.75	37.9227
1571.29	39.9285
1572.84	40.6762
1574.38	42.0782
1575.93	42.2051
1577.48	43.8882
1579.02	45.6965
1580.57	46.3148
1582.11	48.1312
1583.65	49.4438
1585.2	50.0799
1586.74	50.7389
1588.29	53.2258
1589.83	53.3228
1591.37	53.0248
1592.92	53.6504
1594.46	54.2744
1596	55.5427
1597.54	56.4726
1599.08	57.332
1600.62	56.322
1602.16	55.8819
1603.7	56.1798
1605.24	56.8476
1606.78	55.7174
1608.32	54.5293
1609.86	52.9638
1611.4	52.6694
1612.94	51.9863
1614.48	50.2596
1616.02	50.1698
1617.56	49.349
1619.09	48.6173
1620.63	47.807
1622.17	46.0144
1623.71	44.7664
1625.24	43.1707
1626.78	42.5527
1628.31	40.5678
1629.85	39.0619
1631.39	38.851
1632.92	39.0437
1634.46	39.9919
1635.99	40.2028
1637.52	39.6961
1639.06	38.79
1640.59	38.8076
1642.12	38.5812
1643.66	38.0592
1645.19	36.7794
1646.72	37.6779
1648.25	38.0475
1649.79	36.9939
1651.32	36.8819
1652.85	36.7486
1654.38	36.7469
1655.91	35.9274
1657.44	35.6859
1658.97	35.622
1660.5	34.638
1662.03	34.063
1663.56	34.4888
1665.09	35.3755
1666.62	33.649
1668.15	32.6166
1669.67	31.7168
1671.2	30.0576
1672.73	29.1705
1674.26	29.0487
1675.79	27.531
1677.31	26.1898
1678.84	25.1123
1680.36	24.7247
1681.89	23.6317
1683.42	22.1723
1684.94	22.3732
1686.47	21.6969
1687.99	21.0673
1689.51	19.7061
1691.04	19.224
1692.56	19.9679
1694.08	18.9876
1695.61	18.5535
1697.13	18.3032
1698.65	17.3431
1700.18	15.6449
1701.7	13.9062
1703.22	13.254
1704.74	12.7224
1706.26	13.0357
1707.78	12.516
1709.3	12.295
1710.82	11.7988
1712.35	11.1871
1713.86	9.80166
1715.39	9.39675
1716.9	8.50785
1718.42	7.41562
1719.94	6.73152
1721.46	5.40006
1722.98	5.15491
1724.5	4.67152
1726.01	4.18596
1727.53	4.32347
1729.05	3.90268
1730.56	2.84165
1732.08	3.52831
1733.6	4.23417
1735.11	4.61439
1736.63	4.42428
1738.14	4.14674
1739.66	4.85085
1741.17	4.56194
1742.69	4.29482
1744.2	4.5431
1745.71	4.61111
1747.23	5.10012
1748.74	5.95947
1750.25	6.63981
1751.77	5.85916
1753.28	6.35304
1754.79	6.22861
1756.3	6.04414
1757.81	6.38054
1759.33	6.04807
1760.84	6.2009
1762.35	5.54527
1763.86	5.63139
1765.37	5.36938
1766.88	6.03373
1768.39	5.35619
1769.9	4.92878
1771.41	4.61725
1772.91	5.08026
1774.42	4.22089
1775.93	3.49716
1777.44	3.73601
1778.95	2.91978
1780.45	2.72387
1781.96	2.28079
1783.47	2.10021
1784.97	2.584
1786.48	2.09391
1787.99	1.52061
1789.49	1.70515
1791	1.83622
1792.5	1.11288
1794.01	1.09465
1795.51	0.109086
1797.01	-0.986638
1798.52	-0.728971
1800.02	0.198709
1801.52	-0.181753
1803.03	0.0713349
1804.53	-0.661004
1806.03	-0.150614
1807.54	-0.552056
1809.04	-0.435869
1810.54	-0.0273628
1812.04	0.124581
1813.54	1.30798
1815.04	2.91146
1816.54	3.39743
1818.04	3.64564
1819.54	2.95918
1821.04	3.06741
1822.54	2.97416
1824.04	3.74505
1825.54	3.25914
1827.04	3.26114
1828.54	3.43896
1830.03	2.57745
1831.53	2.58422
1833.03	3.26556
1834.53	3.74469
1836.02	4.25072
1837.52	4.25781
1839.02	4.12524
1840.51	4.42957
1842.01	4.51852
1843.5	4.86444
1845	5.30476
1846.49	5.50114
1847.99	5.91492
1849.48	5.13429
1850.98	5.81329
1852.47	5.52039
1853.96	5.39479
1855.46	5.9272
1856.95	5.04772
1858.44	4.7629
1859.94	5.10835
1861.43	4.89918
1862.92	4.61105
1864.41	4.87982
1865.9	5.122
1867.39	5.39749
1868.88	5.75961
1870.37	5.32352
1871.86	4.94276
1873.35	5.03982
1874.84	6.17783
1876.33	5.79262
1877.82	6.143
1879.31	6.875
1880.8	7.53964
1882.29	7.34013
1882.58	8.16642
1884.08	7.87367
1885.57	9.06559
1887.06	9.44958
1888.56	9.34069
1890.05	8.48555
1891.54	8.44169
1893.04	8.80045
1894.53	9.16341
1896.02	9.32291
1897.51	9.74467
1899	9.68356
1900.5	9.79211
1901.99	9.76187
1903.48	9.69062
1904.97	9.65099
1906.46	10.0803
1907.95	10.1322
1909.44	9.9252
1910.93	9.77519
1912.42	9.66602
1913.91	10.3876
1915.4	10.8157
1916.88	11.4201
1918.37	11.7479
1919.86	11.1553
1921.35	11.8711
1922.84	11.6535
1924.32	12.202
1925.81	11.4407
1927.3	11.1271
1928.78	10.2324
1930.27	10.0803
1931.75	9.71837
1933.24	10.0423
1934.72	9.34244
1936.21	9.0849
1937.69	9.43516
1939.18	9.75403
1940.66	8.82986
1942.15	7.37476
1943.63	6.58182
1945.11	6.41689
1946.6	7.3126
1948.08	7.77481
1949.56	6.74747
1951.04	6.4382
1952.53	6.39167
1954.01	5.11404
1955.49	3.92198
1956.97	2.99058
1958.45	2.85742
1959.93	3.66524
1961.41	2.97509
1962.89	2.86517
1964.37	2.48842
1965.85	3.57865
1967.33	3.9607
1968.81	4.73746
1970.29	5.49809
1971.77	5.70805
1973.24	5.46933
1974.72	4.64345
1976.2	5.39333
1977.68	5.14096
1979.15	5.65525
1980.63	6.04375
1982.11	5.54047
1983.58	6.39489
1985.06	6.25903
1986.53	6.27709
1988.01	7.69845
1989.48	8.42879
1990.96	8.40814
1992.43	8.30695
1993.91	7.54638
1995.38	7.80632
1996.86	7.42383
1998.33	8.09701
1999.8	7.94695
2001.27	8.05278
2002.75	7.07865
2004.22	6.50269
2005.69	5.12944
2007.16	5.56154
2008.64	5.12103
2010.11	5.4066
2011.58	6.28705
2013.05	6.2284
2014.52	6.00861
2015.99	6.39372
2017.46	6.75587
2018.93	6.82374
2020.4	5.6875
2021.87	3.75286
2023.34	3.42513
2024.8	3.27974
2026.27	3.12036
2027.74	2.51085
2029.21	3.28278
2030.68	4.35325
2032.14	5.45725
2033.61	6.16085
2035.08	6.75279
2036.54	6.62439
2038.01	7.14635
2039.48	8.08537
2040.94	7.90715
2042.41	8.41307
2043.87	8.09424
2045.34	8.27921
2046.8	8.67829
2048.27	9.79262
2049.73	10.6526
2051.19	10.4506
2052.66	10.9547
2054.12	10.9019
2055.58	11.5149
2057.05	12.0476
2058.51	11.6705
2059.97	11.3648
2061.43	11.3969
2062.9	11.3873
2064.36	11.0653
2065.82	10.3555
2067.28	9.98334
2068.74	10.4617
2070.2	10.7746
2071.66	10.8508
