#Acq. time (s)=	45
#Accumulations=	2
#Range (cm-¹)=	200...3150
#Windows=	2
#Auto scanning=	Off
#Autofocus=	Off
#Macrospot=	Off
#AutoExposure=	Off
#Spike filter=	Multiple accum.
#Delay time (s)=	0
#Binning=	1
#Readout mode=	Signal
#DeNoise=	Off
#ICS correction=	On
#Dark correction=	Off
#Inst. Process=	Off
#Detector Gain=	Best Dynamic Range
#Detector ADC=	20 kHz       
#Detector temperature (°C)=	-69.85
#Instrument=	LabRAM HR Evol
#Detector=	Synapse
#Objective=	x100
#Grating=	600 gr/mm
#ND Filter=	100%
#Laser (nm)=	532 
#Hole=	100.021
#Range=	Auto
#Laser Pol.=	No
#Raman. Pol.=	No
#Laser Pol. (°)=	-0.0007625
#Raman Pol. (°)=	89.9995
#Collection=	Microscope
#StageXY=	Marzhauser
#StageZ=	Marzhauser
#X (µm)=	-1186.3
#Y (µm)=	1245.3
#Z (µm)=	578
#Full time(mm:ss)=	3:18
#Project=	
#Sample=	
#Site=	
#Title=	Mbcal_20_25_13_2x_45s_532 nm_x100_100%_600 gr_mm
#Remark=	
#Date=	18.07.2022 10:21
#Acquired=	18.07.2022 10:21:18
#Base:Fit=	10.08.2022 10:55:08
#Base:Sub=	10.08.2022 10:55:14
#Filter:Polynom=	16.08.2022 10:07:28
#AxisType[0]=Intens
#AxisUnit[0]=Cnt
#AxisType[1]=Spectr
#AxisUnit[1]=1/cm
200.419	-3.02005
202.234	0.146102
204.048	2.53599
205.862	3.90378
207.678	5.04417
209.491	5.87673
211.304	6.66516
213.116	7.03319
214.928	7.50821
216.742	8.09158
218.554	7.51932
220.365	7.7261
222.176	6.89757
223.986	7.77198
225.798	9.0899
227.608	10.2982
229.417	10.236
231.226	11.2972
233.035	11.5884
234.843	11.7588
236.653	11.1387
238.46	10.7665
240.268	10.1759
242.074	10.709
243.881	11.0956
245.687	11.3303
247.493	11.6603
249.298	11.0427
251.103	11.3975
252.908	12.2729
254.715	13.1078
256.519	12.5967
258.322	14.1553
260.126	14.1549
261.929	15.7497
263.731	15.9535
265.534	17.6511
267.336	19.2928
269.137	21.7039
270.938	21.6407
272.739	22.136
274.54	22.0261
276.34	22.9914
278.14	22.6653
279.939	23.8812
281.739	24.1345
283.537	24.3607
285.336	24.6419
287.134	25.1448
288.932	23.6315
290.729	23.7347
292.526	23.0269
294.323	22.8796
296.117	22.7292
297.913	22.5993
299.709	22.7259
301.504	22.0515
303.299	21.5135
305.093	21.5565
306.888	21.6439
308.682	22.1485
310.475	24.0974
312.268	23.3559
314.059	23.6119
315.852	23.532
317.644	22.4983
319.436	21.1681
321.227	21.5062
323.018	20.5903
324.807	18.9374
326.597	17.736
328.387	17.9499
330.177	18.8113
331.967	19.9773
333.753	19.6822
335.542	19.4691
337.331	19.7254
339.119	19.7678
340.906	20.7478
342.691	22.0064
344.478	22.8037
346.265	23.2101
348.051	24.1593
349.835	24.1422
351.621	25.1841
353.406	25.1506
355.189	25.5513
356.973	26.2975
358.757	24.7577
360.541	23.5169
362.323	23.5301
364.106	22.7763
365.889	22.34
367.669	23.0068
369.451	22.9129
371.233	22.964
373.012	21.9187
374.793	21.3496
376.574	21.0017
378.353	21.0412
380.133	21.276
381.91	20.9956
383.69	22.6439
385.469	23.0261
387.245	23.2496
389.024	23.4213
390.8	23.786
392.577	24.7502
394.353	24.7307
396.129	24.7675
397.906	24.437
399.68	23.3458
401.456	20.6452
403.23	20.6087
405.005	20.0309
406.778	18.3163
408.552	18.0892
410.325	18.5017
412.099	17.9522
413.87	17.6855
415.643	17.9804
417.414	18.1556
419.187	17.5818
420.957	16.0045
422.728	14.9964
424.498	15.2734
426.269	15.3507
428.038	14.0067
429.806	13.6654
431.576	13.1201
433.344	11.3776
435.114	10.8347
436.881	9.82068
438.649	7.93417
440.416	6.53307
442.182	5.44081
443.949	4.92555
445.715	4.93046
447.48	3.10224
449.247	3.09799
451.011	3.52608
452.777	3.38439
454.541	3.97499
456.304	4.58586
458.069	3.7531
459.832	5.95153
461.594	5.03224
463.358	6.22301
465.119	6.29752
466.881	6.71755
468.642	7.25985
470.404	8.26012
472.165	9.73146
473.925	10.3574
475.684	10.9753
477.445	12.68
479.204	13.3337
480.963	13.1824
482.721	13.3007
484.481	13.816
486.239	14.7385
487.996	15.2397
489.753	15.3525
491.511	16.5987
493.268	16.5631
495.023	18.3969
496.779	19.7381
498.534	21.0053
500.289	22.1028
502.046	22.4565
503.8	21.9703
505.554	22.7445
507.307	22.9858
509.06	24.799
510.813	25.8062
512.566	26.0911
514.32	25.5112
516.072	24.361
517.823	25.3701
519.574	25.8611
521.325	25.9676
523.076	24.9578
524.826	24.5133
526.576	24.6571
528.325	23.6942
530.074	24.5042
531.823	24.6246
533.572	25.2556
535.32	24.514
537.068	24.721
538.815	25.126
540.562	24.6953
542.309	24.8834
544.056	24.3348
545.802	24.1685
547.547	24.6221
549.293	23.2876
551.038	22.798
552.783	21.5987
554.527	21.3188
556.271	21.3932
558.015	20.9025
559.759	21.0059
561.502	20.8365
563.245	20.1332
564.987	19.7322
566.729	17.5555
568.471	16.9627
570.213	15.9694
571.954	14.1089
573.693	13.4844
575.433	13.2217
577.173	12.6563
578.913	12.8096
580.652	12.4757
582.392	12.0529
584.13	11.2228
585.867	10.4595
587.605	9.85483
589.343	9.49662
591.08	9.06269
592.817	8.94811
594.552	8.0392
596.289	7.84858
598.025	6.11958
599.761	5.12573
601.496	4.98667
603.229	4.78936
604.964	4.12036
606.699	3.757
608.433	2.5862
610.165	2.22365
611.898	2.23786
613.631	1.65627
615.364	1.72043
617.095	3.36882
618.827	2.83919
620.559	2.81486
622.288	3.07251
624.02	3.15775
625.75	3.38537
627.479	3.9287
629.209	4.9485
630.939	4.03635
632.667	4.11816
634.396	4.39869
636.125	4.91598
637.851	4.6082
639.58	5.91942
641.305	7.16662
643.033	8.52295
644.76	9.38928
646.485	10.2752
648.212	11.4746
649.936	11.3114
651.662	10.7251
653.388	10.4285
655.111	11.2673
656.836	11.679
658.558	12.4168
660.283	14.0359
662.005	15.0305
663.728	14.4144
665.45	15.0096
667.173	16.0737
668.893	16.4091
670.616	17.3603
672.336	16.9989
674.057	17.5323
675.777	18.407
677.498	18.0783
679.216	18.7088
680.937	19.7851
682.655	21.0245
684.375	20.8346
686.092	20.8828
687.809	21.9212
689.528	21.6341
691.244	21.2715
692.962	22.2296
694.678	22.797
696.393	22.9268
698.111	23.8676
699.825	24.4229
701.54	25.5992
703.256	25.8204
704.97	26.4001
706.685	26.3015
708.398	27.1772
710.111	26.9421
711.826	28.9776
713.538	30.8411
715.25	31.1407
716.961	30.5784
718.675	31.0402
720.386	31.2473
722.096	31.5372
723.808	31.5529
725.518	32.6547
727.228	32.0155
728.937	31.3491
730.648	31.5982
732.357	32.4415
734.065	32.389
735.773	31.9551
737.483	32.053
739.19	31.9361
740.897	31.7952
742.604	31.4737
744.31	30.7151
746.018	30.3539
747.724	30.8764
749.429	31.3
751.134	32.2923
752.839	33.2126
754.544	32.8124
756.248	33.2625
757.953	33.3749
759.657	34.0192
761.36	35.8887
763.063	35.8699
764.765	37.6085
766.468	37.8589
768.169	37.754
769.871	38.4877
771.572	39.3523
773.273	41.3532
774.976	42.1908
776.676	44.0978
778.376	45.2364
780.075	46.3263
781.775	48.3705
783.474	50.1367
785.172	50.6022
786.871	52.3993
788.569	53.9332
790.266	55.4272
791.964	55.6115
793.661	57.0798
795.358	57.5693
797.054	59.0799
798.75	58.5378
800.446	58.138
802.141	58.3729
803.834	58.4025
805.529	59.6604
807.224	60.2193
808.918	61.1283
810.612	62.6427
812.305	63.4615
813.998	63.467
815.691	64.7163
817.384	64.2371
819.076	63.8952
820.766	64.3888
822.458	63.3533
824.149	62.1786
825.84	62.5414
827.531	62.901
829.221	64.2825
830.909	66.4521
832.599	66.8434
834.288	66.821
835.977	67.525
837.666	68.0681
839.353	68.1459
841.041	67.111
842.729	66.7801
844.416	65.9294
846.103	66.9425
847.788	66.704
849.475	66.6757
851.161	65.5183
852.845	65.0527
854.53	65.0709
856.216	63.846
857.901	64.1708
859.583	63.343
861.268	62.1487
862.952	61.0141
864.633	60.0456
866.317	60.5393
868	57.8239
869.681	57.1991
871.363	56.0209
873.045	53.9625
874.725	51.9825
876.406	49.6426
878.088	48.9059
879.767	47.1503
881.447	46.1598
883.125	44.6829
884.805	43.8582
886.483	42.9428
888.162	41.8051
889.841	40.716
891.518	39.2898
893.196	38.3103
894.872	36.9514
896.55	35.7211
898.225	33.8499
899.902	34.5937
901.577	33.6666
903.254	33.9856
904.928	32.7115
906.604	32.1333
908.277	32.6899
909.952	33.4625
911.625	33.5315
913.3	33.7974
914.972	33.6237
916.646	32.6952
918.318	33.6841
919.991	33.6919
921.662	32.8389
923.333	33.0983
925.005	32.415
926.675	33.8129
928.347	33.8948
930.017	34.6355
931.686	33.5334
933.357	32.1526
935.025	32.1043
936.693	33.2206
938.363	33.3036
940.031	32.091
941.698	31.9609
943.367	30.7136
945.034	30.3926
946.7	30.1864
948.368	30.6203
950.034	29.7433
951.699	28.0338
953.367	27.7469
955.031	26.3014
956.696	25.44
958.36	24.5076
960.026	24.3755
961.689	23.9923
963.353	23.2187
965.016	22.1619
966.68	22.0832
968.343	21.8983
970.005	20.5733
971.666	20.0319
973.328	19.6707
974.991	18.4203
976.652	17.4307
978.312	16.7884
979.972	17.0793
981.632	16.3768
983.292	16.6182
984.953	16.0522
986.612	15.8217
988.27	15.3855
989.929	14.9828
991.587	14.2735
993.244	13.2969
994.902	13.3905
996.559	13.4661
998.216	13.1771
999.872	13.0446
1001.53	13.5962
1003.19	13.021
1004.84	14.3159
1006.5	15.0493
1008.15	14.5999
1009.81	14.5902
1011.46	14.0945
1013.11	13.6529
1014.77	15.0787
1016.42	14.9823
1018.07	15.563
1019.73	16.1435
1021.38	15.2261
1023.03	15.539
1024.68	17.1875
1026.34	17.2481
1027.99	17.8956
1029.64	18.4155
1031.29	19.2214
1032.94	17.6207
1034.59	18.4182
1036.24	18.5695
1037.89	19.6382
1039.53	19.5947
1041.18	19.262
1042.83	20.6905
1044.48	21.2158
1046.13	21.3307
1047.77	20.6401
1049.42	19.9544
1051.07	18.8285
1052.71	17.3632
1054.36	18.0515
1056	17.0132
1057.65	15.9752
1059.3	15.3328
1060.94	14.5398
1062.59	14.5063
1064.23	13.6519
1065.87	13.4312
1067.52	12.9918
1069.16	11.3735
1070.8	10.5831
1072.44	9.47188
1074.09	10.7165
1075.73	10.4026
1077.37	10.6212
1079.01	9.80737
1080.65	9.06484
1082.29	9.0353
1083.93	9.25416
1085.57	8.95538
1087.21	8.73522
1088.85	7.70522
1090.49	7.64507
1092.13	8.18138
1093.77	9.09009
1095.41	9.49031
1097.04	9.46649
1098.68	8.90688
1100.32	9.74634
1101.95	11.0866
1103.59	12.9685
1105.23	13.6322
1106.86	14.3008
1108.5	14.5444
1110.13	15.8886
1111.77	16.3019
1113.4	16.7801
1115.04	17.5234
1116.67	18.0698
1118.31	17.304
1119.94	17.1198
1121.57	16.7077
1123.2	17.4455
1124.84	18.0731
1126.47	17.7283
1128.1	16.0223
1129.73	14.686
1131.36	14.0428
1132.99	14.7377
1134.62	15.0168
1136.25	15.403
1137.88	13.2494
1139.51	13.3191
1141.14	12.3905
1142.77	12.1889
1144.4	12.7778
1146.03	11.3771
1147.66	10.4382
1149.28	10.9204
1150.91	10.082
1152.54	10.3677
1154.16	10.3991
1155.79	9.92551
1157.42	8.78492
1159.04	8.14085
1160.67	6.81497
1162.29	6.77625
1163.92	6.49317
1165.54	6.18707
1167.17	5.50422
1168.79	5.8237
1170.41	5.84445
1172.04	5.49907
1173.66	5.40571
1175.28	4.3248
1176.9	3.84071
1178.53	2.90449
1180.15	4.07804
1181.77	4.25197
1183.39	5.01292
1185.01	5.36608
1186.63	5.1879
1188.25	5.11259
1189.87	4.87519
1191.49	4.12778
1193.11	3.24232
1194.73	3.61399
1196.35	2.86315
1197.96	2.72394
1199.58	3.11444
1201.2	3.51975
1202.82	4.62136
1204.43	5.13227
1206.05	6.36999
1207.66	7.43294
1209.28	8.06535
1210.9	9.16986
1212.51	10.8691
1214.13	11.6054
1215.74	12.1139
1217.36	12.2841
1218.97	11.965
1220.58	14.1686
1222.2	14.1671
1223.81	15.7066
1225.42	16.2467
1227.04	16.6588
1228.65	18.0523
1230.26	20.5567
1231.87	20.6689
1233.48	22.6195
1235.1	23.7345
1236.71	23.8769
1238.32	24.3145
1239.93	23.7512
1241.53	24.1431
1243.14	25.7339
1244.75	25.9202
1246.36	26.068
1247.97	26.0567
1249.58	27.2699
1251.19	27.4069
1252.8	26.8772
1254.4	27.376
1256.01	27.6009
1257.62	28.1101
1259.22	27.8335
1260.83	29.2375
1262.43	29.4429
1264.04	30.2642
1265.64	30.9558
1267.25	31.3639
1268.85	31.0765
1270.46	31.3256
1272.06	32.2703
1273.66	33.5612
1275.27	34.2399
1276.87	35.3375
1278.48	37.2136
1280.08	37.6339
1281.68	38.8044
1283.28	40.513
1284.88	41.7725
1286.48	43.8897
1288.08	44.3738
1289.68	44.7876
1291.28	45.852
1292.88	47.0263
1294.48	47.7707
1296.08	47.8718
1297.68	48.1188
1299.28	48.6699
1300.88	50.0824
1302.48	50.9635
1304.07	51.6707
1305.67	51.855
1307.27	53.1774
1308.87	53.5045
1310.46	53.4446
1312.06	52.839
1313.65	52.7999
1315.25	51.3773
1316.85	51.0147
1318.44	51.7403
1320.03	51.1248
1321.63	51.8454
1323.22	52.2273
1324.82	52.0661
1326.41	52.2728
1328	52.1276
1329.6	52.3481
1331.19	50.996
1332.78	49.734
1334.37	50.3165
1335.96	49.9844
1337.56	49.1004
1339.15	48.9955
1340.74	49.6434
1342.33	49.2251
1343.92	48.6449
1345.51	48.5665
1347.1	47.7141
1348.69	46.5901
1350.28	46.162
1351.86	45.7022
1353.45	44.8731
1355.04	44.0588
1356.63	43.3047
1358.21	43.0321
1359.8	41.1659
1361.39	40.7739
1362.97	39.8711
1364.56	39.5061
1366.15	39.0309
1367.73	38.5163
1369.32	37.4266
1370.9	37.2162
1372.49	36.0026
1374.07	34.6172
1375.65	33.7452
1377.24	33.6301
1378.82	33.2897
1380.41	31.9518
1381.99	31.6546
1383.57	30.4959
1385.15	29.0874
1386.73	28.3799
1388.32	26.7229
1389.9	25.7869
1391.48	25.5079
1393.06	25.2682
1394.64	25.6496
1396.22	26.5263
1397.8	26.7202
1399.38	27.0457
1400.96	28.8336
1402.54	28.9315
1404.11	29.5489
1405.69	29.7088
1407.27	29.6368
1408.85	30.4607
1410.43	31.5912
1412	33.1047
1413.58	35.3769
1415.16	36.5187
1416.73	37.7805
1418.31	40.1303
1419.88	41.5786
1421.46	42.5752
1423.03	43.9694
1424.61	45.9052
1426.18	46.599
1427.76	47.7591
1429.33	50.0481
1430.9	51.3192
1432.48	52.9536
1434.05	54.5669
1435.62	55.5448
1437.2	57.7541
1438.77	58.2003
1440.34	59.2789
1441.91	60.0162
1443.48	60.9857
1445.05	61.1767
1446.62	61.1947
1448.19	61.6229
1449.76	62.6271
1451.33	62.138
1452.9	62.0977
1454.47	63.3033
1456.04	62.9241
1457.61	62.9464
1459.17	62.9481
1460.74	64.3555
1462.31	63.7964
1463.88	63.8049
1465.44	64.6349
1467.01	65.2451
1468.58	66.3313
1470.14	67.0728
1471.71	66.6882
1473.27	67.1469
1474.84	67.2361
1476.4	67.2272
1477.97	68.2241
1479.53	67.6498
1481.1	67.1234
1482.66	66.5383
1484.22	66.3882
1485.78	65.2915
1487.35	64.4208
1488.91	62.7311
1490.47	61.3172
1492.03	59.9748
1493.59	57.7968
1495.16	55.4965
1496.72	54.5387
1498.28	52.4388
1499.84	51.5231
1501.4	50.3298
1502.96	47.5748
1504.52	45.9294
1506.08	43.9656
1507.64	42.7821
1509.19	40.9081
1510.75	39.3047
1512.31	37.413
1513.87	34.3596
1515.42	32.1267
1516.98	29.1112
1518.54	26.5456
1520.1	25.2569
1521.65	23.2729
1523.21	21.4845
1524.76	21.186
1526.32	20.3703
1527.87	19.8842
1529.43	19.2875
1530.98	19.0152
1532.54	18.6303
1534.09	17.7643
1535.64	18.5594
1537.2	19.0838
1538.75	19.7262
1540.3	19.9177
1541.85	21.6155
1543.41	22.0893
1544.96	23.0382
1546.51	23.3564
1548.06	23.841
1549.61	24.1476
1551.16	26.933
1552.71	27.9719
1554.26	28.8453
1555.81	30.0595
1557.36	28.9249
1558.91	29.4207
1560.46	28.7558
1562.01	29.1124
1563.56	28.1345
1565.1	28.4709
1566.65	28.7259
1568.2	29.3679
1569.75	30.3551
1571.29	30.8034
1572.84	31.3351
1574.38	33.1073
1575.93	33.411
1577.48	34.1601
1579.02	33.9525
1580.57	34.2438
1582.11	35.9958
1583.65	36.1145
1585.2	37.6005
1586.74	37.748
1588.29	37.184
1589.83	36.832
1591.37	36.0107
1592.92	37.1259
1594.46	37.8028
1596	37.7345
1597.54	38.5613
1599.08	39.0424
1600.62	40.1961
1602.16	40.2673
1603.7	39.0613
1605.24	38.4626
1606.78	37.6018
1608.32	36.7109
1609.86	35.9761
1611.4	36.4841
1612.94	37.1988
1614.48	36.8584
1616.02	35.7498
1617.56	35.7633
1619.09	35.3865
1620.63	34.7625
1622.17	34.9176
1623.71	34.6596
1625.24	34.4222
1626.78	34.5594
1628.31	34.3915
1629.85	33.0528
1631.39	31.3636
1632.92	30.9167
1634.46	30.0003
1635.99	30.757
1637.52	30.0145
1639.06	29.9466
1640.59	29.9422
1642.12	30.2836
1643.66	30.533
1645.19	30.3473
1646.72	30.4689
1648.25	29.4365
1649.79	29.8688
1651.32	30.7069
1652.85	30.7424
1654.38	30.6355
1655.91	30.7408
1657.44	31.1245
1658.97	30.3522
1660.5	30.3238
1662.03	30.039
1663.56	29.0797
1665.09	27.927
1666.62	27.1878
1668.15	26.8786
1669.67	27.8876
1671.2	26.7713
1672.73	26.4717
1674.26	26.2664
1675.79	25.7653
1677.31	24.6065
1678.84	22.9648
1680.36	21.1131
1681.89	20.282
1683.42	20.0034
1684.94	18.7202
1686.47	17.6169
1687.99	17.4579
1689.51	16.6016
1691.04	14.4295
1692.56	12.8989
1694.08	13.5386
1695.61	12.9089
1697.13	12.3662
1698.65	11.46
1700.18	10.874
1701.7	10.3518
1703.22	9.06381
1704.74	6.94835
1706.26	6.39584
1707.78	6.64554
1709.3	6.86241
1710.82	6.03609
1712.35	6.13863
1713.86	5.14705
1715.39	4.75634
1716.9	4.14761
1718.42	4.3395
1719.94	4.08826
1721.46	3.55615
1722.98	3.50463
1724.5	3.8229
1726.01	3.91599
1727.53	4.1012
1729.05	3.30894
1730.56	2.6304
1732.08	3.12928
1733.6	3.1248
1735.11	3.18525
1736.63	3.49855
1738.14	2.61333
1739.66	2.40646
1741.17	1.93736
1742.69	2.14347
1744.2	2.73108
1745.71	2.79242
1747.23	2.30852
1748.74	2.55839
1750.25	2.43957
1751.77	2.32099
1753.28	1.65935
1754.79	1.29378
1756.3	0.781185
1757.81	1.09171
1759.33	1.03331
1760.84	0.928042
1762.35	1.18657
1763.86	1.13858
1765.37	1.1942
1766.88	1.17432
1768.39	1.48791
1769.9	2.52658
1771.41	2.05261
1772.91	1.86293
1774.42	2.01794
1775.93	2.11985
1777.44	1.341
1778.95	1.1525
1780.45	1.90111
1781.96	3.71823
1783.47	4.45533
1784.97	4.14392
1786.48	4.44357
1787.99	4.75289
1789.49	4.55789
1791	4.67661
1792.5	4.88533
1794.01	5.50008
1795.51	5.56709
1797.01	5.84539
1798.52	6.131
1800.02	5.92268
1801.52	5.86968
1803.03	6.1913
1804.53	5.75205
1806.03	6.02132
1807.54	6.16666
1809.04	6.38607
1810.54	6.6163
1812.04	5.90511
1813.54	4.86187
1815.04	4.65736
1816.54	4.31872
1818.04	4.07258
1819.54	4.65876
1821.04	4.85076
1822.54	5.08789
1824.04	4.75152
1825.54	4.26544
1827.04	3.50572
1828.54	3.49059
1830.03	3.65835
1831.53	3.64452
1833.03	4.04046
1834.53	4.07813
1836.02	3.80381
1837.52	2.77119
1839.02	2.36697
1840.51	2.65934
1842.01	2.55893
1843.5	2.61534
1845	3.22753
1846.49	3.27967
1847.99	3.5487
1849.48	3.25628
1850.98	2.94263
1852.47	2.23588
1853.96	2.93758
1855.46	2.80203
1856.95	2.68254
1858.44	2.08976
1859.94	1.59462
1861.43	0.823065
1862.92	0.502232
1864.41	0.417987
1865.9	0.40512
1867.39	0.627903
1868.88	0.633721
1870.37	0.594624
1871.86	0.642198
1873.35	1.49922
1874.84	1.38862
1876.33	1.18279
1877.82	1.08111
1879.31	1.47921
1880.8	1.61292
1882.29	1.37572
1882.58	1.08767
1884.08	1.86523
1885.57	1.92348
1887.06	1.75556
1888.56	1.68453
1890.05	2.04746
1891.54	2.69174
1893.04	3.34544
1894.53	3.28195
1896.02	2.89962
1897.51	2.32305
1899	2.48983
1900.5	2.63474
1901.99	3.45127
1903.48	3.20039
1904.97	4.23534
1906.46	4.94494
1907.95	4.29303
1909.44	4.30015
1910.93	3.74713
1912.42	4.71167
1913.91	4.94472
1915.4	4.92179
1916.88	5.1753
1918.37	5.43736
1919.86	6.01668
1921.35	5.65743
1922.84	5.2816
1924.32	5.33033
1925.81	5.40166
1927.3	6.39278
1928.78	5.64286
1930.27	6.43034
1931.75	6.9585
1933.24	7.87836
1934.72	7.78415
1936.21	7.84426
1937.69	8.05825
1939.18	7.98471
1940.66	7.34883
1942.15	7.99939
1943.63	8.28188
1945.11	8.43784
1946.6	8.39035
1948.08	7.3997
1949.56	7.22967
1951.04	8.22751
1952.53	7.98952
1954.01	7.05576
1955.49	6.62611
1956.97	7.44429
1958.45	8.34234
1959.93	7.40357
1961.41	6.28106
1962.89	7.25734
1964.37	7.39934
1965.85	6.86379
1967.33	6.916
1968.81	6.82868
1970.29	6.28409
1971.77	6.13868
1973.24	6.78786
1974.72	6.33478
1976.2	6.6715
1977.68	6.48791
1979.15	6.67661
1980.63	5.10733
1982.11	4.94619
1983.58	4.99351
1985.06	4.50498
1986.53	4.83421
1988.01	5.37271
1989.48	5.33411
1990.96	6.06214
1992.43	6.7819
1993.91	7.51501
1995.38	6.78895
1996.86	7.16589
1998.33	7.80211
1999.8	8.43276
2001.27	8.67476
2002.75	8.30569
2004.22	8.85151
2005.69	8.60732
2007.16	8.74151
2008.64	8.52714
2010.11	8.61102
2011.58	8.23354
2013.05	8.0892
2014.52	8.52852
2015.99	9.53547
2017.46	9.09986
2018.93	9.0845
2020.4	9.82145
2021.87	9.7588
2023.34	9.98096
2024.8	10.8708
2026.27	10.6963
2027.74	11.1803
2029.21	12.077
2030.68	13.2075
2032.14	13.6287
2033.61	14.1081
2035.08	14.4155
2036.54	15.1044
2038.01	14.0178
2039.48	14.8263
2040.94	15.7814
2042.41	15.9876
2043.87	16.2554
2045.34	16.6416
2046.8	16.5737
2048.27	16.5534
2049.73	16.8658
2051.19	16.5273
2052.66	16.6232
2054.12	16.4944
2055.58	17.8282
2057.05	17.2557
2058.51	17.3847
2059.97	18.7836
2061.43	18.9599
2062.9	18.7868
2064.36	19.2068
2065.82	19.8436
2067.28	19.6558
2068.74	19.2272
2070.2	19.2269
2071.66	18.9044
2073.12	18.3332
2074.58	17.4554
2076.04	17.4128
2077.5	17.1246
2078.95	16.4366
2080.41	16.3241
2081.87	15.9147
2083.33	15.343
2084.79	15.1021
2086.24	15.8299
2087.7	15.8654
2089.16	15.5315
2090.61	15.2818
2092.07	15.8977
2093.53	16.2912
2094.98	15.4831
2096.44	16.3667
2097.89	16.844
2099.35	16.6298
2100.8	16.7621
2102.26	17.6656
2103.71	18.4179
2105.16	19.0022
2106.62	19.9316
2108.07	19.9447
2109.53	20.0749
2110.98	21.022
2112.43	22.4931
2113.88	22.3527
2115.33	22.8155
2116.79	22.704
2118.24	23.6087
2119.69	24.3194
2121.14	25.6642
2122.59	25.8887
2124.04	26.4273
2125.49	28.2875
2126.94	29.1227
2128.39	30.8695
2129.84	31.3891
2131.29	32.6333
2132.74	34.3371
2134.19	34.235
