#Acq. time (s)=	45
#Accumulations=	2
#Range (cm-¹)=	200...3150
#Windows=	2
#Auto scanning=	Off
#Autofocus=	Off
#Macrospot=	Off
#AutoExposure=	Off
#Spike filter=	Multiple accum.
#Delay time (s)=	0
#Binning=	1
#Readout mode=	Signal
#DeNoise=	Off
#ICS correction=	On
#Dark correction=	Off
#Inst. Process=	Off
#Detector Gain=	Best Dynamic Range
#Detector ADC=	20 kHz       
#Detector temperature (°C)=	-69.85
#Instrument=	LabRAM HR Evol
#Detector=	Synapse
#Objective=	x100
#Grating=	600 gr/mm
#ND Filter=	100%
#Laser (nm)=	532 
#Hole=	100.021
#Range=	Auto
#Laser Pol.=	No
#Raman. Pol.=	No
#Laser Pol. (°)=	-0.0007625
#Raman Pol. (°)=	89.9995
#Collection=	Microscope
#StageXY=	Marzhauser
#StageZ=	Marzhauser
#X (µm)=	-1159.1
#Y (µm)=	1301.1
#Z (µm)=	578
#Full time(mm:ss)=	3:18
#Project=	
#Sample=	
#Site=	
#Title=	Mbcal_20_25_28_2x_45s_532 nm_x100_100%_600 gr_mm
#Remark=	
#Date=	18.07.2022 11:45
#Acquired=	18.07.2022 11:45:44
#Edit:Spike=	18.07.2022 11:48:09
#Base:Fit=	10.08.2022 10:55:08
#Base:Sub=	10.08.2022 10:55:14
#Filter:Polynom=	16.08.2022 10:07:28
#AxisType[0]=Intens
#AxisUnit[0]=Cnt
#AxisType[1]=Spectr
#AxisUnit[1]=1/cm
200.419	7.45725
202.234	10.658
204.048	10.8371
205.862	11.0387
207.678	11.1177
209.491	11.0705
211.304	11.1006
213.116	11.4701
214.928	10.9971
216.742	10.555
218.554	11.0687
220.365	11.6042
222.176	12.842
223.986	12.9409
225.798	12.9191
227.608	13.6969
229.417	12.5809
231.226	11.875
233.035	11.5526
234.843	11.7233
236.653	11.0199
238.46	10.5537
240.268	10.1755
242.074	10.1628
243.881	10.673
245.687	10.7584
247.493	9.67465
249.298	9.04995
251.103	7.6105
252.908	7.08413
254.715	6.5559
256.519	6.66408
258.322	6.65604
260.126	7.48277
261.929	7.30277
263.731	6.6371
265.534	5.71917
267.336	6.48814
269.137	6.35973
270.938	6.44856
272.739	5.99344
274.54	6.36291
276.34	6.16605
278.14	5.95293
279.939	5.90305
281.739	4.51243
283.537	3.1479
285.336	3.23807
287.134	3.90085
288.932	3.52996
290.729	2.67392
292.526	1.6785
294.323	2.26366
296.117	2.14705
297.913	2.57479
299.709	2.62663
301.504	3.21153
303.299	3.98214
305.093	4.20297
306.888	5.36097
308.682	6.60923
310.475	7.70759
312.268	8.92148
314.059	9.47553
315.852	9.63481
317.644	9.79267
319.436	9.43848
321.227	10.3919
323.018	10.2907
324.807	10.2884
326.597	9.71943
328.387	9.93003
330.177	11.149
331.967	11.5008
333.753	11.9804
335.542	11.253
337.331	10.8003
339.119	11.7953
340.906	11.3206
342.691	12.2333
344.478	12.1031
346.265	11.8306
348.051	11.782
349.835	11.6718
351.621	11.0682
353.406	9.82733
355.189	10.0209
356.973	10.525
358.757	11.7243
360.541	11.6324
362.323	11.4824
364.106	11.4194
365.889	10.8306
367.669	10.2479
369.451	8.7915
371.233	7.86605
373.012	7.42491
374.793	7.45554
376.574	6.97596
378.353	5.8001
380.133	5.67509
381.91	4.69329
383.69	5.69553
385.469	5.61246
387.245	5.97742
389.024	6.10181
390.8	7.05481
392.577	7.67459
394.353	7.87584
396.129	7.38987
397.906	7.60696
399.68	7.68998
401.456	7.77535
403.23	7.05096
405.005	6.16955
406.778	6.68884
408.552	6.87372
410.325	6.49645
412.099	5.68725
413.87	5.50528
415.643	5.98126
417.414	6.10625
419.187	6.02616
420.957	6.04274
422.728	6.77473
424.498	6.78512
426.269	7.49633
428.038	7.15076
429.806	7.09494
431.576	7.7647
433.344	7.19354
435.114	7.33528
436.881	7.02977
438.649	8.15888
440.416	8.16526
442.182	7.85003
443.949	9.02496
445.715	8.80494
447.48	8.10069
449.247	7.28796
451.011	6.12225
452.777	5.71297
454.541	5.50687
456.304	4.58178
458.069	4.193
459.832	5.11981
461.594	5.24497
463.358	5.67833
465.119	6.07068
466.881	6.78603
468.642	7.70434
470.404	7.06106
472.165	7.59455
473.925	7.62209
475.684	8.12689
477.445	8.21696
479.204	9.0141
480.963	9.38941
482.721	8.77677
484.481	8.85166
486.239	9.70967
487.996	9.90501
489.753	11.1233
491.511	11.5612
493.268	11.6983
495.023	12.2511
496.779	12.3463
498.534	12.2609
500.289	12.097
502.046	12.6697
503.8	14.064
505.554	14.4223
507.307	14.4786
509.06	15.1328
510.813	14.8393
512.566	16.0996
514.32	15.1454
516.072	15.0332
517.823	15.5793
519.574	15.6665
521.325	15.4718
523.076	15.0869
524.826	14.7834
526.576	14.9647
528.325	14.4196
530.074	14.0199
531.823	14.2512
533.572	13.4171
535.32	13.6638
537.068	12.8559
538.815	12.5679
540.562	12.9619
542.309	13.6055
544.056	12.908
545.802	13.4948
547.547	14.28
549.293	12.9034
551.038	12.643
552.783	11.8723
554.527	10.7032
556.271	9.35972
558.015	7.97224
559.759	7.99935
561.502	8.69883
563.245	8.33668
564.987	8.49725
566.729	9.26625
568.471	8.32376
570.213	7.31315
571.954	6.95723
573.693	6.56021
575.433	6.34244
577.173	6.15367
578.913	5.33722
580.652	4.29225
582.392	4.40438
584.13	4.20567
585.867	3.93134
587.605	4.16269
589.343	5.21789
591.08	4.42497
592.817	4.24356
594.552	4.14968
596.289	4.06481
598.025	4.90048
599.761	5.53345
601.496	4.78453
603.229	5.90655
604.964	6.61221
606.699	7.66205
608.433	7.62004
610.165	8.09026
611.898	8.68888
613.631	9.2707
615.364	9.10132
617.095	9.02637
618.827	10.0689
620.559	10.0088
622.288	9.74439
624.02	9.66072
625.75	11.7902
627.479	11.8626
629.209	11.9307
630.939	11.7169
632.667	12.7338
634.396	12.841
636.125	11.7407
637.851	11.5786
639.58	11.1994
641.305	11.6671
643.033	11.483
644.76	12.2113
646.485	13.7957
648.212	14.4915
649.936	14.2398
651.662	14.5069
653.388	13.7179
655.111	12.8128
656.836	11.8779
658.558	11.5456
660.283	11.4038
662.005	12.1827
663.728	12.8372
665.45	13.0121
667.173	13.7562
668.893	14.9974
670.616	15.6751
672.336	16.7924
674.057	17.6452
675.777	18.3081
677.498	18.6552
679.216	19.7107
680.937	19.9413
682.655	20.5259
684.375	21.7691
686.092	22.0291
687.809	23.8459
689.528	23.9244
691.244	24.5652
692.962	25.1024
694.678	26.1052
696.393	26.3034
698.111	25.8051
699.825	26.7659
701.54	28.0166
703.256	29.5323
704.97	31.0346
706.685	31.0677
708.398	32.7687
710.111	34.9556
711.826	35.6927
713.538	35.771
715.25	36.3047
716.961	37.1346
718.675	38.8483
720.386	39.761
722.096	39.261
723.808	40.3613
725.518	41.433
727.228	42.4106
728.937	43.3193
730.648	45.0883
732.357	46.2431
734.065	45.5949
735.773	44.6058
737.483	45.012
739.19	45.5162
740.897	45.9129
742.604	46.6145
744.31	48.0085
746.018	49.3787
747.724	51.8414
749.429	52.2069
751.134	53.0169
752.839	55.071
754.544	56.5587
756.248	58.1591
757.953	59.6804
759.657	61.0582
761.36	63.4068
763.063	65.2565
764.765	66.4818
766.468	68.8706
768.169	70.0038
769.871	70.8779
771.572	72.428
773.273	74.3404
774.976	74.9103
776.676	76.4029
778.376	77.6012
780.075	78.3175
781.775	78.6082
783.474	79.5643
785.172	81.1411
786.871	82.623
788.569	83.4257
790.266	84.0392
791.964	84.3464
793.661	85.5364
795.358	86.5717
797.054	86.6845
798.75	88.2886
800.446	89.3682
802.141	90.2901
803.834	91.341
805.529	91.4251
807.224	90.4417
808.918	90.8234
810.612	90.4058
812.305	89.9149
813.998	89.3546
815.691	87.7995
817.384	86.0387
819.076	84.6554
820.766	84.7884
822.458	84.129
824.149	83.5827
825.84	81.7294
827.531	81.2342
829.221	81.0676
830.909	80.4746
832.599	79.2182
834.288	78.042
835.977	78.117
837.666	77.6732
839.353	77.0606
841.041	75.7591
842.729	74.1698
844.416	73.2666
846.103	71.8055
847.788	69.9078
849.475	68.6855
851.161	67.0799
852.845	64.797
854.53	64.4804
856.216	63.2984
857.901	61.3412
859.583	59.6993
861.268	59.529
862.952	57.52
864.633	56.2836
866.317	55.8769
868	54.391
869.681	54.4993
871.363	53.6721
873.045	52.0415
874.725	51.171
876.406	49.9334
878.088	50.6371
879.767	51.6649
881.447	50.9427
883.125	51.3448
884.805	51.4465
886.483	51.1004
888.162	52.4161
889.841	52.571
891.518	51.7911
893.196	52.8113
894.872	53.9688
896.55	53.7399
898.225	54.3977
899.902	54.8455
901.577	54.8279
903.254	56.3748
904.928	55.959
906.604	54.2771
908.277	54.3437
909.952	53.8455
911.625	54.4101
913.3	55.0313
914.972	54.9746
916.646	55.2352
918.318	56.0444
919.991	55.8653
921.662	55.8719
923.333	55.3026
925.005	54.2476
926.675	53.844
928.347	52.9705
930.017	52.2628
931.686	51.5031
933.357	50.935
935.025	50.1296
936.693	49.8015
938.363	49.1736
940.031	47.2454
941.698	45.9364
943.367	45.6
945.034	44.2531
946.7	40.7865
948.368	39.8873
950.034	38.9505
951.699	36.5089
953.367	35.5028
955.031	32.9312
956.696	31.9877
958.36	31.4652
960.026	30.0853
961.689	30.6668
963.353	29.9984
965.016	30.2112
966.68	31.8292
968.343	32.4172
970.005	33.6626
971.666	34.5598
973.328	34.7013
974.991	34.8268
976.652	35.9367
978.312	36.3739
979.972	35.91
981.632	35.691
983.292	35.6904
984.953	34.1762
986.612	34.6725
988.27	34.1876
989.929	35.542
991.587	37.0915
993.244	38.3383
994.902	39.6882
996.559	41.4141
998.216	42.2432
999.872	42.0579
1001.53	42.5039
1003.19	42.6317
1004.84	42.6081
1006.5	41.8122
1008.15	40.2424
1009.81	39.5277
1011.46	39.2736
1013.11	39.1633
1014.77	38.905
1016.42	39.5085
1018.07	39.4355
1019.73	38.8448
1021.38	37.6835
1023.03	37.1785
1024.68	36.2933
1026.34	34.9857
1027.99	33.8049
1029.64	33.1525
1031.29	32.7951
1032.94	32.7339
1034.59	31.0729
1036.24	31.1622
1037.89	30.156
1039.53	30.2319
1041.18	29.5481
1042.83	29.9093
1044.48	30.0085
1046.13	31.3683
1047.77	32.4169
1049.42	32.5735
1051.07	31.7845
1052.71	31.7989
1054.36	31.1855
1056	30.8904
1057.65	29.8094
1059.3	28.8291
1060.94	28.5561
1062.59	28.1321
1064.23	27.9113
1065.87	27.319
1067.52	27.4063
1069.16	29.1388
1070.8	30.0434
1072.44	29.9387
1074.09	29.6219
1075.73	29.2049
1077.37	29.465
1079.01	28.718
1080.65	27.3694
1082.29	26.0718
1083.93	25.5229
1085.57	23.7747
1087.21	23.2629
1088.85	23.2554
1090.49	22.7989
1092.13	23.7699
1093.77	22.7467
1095.41	22.6027
1097.04	23.1715
1098.68	23.383
1100.32	22.606
1101.95	22.2202
1103.59	22.5697
1105.23	21.8125
1106.86	20.9027
1108.5	20.6734
1110.13	21.221
1111.77	20.6331
1113.4	20.047
1115.04	19.9109
1116.67	19.0691
1118.31	19.8854
1119.94	19.1257
1121.57	19.2808
1123.2	19.4667
1124.84	18.8414
1126.47	17.4817
1128.1	17.2403
1129.73	16.3709
1131.36	15.5585
1132.99	14.6295
1134.62	14.6437
1136.25	13.3574
1137.88	11.7763
1139.51	10.211
1141.14	9.68412
1142.77	10.306
1144.4	9.93798
1146.03	9.094
1147.66	8.5376
1149.28	9.83425
1150.91	9.42508
1152.54	8.67241
1154.16	8.45514
1155.79	8.0678
1157.42	7.89988
1159.04	7.4515
1160.67	6.72012
1162.29	6.73618
1163.92	5.62251
1165.54	5.47744
1167.17	5.34592
1168.79	6.26837
1170.41	6.86366
1172.04	7.21806
1173.66	6.52087
1175.28	5.93178
1176.9	8.23846
1178.53	9.13819
1180.15	9.36439
1181.77	9.45137
1183.39	10.786
1185.01	12.2502
1186.63	12.229
1188.25	12.9328
1189.87	14.2257
1191.49	14.9451
1193.11	14.4238
1194.73	14.9315
1196.35	15.5835
1197.96	16.6924
1199.58	17.7999
1201.2	18.9505
1202.82	19.4278
1204.43	20.0872
1206.05	19.7334
1207.66	21.0586
1209.28	21.2572
1210.9	23.4065
1212.51	25.5469
1214.13	26.9856
1215.74	28.2556
1217.36	28.6473
1218.97	30.7979
1220.58	32.569
1222.2	34.0643
1223.81	36.0269
1225.42	37.1489
1227.04	39.8312
1228.65	42.3491
1230.26	43.9151
1231.87	44.4941
1233.48	46.067
1235.1	47.5511
1236.71	48.5173
1238.32	50.429
1239.93	51.4919
1241.53	52.5301
1243.14	53.3856
1244.75	54.7093
1246.36	56.4754
1247.97	57.5552
1249.58	58.0663
1251.19	58.9915
1252.8	59.3474
1254.4	59.3699
1256.01	60.7764
1257.62	61.9682
1259.22	61.9172
1260.83	62.2958
1262.43	63.3148
1264.04	64.3746
1265.64	64.1115
1267.25	63.4613
1268.85	62.6608
1270.46	62.3442
1272.06	61.7811
1273.66	61.2945
1275.27	61.7016
1276.87	60.8092
1278.48	61.3139
1280.08	62.1119
1281.68	61.8094
1283.28	62.3571
1284.88	62.3851
1286.48	62.1682
1288.08	63.0027
1289.68	62.8038
1291.28	64.8218
1292.88	64.0293
1294.48	63.7396
1296.08	64.6248
1297.68	65.1311
1299.28	66.06
1300.88	66.4487
1302.48	67.6753
1304.07	69.0365
1305.67	70.7919
1307.27	72.8919
1308.87	73.9292
1310.46	75.1674
1312.06	76.7602
1313.65	78.851
1315.25	80.5491
1316.85	81.6737
1318.44	83.1279
1320.03	83.3992
1321.63	83.5057
1323.22	84.4674
1324.82	84.9814
1326.41	84.4071
1328	83.3686
1329.6	83.2514
1331.19	83.6834
1332.78	84.016
1334.37	84.4085
1335.96	84.6154
1337.56	83.9755
1339.15	83.4798
1340.74	83.7658
1342.33	84.0674
1343.92	82.3945
1345.51	80.971
1347.1	79.4369
1348.69	78.2317
1350.28	77.7714
1351.86	76.577
1353.45	74.4115
1355.04	72.7699
1356.63	71.3653
1358.21	70.9464
1359.8	70.1167
1361.39	68.1059
1362.97	66.7905
1364.56	63.2162
1366.15	62.282
1367.73	60.9636
1369.32	59.2063
1370.9	58.3822
1372.49	56.7476
1374.07	56.2624
1375.65	54.9718
1377.24	54.2644
1378.82	52.9962
1380.41	52.8685
1381.99	52.8109
1383.57	52.5787
1385.15	53.0938
1386.73	52.6893
1388.32	52.8941
1389.9	51.9794
1391.48	51.9459
1393.06	52.0477
1394.64	51.3467
1396.22	50.394
1397.8	49.8784
1399.38	49.12
1400.96	48.9546
1402.54	48.7388
1404.11	48.484
1405.69	47.9931
1407.27	48.0368
1408.85	48.7601
1410.43	49.3999
1412	50.8507
1413.58	51.585
1415.16	52.7636
1416.73	54.5453
1418.31	56.5773
1419.88	59.0635
1421.46	59.6297
1423.03	60.6402
1424.61	61.9514
1426.18	63.5383
1427.76	65.0414
1429.33	66.5996
1430.9	68.25
1432.48	70.2921
1434.05	72.8966
1435.62	75.0042
1437.2	76.5661
1438.77	77.7636
1440.34	77.8833
1441.91	78.477
1443.48	79.0599
1445.05	80.4907
1446.62	79.5018
1448.19	80.2522
1449.76	80.1712
1451.33	81.3486
1452.9	81.7168
1454.47	81.2399
1456.04	81.4374
1457.61	81.5825
1459.17	82.1755
1460.74	82.2218
1462.31	82.6489
1463.88	82.085
1465.44	81.5038
1467.01	80.8389
1468.58	80.7831
1470.14	79.615
1471.71	77.6857
1473.27	75.9511
1474.84	75.0339
1476.4	73.5001
1477.97	71.3247
1479.53	69.3592
1481.1	67.915
1482.66	65.7607
1484.22	63.2751
1485.78	61.3408
1487.35	59.6037
1488.91	58.7155
1490.47	56.9264
1492.03	55.2711
1493.59	54.2855
1495.16	52.4852
1496.72	49.7281
1498.28	47.148
1499.84	44.846
1501.4	44.3995
1502.96	42.5281
1504.52	41.9539
1506.08	39.8021
1507.64	39.2396
1509.19	38.3681
1510.75	36.6162
1512.31	34.7983
1513.87	32.7799
1515.42	31.2375
1516.98	29.2092
1518.54	27.1932
1520.1	26.3073
1521.65	26.1074
1523.21	25.5135
1524.76	24.0291
1526.32	25.1284
1527.87	24.8252
1529.43	25.1756
1530.98	24.5068
1532.54	23.3921
1534.09	24.4102
1535.64	25.4547
1537.2	25.9671
1538.75	27.6406
1540.3	29.222
1541.85	29.7566
1543.41	30.5735
1544.96	31.652
1546.51	32.7478
1548.06	32.639
1549.61	33.6227
1551.16	35.726
1552.71	36.747
1554.26	37.6854
1555.81	39.1341
1557.36	40.3957
1558.91	41.9165
1560.46	42.0693
1562.01	43.8804
1563.56	44.8636
1565.1	46.603
1566.65	48.1024
1568.2	48.6803
1569.75	49.9226
1571.29	51.2356
1572.84	51.8521
1574.38	52.8142
1575.93	54.4828
1577.48	55.5377
1579.02	57.0416
1580.57	57.2986
1582.11	58.0251
1583.65	58.0619
1585.2	59.4324
1586.74	59.5374
1588.29	60.2733
1589.83	60.6021
1591.37	61.4965
1592.92	61.5802
1594.46	61.1668
1596	61.8073
1597.54	62.3317
1599.08	63.1455
1600.62	61.9562
1602.16	62.3787
1603.7	62.609
1605.24	60.2121
1606.78	59.6156
1608.32	59.1878
1609.86	58.5189
1611.4	58.6589
1612.94	58.3854
1614.48	57.3107
1616.02	57.3987
1617.56	56.9041
1619.09	56.0032
1620.63	56.0663
1622.17	56.5884
1623.71	57.3008
1625.24	57.1552
1626.78	57.8791
1628.31	59.4379
1629.85	60.0343
1631.39	60.6662
1632.92	61.1687
1634.46	62.2278
1635.99	64.5306
1637.52	65.7545
1639.06	68.2059
1640.59	69.5782
1642.12	71.7036
1643.66	73.617
1645.19	74.4931
1646.72	76.326
1648.25	78.2415
1649.79	79.311
1651.32	80.5173
1652.85	81.9673
1654.38	82.5669
1655.91	84.442
1657.44	84.2983
1658.97	85.0363
1660.5	84.4092
1662.03	83.8165
1663.56	83.0827
1665.09	83.6928
1666.62	82.4152
1668.15	81.5268
1669.67	79.6668
1671.2	77.9122
1672.73	76.9686
1674.26	75.0196
1675.79	72.4312
1677.31	69.5681
1678.84	67.3651
1680.36	64.0683
1681.89	60.6166
1683.42	59.5088
1684.94	55.9693
1686.47	52.7936
1687.99	50.2207
1689.51	47.173
1691.04	43.9294
1692.56	41.5125
1694.08	38.6721
1695.61	36.9619
1697.13	34.6241
1698.65	32.4067
1700.18	29.7778
1701.7	27.2561
1703.22	25.4561
1704.74	24.2829
1706.26	22.7198
1707.78	21.2165
1709.3	20.3023
1710.82	19.6521
1712.35	18.9185
1713.86	18.235
1715.39	17.2631
1716.9	16.281
1718.42	15.7672
1719.94	14.9772
1721.46	13.7413
1722.98	13.6524
1724.5	12.5371
1726.01	11.9575
1727.53	11.1903
1729.05	11.0116
1730.56	9.75908
1732.08	9.45632
1733.6	7.79984
1735.11	7.22507
1736.63	6.46162
1738.14	6.50602
1739.66	6.83423
1741.17	6.79526
1742.69	6.53455
1744.2	6.59683
1745.71	6.26988
1747.23	6.37357
1748.74	6.90094
1750.25	6.11673
1751.77	5.89917
1753.28	6.10215
1754.79	6.13872
1756.3	5.91701
1757.81	5.00234
1759.33	5.16176
1760.84	4.75446
1762.35	4.70811
1763.86	4.56582
1765.37	3.91026
1766.88	3.31217
1768.39	3.14017
1769.9	3.91435
1771.41	4.20409
1772.91	3.6332
1774.42	3.89376
1775.93	3.47846
1777.44	3.87994
1778.95	3.8796
1780.45	4.66054
1781.96	4.64528
1783.47	4.73995
1784.97	3.80222
1786.48	3.47309
1787.99	3.88553
1789.49	3.68412
1791	2.80698
1792.5	3.1245
1794.01	3.02172
1795.51	2.89212
1797.01	3.11446
1798.52	3.69581
1800.02	3.50458
1801.52	3.77667
1803.03	4.152
1804.53	4.89314
1806.03	5.37229
1807.54	5.66659
1809.04	5.0025
1810.54	5.36549
1812.04	5.57357
1813.54	5.73792
1815.04	5.93485
1816.54	5.80243
1818.04	5.8507
1819.54	5.63442
1821.04	5.68792
1822.54	6.04981
1824.04	6.51685
1825.54	7.01039
1827.04	7.33031
1828.54	7.1834
1830.03	7.6994
1831.53	7.54369
1833.03	7.66584
1834.53	7.54636
1836.02	7.40384
1837.52	7.56456
1839.02	7.80208
1840.51	8.23259
1842.01	8.30632
1843.5	9.09792
1845	9.7739
1846.49	9.68364
1847.99	9.55563
1849.48	9.55688
1850.98	9.16644
1852.47	9.31521
1853.96	8.81694
1855.46	8.18995
1856.95	7.40481
1858.44	5.94792
1859.94	4.35127
1861.43	4.66432
1862.92	4.53587
1864.41	3.89992
1865.9	3.97674
1867.39	4.40003
1868.88	4.25245
1870.37	3.83172
1871.86	3.60388
1873.35	3.38786
1874.84	3.03799
1876.33	2.52408
1877.82	2.82807
1879.31	2.4884
1880.8	1.52794
1882.29	1.09724
1882.58	0.819513
1884.08	0.737228
1885.57	0.813997
1887.06	1.00548
1888.56	0.848684
1890.05	1.00832
1891.54	1.12066
1893.04	1.40894
1894.53	2.06081
1896.02	2.46134
1897.51	2.94182
1899	3.39722
1900.5	3.34412
1901.99	3.39168
1903.48	3.66119
1904.97	3.56421
1906.46	4.09896
1907.95	4.83791
1909.44	5.75776
1910.93	6.26067
1912.42	6.47618
1913.91	6.55121
1915.4	6.27001
1916.88	6.59062
1918.37	6.26563
1919.86	5.9361
1921.35	5.91009
1922.84	6.42166
1924.32	6.36254
1925.81	6.27855
1927.3	5.77855
1928.78	5.19071
1930.27	5.13797
1931.75	5.13298
1933.24	5.00791
1934.72	5.52447
1936.21	5.10142
1937.69	5.32629
1939.18	5.34473
1940.66	5.02135
1942.15	4.71162
1943.63	4.17856
1945.11	3.99221
1946.6	3.9534
1948.08	4.16458
1949.56	3.49392
1951.04	3.89177
1952.53	3.57477
1954.01	3.44652
1955.49	3.6087
1956.97	3.43942
1958.45	3.59243
1959.93	4.4158
1961.41	4.07872
1962.89	3.91767
1964.37	4.20432
1965.85	4.18728
1967.33	4.48271
1968.81	4.91987
1970.29	4.46087
1971.77	4.6495
1973.24	4.737
1974.72	4.59538
1976.2	4.16873
1977.68	4.4943
1979.15	4.60122
1980.63	5.09977
1982.11	4.81832
1983.58	4.97378
1985.06	5.58775
1986.53	6.06412
1988.01	6.62335
1989.48	7.42154
1990.96	7.83831
1992.43	8.03916
1993.91	8.42145
1995.38	9.20002
1996.86	9.37525
1998.33	8.66803
1999.8	8.31207
2001.27	8.39002
2002.75	8.34434
2004.22	8.7749
2005.69	8.42528
2007.16	8.20551
2008.64	8.01587
2010.11	7.80174
2011.58	7.907
2013.05	7.98139
2014.52	7.50966
2015.99	7.58486
2017.46	7.09543
2018.93	7.27187
2020.4	7.63508
2021.87	8.02497
2023.34	8.03493
2024.8	7.98617
2026.27	8.05892
2027.74	8.37525
2029.21	8.13225
2030.68	8.05808
2032.14	7.85481
2033.61	7.60015
2035.08	6.74153
2036.54	6.58643
2038.01	6.04954
2039.48	5.62802
2040.94	4.90812
2042.41	4.78394
2043.87	4.42612
2045.34	4.6079
2046.8	4.08053
2048.27	3.85346
2049.73	3.75538
2051.19	4.25804
2052.66	4.79919
2054.12	4.76325
2055.58	4.7096
2057.05	5.14415
2058.51	5.60212
2059.97	5.32502
2061.43	5.63629
2062.9	5.34126
2064.36	5.70719
2065.82	5.56263
2067.28	6.0683
2068.74	6.2701
2070.2	6.56644
2071.66	6.22937
2073.12	7.14334
2074.58	7.68615
2076.04	8.22813
2077.5	8.99026
2078.95	9.38517
2080.41	9.57971
2081.87	10.5651
2083.33	11.2777
2084.79	11.7623
2086.24	12.1902
2087.7	12.3206
2089.16	13.3375
2090.61	13.2545
2092.07	14.1421
2093.53	15.1359
2094.98	15.7662
2096.44	15.2417
2097.89	14.724
2099.35	15.9363
2100.8	16.0468
2102.26	16.1901
2103.71	16.9678
2105.16	17.5455
2106.62	17.3699
2108.07	17.1098
2109.53	16.8645
2110.98	16.812
2112.43	17.3656
2113.88	17.45
2115.33	17.5714
2116.79	17.767
2118.24	18.3197
2119.69	18.8653
2121.14	19.6948
2122.59	20.1186
2124.04	20.2813
2125.49	21.0365
2126.94	21.6249
2128.39	23.0524
2129.84	23.993
2131.29	25.0001
2132.74	25.7402
2134.19	26.9308
