#Acq. time (s)=	45
#Accumulations=	2
#Range (cm-¹)=	200...3150
#Windows=	2
#Auto scanning=	Off
#Autofocus=	Off
#Macrospot=	Off
#AutoExposure=	Off
#Spike filter=	Multiple accum.
#Delay time (s)=	0
#Binning=	1
#Readout mode=	Signal
#DeNoise=	Off
#ICS correction=	On
#Dark correction=	Off
#Inst. Process=	Off
#Detector Gain=	Best Dynamic Range
#Detector ADC=	20 kHz       
#Detector temperature (°C)=	-69.85
#Instrument=	LabRAM HR Evol
#Detector=	Synapse
#Objective=	x100
#Grating=	600 gr/mm
#ND Filter=	100%
#Laser (nm)=	532 
#Hole=	100.021
#Range=	Auto
#Laser Pol.=	No
#Raman. Pol.=	No
#Laser Pol. (°)=	-0.0007625
#Raman Pol. (°)=	89.9995
#Collection=	Microscope
#StageXY=	Marzhauser
#StageZ=	Marzhauser
#X (µm)=	-1166
#Y (µm)=	1264.4
#Z (µm)=	578.2
#Full time(mm:ss)=	3:18
#Project=	
#Sample=	
#Site=	
#Title=	Mbcal_20_25_20_2x_45s_532 nm_x100_100%_600 gr_mm
#Remark=	
#Date=	18.07.2022 10:53
#Acquired=	18.07.2022 10:53:30
#Base:Fit=	10.08.2022 10:55:08
#Base:Sub=	10.08.2022 10:55:14
#Filter:Polynom=	16.08.2022 10:07:28
#AxisType[0]=Intens
#AxisUnit[0]=Cnt
#AxisType[1]=Spectr
#AxisUnit[1]=1/cm
200.419	24.7341
202.234	22.6469
204.048	18.7207
205.862	15.1316
207.678	12.8683
209.491	11.0387
211.304	10.1585
213.116	8.9012
214.928	7.7966
216.742	7.0862
218.554	6.86957
220.365	7.09881
222.176	6.57366
223.986	6.97937
225.798	6.93274
227.608	5.55686
229.417	4.77719
231.226	4.75405
233.035	4.88089
234.843	5.19958
236.653	5.61551
238.46	5.23586
240.268	4.88207
242.074	5.31625
243.881	5.20214
245.687	5.75357
247.493	6.56965
249.298	7.40258
251.103	8.22444
252.908	8.31978
254.715	9.01865
256.519	9.28462
258.322	9.22875
260.126	8.39445
261.929	9.25924
263.731	9.31171
265.534	9.68119
267.336	10.3034
269.137	10.0427
270.938	9.77536
272.739	10.0726
274.54	9.87375
276.34	10.1971
278.14	10.3608
279.939	10.9318
281.739	11.2627
283.537	11.5915
285.336	12.3884
287.134	11.1984
288.932	11.4154
290.729	11.9522
292.526	13.2811
294.323	14.8442
296.117	15.7988
297.913	15.9383
299.709	17.4714
301.504	18.1543
303.299	17.7171
305.093	18.5718
306.888	19.444
308.682	19.8243
310.475	20.0257
312.268	19.7683
314.059	19.5607
315.852	19.2362
317.644	18.8105
319.436	19.1909
321.227	19.7542
323.018	20.1257
324.807	19.9666
326.597	19.5219
328.387	19.5787
330.177	19.6613
331.967	20.1114
333.753	19.2548
335.542	19.4635
337.331	19.392
339.119	19.2875
340.906	18.4478
342.691	18.2953
344.478	17.9966
346.265	17.3686
348.051	17.6431
349.835	17.4907
351.621	18.0056
353.406	17.9247
355.189	18.5788
356.973	18.4995
358.757	18.0223
360.541	17.1718
362.323	17.1876
364.106	16.413
365.889	16.5443
367.669	17.8294
369.451	17.7571
371.233	17.5757
373.012	17.4176
374.793	16.8099
376.574	16.2194
378.353	17.23
380.133	18.0472
381.91	18.4431
383.69	18.8051
385.469	19.0995
387.245	18.9477
389.024	19.3059
390.8	18.9525
392.577	18.4776
394.353	18.5094
396.129	17.0024
397.906	16.1226
399.68	15.7984
401.456	15.4803
403.23	14.5584
405.005	14.709
406.778	13.5678
408.552	12.9928
410.325	12.168
412.099	12.2712
413.87	10.7755
415.643	10.3426
417.414	10.5484
419.187	10.2832
420.957	10.0143
422.728	9.74929
424.498	10.0231
426.269	9.70732
428.038	9.46048
429.806	8.95967
431.576	8.98302
433.344	9.35468
435.114	9.11058
436.881	9.41801
438.649	8.94263
440.416	9.18301
442.182	8.79973
443.949	8.22808
445.715	6.82106
447.48	6.1045
449.247	6.04221
451.011	6.72547
452.777	6.47122
454.541	6.83502
456.304	6.5662
458.069	6.62109
459.832	7.48537
461.594	8.49821
463.358	8.41273
465.119	10.1284
466.881	11.617
468.642	12.3007
470.404	13.0688
472.165	13.2639
473.925	13.2533
475.684	13.0564
477.445	13.4445
479.204	13.783
480.963	13.6654
482.721	13.585
484.481	13.5286
486.239	15.0691
487.996	16.3289
489.753	17.3173
491.511	17.4529
493.268	18.2397
495.023	18.2815
496.779	18.7317
498.534	19.2863
500.289	20.7555
502.046	21.3584
503.8	22.7449
505.554	23.4479
507.307	23.6938
509.06	24.2679
510.813	24.5097
512.566	24.8773
514.32	25.0512
516.072	25.5621
517.823	24.8287
519.574	24.7334
521.325	24.4269
523.076	23.5898
524.826	23.4158
526.576	23.7067
528.325	23.5524
530.074	23.2613
531.823	22.7554
533.572	22.761
535.32	23.2955
537.068	23.2112
538.815	22.6039
540.562	21.4496
542.309	21.1282
544.056	20.1521
545.802	19.8673
547.547	19.186
549.293	18.4873
551.038	16.6712
552.783	16.1783
554.527	15.2981
556.271	13.7774
558.015	12.5885
559.759	10.5222
561.502	10.1132
563.245	9.01532
564.987	8.62393
566.729	8.70993
568.471	7.526
570.213	6.75613
571.954	6.39757
573.693	6.01237
575.433	5.57048
577.173	4.74661
578.913	4.02857
580.652	4.57384
582.392	4.72737
584.13	4.90144
585.867	5.4411
587.605	5.3019
589.343	5.17771
591.08	4.42201
592.817	4.80605
594.552	5.37606
596.289	5.02513
598.025	4.75937
599.761	4.85069
601.496	3.96636
603.229	3.6442
604.964	3.24596
606.699	3.17387
608.433	4.15779
610.165	4.92855
611.898	5.73101
613.631	6.27168
615.364	6.16336
617.095	6.41738
618.827	6.48418
620.559	6.93186
622.288	6.72701
624.02	6.77954
625.75	7.92589
627.479	8.70588
629.209	9.70837
630.939	10.411
632.667	10.4393
634.396	10.5752
636.125	10.4249
637.851	10.1183
639.58	11.2385
641.305	12.0522
643.033	11.9887
644.76	13.0209
646.485	13.8182
648.212	14.6038
649.936	14.4396
651.662	14.8241
653.388	15.5459
655.111	15.6515
656.836	16.5211
658.558	17.6032
660.283	18.9836
662.005	19.9757
663.728	20.9369
665.45	21.6719
667.173	21.9114
668.893	22.1306
670.616	22.7163
672.336	22.6998
674.057	22.7729
675.777	23.4738
677.498	23.8772
679.216	24.2009
680.937	24.1761
682.655	24.2304
684.375	24.6743
686.092	24.9231
687.809	25.1397
689.528	25.7368
691.244	26.9653
692.962	27.8629
694.678	29.5095
696.393	29.1348
698.111	29.5847
699.825	29.8744
701.54	30.5228
703.256	31.124
704.97	31.7427
706.685	33.0313
708.398	34.5525
710.111	35.8138
711.826	37.3699
713.538	37.2366
715.25	37.1765
716.961	36.6815
718.675	36.6794
720.386	37.5358
722.096	38.1943
723.808	38.625
725.518	39.6094
727.228	39.8028
728.937	40.4367
730.648	41.3679
732.357	41.1614
734.065	41.2986
735.773	41.0742
737.483	42.1093
739.19	43.8594
740.897	44.0039
742.604	43.5437
744.31	44.1341
746.018	44.3655
747.724	44.8206
749.429	45.2423
751.134	45.9328
752.839	47.2593
754.544	48.9956
756.248	49.8429
757.953	49.8144
759.657	50.7153
761.36	51.8456
763.063	52.8839
764.765	54.0542
766.468	55.7623
768.169	56.959
769.871	58.1042
771.572	59.8218
773.273	61.3934
774.976	63.2993
776.676	64.8418
778.376	65.6589
780.075	66.5035
781.775	68.2152
783.474	70.1505
785.172	72.2056
786.871	72.9822
788.569	74.0302
790.266	75.1171
791.964	77.2573
793.661	78.5617
795.358	78.8418
797.054	79.4992
798.75	79.7966
800.446	80.1278
802.141	81.2948
803.834	82.8864
805.529	83.6592
807.224	84.2824
808.918	84.7201
810.612	84.9441
812.305	84.4504
813.998	84.6527
815.691	84.3734
817.384	83.649
819.076	83.2419
820.766	82.1467
822.458	81.7343
824.149	80.7696
825.84	79.6845
827.531	79.0843
829.221	78.8944
830.909	78.6475
832.599	78.4577
834.288	77.3277
835.977	76.9767
837.666	76.0231
839.353	74.5462
841.041	72.838
842.729	71.6383
844.416	71.6113
846.103	71.3853
847.788	71.0382
849.475	71.3884
851.161	70.9917
852.845	70.261
854.53	69.2957
856.216	68.11
857.901	67.5707
859.583	66.4255
861.268	65.0155
862.952	63.7587
864.633	62.6839
866.317	62.2879
868	60.1296
869.681	58.671
871.363	56.8114
873.045	55.5244
874.725	55.082
876.406	55.2582
878.088	54.3286
879.767	52.9178
881.447	52.3994
883.125	52.2174
884.805	50.724
886.483	50.474
888.162	49.8681
889.841	48.9726
891.518	47.3959
893.196	45.939
894.872	45.3036
896.55	45.3374
898.225	45.4734
899.902	44.5555
901.577	43.8095
903.254	43.7117
904.928	43.2974
906.604	43.401
908.277	44.1354
909.952	44.9229
911.625	45.459
913.3	45.3877
914.972	46.156
916.646	46.1556
918.318	45.8892
919.991	46.3526
921.662	46.8484
923.333	47.3232
925.005	48.0149
926.675	49.2465
928.347	50.5409
930.017	50.7252
931.686	50.8156
933.357	51.1628
935.025	50.4082
936.693	50.3075
938.363	50.0249
940.031	50.002
941.698	49.8099
943.367	48.641
945.034	47.1778
946.7	46.2693
948.368	45.6177
950.034	45.3542
951.699	44.7948
953.367	44.6713
955.031	43.3422
956.696	42.0522
958.36	41.4494
960.026	40.4711
961.689	39.6298
963.353	38.2243
965.016	37.7952
966.68	36.973
968.343	35.0431
970.005	34.1977
971.666	33.4003
973.328	32.2881
974.991	31.4648
976.652	31.2701
978.312	31.3448
979.972	30.6948
981.632	30.0381
983.292	29.2161
984.953	28.6481
986.612	28.1336
988.27	27.214
989.929	27.0772
991.587	27.4197
993.244	27.0648
994.902	26.8806
996.559	25.4806
998.216	25.1413
999.872	24.494
1001.53	24.2253
1003.19	24.4823
1004.84	24.751
1006.5	23.8988
1008.15	23.5583
1009.81	23.5443
1011.46	22.9311
1013.11	21.9449
1014.77	22.1851
1016.42	22.3474
1018.07	22.0686
1019.73	21.9
1021.38	20.9267
1023.03	20.3401
1024.68	20.1446
1026.34	20.3952
1027.99	20.4836
1029.64	20.3885
1031.29	20.6537
1032.94	20.6198
1034.59	19.8339
1036.24	19.3603
1037.89	18.9016
1039.53	18.71
1041.18	19.0832
1042.83	19.9321
1044.48	20.2271
1046.13	19.2706
1047.77	18.9795
1049.42	17.9293
1051.07	17.2186
1052.71	17.0344
1054.36	17.2387
1056	16.6491
1057.65	17.59
1059.3	17.953
1060.94	18.4897
1062.59	18.7164
1064.23	18.6622
1065.87	18.1816
1067.52	17.9092
1069.16	17.8779
1070.8	17.9251
1072.44	18.0913
1074.09	17.8511
1075.73	17.5902
1077.37	16.9593
1079.01	15.8283
1080.65	15.7045
1082.29	15.2782
1083.93	15.2382
1085.57	14.3024
1087.21	14.2087
1088.85	13.5411
1090.49	13.798
1092.13	13.4019
1093.77	13.6018
1095.41	13.4658
1097.04	13.4708
1098.68	13.7511
1100.32	13.6398
1101.95	13.8886
1103.59	14.0445
1105.23	14.8067
1106.86	14.8178
1108.5	14.4501
1110.13	13.6327
1111.77	12.8336
1113.4	13.0215
1115.04	11.9118
1116.67	11.6199
1118.31	11.737
1119.94	11.6239
1121.57	11.959
1123.2	11.9266
1124.84	11.7054
1126.47	10.7419
1128.1	10.3009
1129.73	10.3575
1131.36	10.0646
1132.99	10.3656
1134.62	10.5796
1136.25	10.7292
1137.88	10.5888
1139.51	11.8841
1141.14	11.1908
1142.77	10.5834
1144.4	9.16022
1146.03	8.35957
1147.66	8.28447
1149.28	8.02401
1150.91	8.17001
1152.54	7.36601
1154.16	6.84527
1155.79	6.44079
1157.42	6.02457
1159.04	5.26309
1160.67	4.91678
1162.29	4.27346
1163.92	4.07979
1165.54	3.38907
1167.17	2.97402
1168.79	3.44339
1170.41	3.47547
1172.04	3.6369
1173.66	2.85656
1175.28	2.83942
1176.9	1.82215
1178.53	2.04562
1180.15	1.29663
1181.77	0.71887
1183.39	1.02467
1185.01	0.347807
1186.63	-0.130903
1188.25	-0.84005
1189.87	-0.886649
1191.49	-0.389015
1193.11	-0.730128
1194.73	-0.513244
1196.35	-0.236422
1197.96	0.55832
1199.58	0.933286
1201.2	0.973278
1202.82	1.57201
1204.43	1.72197
1206.05	2.95439
1207.66	3.60553
1209.28	4.87804
1210.9	5.73993
1212.51	6.25981
1214.13	7.941
1215.74	7.98482
1217.36	8.56585
1218.97	9.80074
1220.58	11.0504
1222.2	10.3554
1223.81	12.1104
1225.42	13.214
1227.04	15.2801
1228.65	16.5463
1230.26	18.1369
1231.87	18.6831
1233.48	19.2621
1235.1	21.0961
1236.71	22.3691
1238.32	23.0458
1239.93	23.141
1241.53	23.3592
1243.14	23.7863
1244.75	25.121
1246.36	25.1932
1247.97	26.8917
1249.58	27.4151
1251.19	27.9656
1252.8	27.9809
1254.4	27.8802
1256.01	28.377
1257.62	29.1846
1259.22	29.6574
1260.83	29.7203
1262.43	30.832
1264.04	30.8797
1265.64	30.6987
1267.25	30.9438
1268.85	31.525
1270.46	33.0726
1272.06	33.6882
1273.66	33.6123
1275.27	34.137
1276.87	34.9595
1278.48	35.6571
1280.08	34.9162
1281.68	35.6125
1283.28	36.8967
1284.88	37.3722
1286.48	38.0497
1288.08	37.7853
1289.68	38.093
1291.28	38.0293
1292.88	37.8692
1294.48	37.7333
1296.08	37.0603
1297.68	38.2043
1299.28	38.4627
1300.88	37.6919
1302.48	37.7439
1304.07	39.4071
1305.67	39.4918
1307.27	39.9568
1308.87	40.2544
1310.46	40.6955
1312.06	40.4812
1313.65	40.978
1315.25	40.9394
1316.85	39.9109
1318.44	38.7316
1320.03	37.9381
1321.63	37.9293
1323.22	38.2272
1324.82	38.5082
1326.41	37.3271
1328	38.0732
1329.6	37.544
1331.19	37.3168
1332.78	36.8491
1334.37	36.5337
1335.96	36.3513
1337.56	35.7543
1339.15	34.929
1340.74	34.2873
1342.33	34.1824
1343.92	33.6328
1345.51	33.912
1347.1	33.7164
1348.69	34.4565
1350.28	35.134
1351.86	34.6804
1353.45	34.3802
1355.04	34.2652
1356.63	33.9709
1358.21	32.8267
1359.8	31.8113
1361.39	32.0883
1362.97	31.0901
1364.56	30.1822
1366.15	29.4073
1367.73	28.6105
1369.32	28.5602
1370.9	28.1266
1372.49	27.9742
1374.07	27.4087
1375.65	27.3274
1377.24	26.5265
1378.82	26.1412
1380.41	25.6406
1381.99	25.8519
1383.57	26.4419
1385.15	26.4012
1386.73	25.7857
1388.32	26.4627
1389.9	26.9075
1391.48	26.2848
1393.06	25.7702
1394.64	25.5574
1396.22	25.3238
1397.8	24.7069
1399.38	24.3142
1400.96	24.2484
1402.54	24.4792
1404.11	24.5678
1405.69	24.4402
1407.27	25.7451
1408.85	25.607
1410.43	25.592
1412	26.0251
1413.58	26.7061
1415.16	27.8455
1416.73	29.1622
1418.31	31.0863
1419.88	32.8665
1421.46	34.4151
1423.03	35.9481
1424.61	38.2053
1426.18	40.0353
1427.76	42.6501
1429.33	44.7015
1430.9	45.7526
1432.48	47.503
1434.05	49.2767
1435.62	50.7342
1437.2	52.1284
1438.77	53.9572
1440.34	54.4995
1441.91	55.4826
1443.48	56.9591
1445.05	57.9262
1446.62	58.5452
1448.19	59.5195
1449.76	59.8885
1451.33	60.3576
1452.9	60.0745
1454.47	60.465
1456.04	60.1144
1457.61	60.1738
1459.17	59.2055
1460.74	58.211
1462.31	58.5947
1463.88	57.523
1465.44	56.7106
1467.01	55.7231
1468.58	53.1843
1470.14	50.8632
1471.71	49.3237
1473.27	47.0139
1474.84	44.3875
1476.4	41.9709
1477.97	40.4425
1479.53	38.9974
1481.1	37.5864
1482.66	36.298
1484.22	34.527
1485.78	32.9431
1487.35	30.8688
1488.91	29.1093
1490.47	27.8262
1492.03	27.0831
1493.59	26.0139
1495.16	24.5775
1496.72	23.3769
1498.28	21.9671
1499.84	20.3554
1501.4	19.303
1502.96	18.7042
1504.52	18.299
1506.08	17.7691
1507.64	16.8803
1509.19	16.0125
1510.75	16.3653
1512.31	15.1157
1513.87	13.5711
1515.42	13.0228
1516.98	12.5449
1518.54	11.7965
1520.1	11.6473
1521.65	11.6089
1523.21	12.0092
1524.76	12.3325
1526.32	13.3699
1527.87	13.2396
1529.43	13.6641
1530.98	13.402
1532.54	13.6226
1534.09	12.9477
1535.64	12.6981
1537.2	12.9107
1538.75	13.0858
1540.3	13.9201
1541.85	14.3777
1543.41	14.9674
1544.96	15.1
1546.51	16.0471
1548.06	16.8127
1549.61	16.775
1551.16	16.377
1552.71	17.6394
1554.26	18.5263
1555.81	19.18
1557.36	19.1556
1558.91	19.0707
1560.46	19.5513
1562.01	20.2888
1563.56	20.5433
1565.1	20.4701
1566.65	20.7805
1568.2	21.1048
1569.75	21.4746
1571.29	21.7866
1572.84	22.1962
1574.38	22.5939
1575.93	23.2045
1577.48	23.4246
1579.02	24.5255
1580.57	25.3971
1582.11	25.78
1583.65	25.5027
1585.2	25.737
1586.74	26.5761
1588.29	26.9842
1589.83	26.7214
1591.37	27.4556
1592.92	29.0464
1594.46	29.1828
1596	29.4777
1597.54	29.8738
1599.08	30.2302
1600.62	32.024
1602.16	32.424
1603.7	32.0691
1605.24	31.9153
1606.78	31.6172
1608.32	30.7512
1609.86	30.2381
1611.4	29.8604
1612.94	29.6179
1614.48	30.041
1616.02	30.2054
1617.56	31.0233
1619.09	30.9476
1620.63	30.0995
1622.17	30.1174
1623.71	30.0388
1625.24	29.7443
1626.78	29.8452
1628.31	29.8636
1629.85	30.898
1631.39	30.8081
1632.92	30.876
1634.46	30.7691
1635.99	31.8589
1637.52	33.4849
1639.06	34.306
1640.59	34.0484
1642.12	34.5145
1643.66	35.7771
1645.19	37.3645
1646.72	38.0812
1648.25	39.4416
1649.79	40.7514
1651.32	41.1751
1652.85	41.8922
1654.38	42.2289
1655.91	42.7025
1657.44	42.0099
1658.97	42.5058
1660.5	42.4901
1662.03	42.8579
1663.56	42.9542
1665.09	42.4698
1666.62	41.8362
1668.15	40.7092
1669.67	39.9916
1671.2	39.1513
1672.73	38.1403
1674.26	37.6374
1675.79	36.6683
1677.31	36.4027
1678.84	34.0272
1680.36	32.1163
1681.89	30.677
1683.42	28.8522
1684.94	27.6702
1686.47	26.4341
1687.99	25.9032
1689.51	23.7983
1691.04	22.5972
1692.56	21.2317
1694.08	19.701
1695.61	17.8742
1697.13	17.1564
1698.65	16.5088
1700.18	15.5264
1701.7	14.8664
1703.22	13.8255
1704.74	13.0699
1706.26	12.8226
1707.78	12.2745
1709.3	12.4202
1710.82	12.3294
1712.35	12.5171
1713.86	12.5942
1715.39	13.048
1716.9	13.4083
1718.42	14.3565
1719.94	14.6776
1721.46	14.6961
1722.98	14.2273
1724.5	14.6557
1726.01	14.3572
1727.53	13.3181
1729.05	13.2663
1730.56	13.4161
1732.08	13.0505
1733.6	13.0778
1735.11	12.9435
1736.63	12.4626
1738.14	12.0228
1739.66	11.1434
1741.17	10.4883
1742.69	9.72894
1744.2	8.90911
1745.71	9.38136
1747.23	9.28654
1748.74	8.45414
1750.25	8.11614
1751.77	7.48013
1753.28	7.13835
1754.79	6.29128
1756.3	6.01964
1757.81	5.56767
1759.33	5.50719
1760.84	4.63923
1762.35	3.80106
1763.86	3.20913
1765.37	2.01415
1766.88	1.94941
1768.39	1.72113
1769.9	1.30034
1771.41	1.73451
1772.91	1.69347
1774.42	1.80967
1775.93	1.87921
1777.44	1.83121
1778.95	1.56128
1780.45	1.65877
1781.96	1.69682
1783.47	2.44316
1784.97	3.32334
1786.48	3.56262
1787.99	4.54248
1789.49	5.37175
1791	6.0637
1792.5	5.95462
1794.01	6.09392
1795.51	5.95654
1797.01	6.20067
1798.52	6.42811
1800.02	6.91318
1801.52	7.13978
1803.03	7.51248
1804.53	7.84933
1806.03	8.06752
1807.54	7.83367
1809.04	7.421
1810.54	7.05283
1812.04	7.02036
1813.54	6.57629
1815.04	6.0527
1816.54	6.50714
1818.04	6.39229
1819.54	5.95945
1821.04	6.07137
1822.54	5.81701
1824.04	5.61597
1825.54	5.64155
1827.04	5.56539
1828.54	5.30305
1830.03	5.50581
1831.53	5.69314
1833.03	5.05049
1834.53	4.62052
1836.02	4.18188
1837.52	4.28898
1839.02	4.36898
1840.51	4.69274
1842.01	4.87043
1843.5	5.14528
1845	5.30874
1846.49	5.48682
1847.99	5.35891
1849.48	5.75437
1850.98	5.68616
1852.47	6.05045
1853.96	6.14333
1855.46	7.17391
1856.95	7.74452
1858.44	7.78916
1859.94	8.35532
1861.43	8.52301
1862.92	8.60411
1864.41	8.34293
1865.9	8.74867
1867.39	9.27408
1868.88	9.76979
1870.37	10.0455
1871.86	10.6919
1873.35	11.1467
1874.84	11.4544
1876.33	11.0834
1877.82	10.8145
1879.31	11.0794
1880.8	10.9956
1882.29	11.0107
1882.58	10.8319
1884.08	10.8566
1885.57	10.7797
1887.06	10.3781
1888.56	10.0647
1890.05	10.2408
1891.54	9.90823
1893.04	9.5474
1894.53	9.50402
1896.02	9.36893
1897.51	9.45796
1899	8.69222
1900.5	8.22803
1901.99	8.11589
1903.48	7.5393
1904.97	6.8843
1906.46	6.61291
1907.95	6.90751
1909.44	6.39576
1910.93	6.03469
1912.42	6.08992
1913.91	5.79067
1915.4	5.29648
1916.88	4.74728
1918.37	4.51964
1919.86	4.38246
1921.35	4.06582
1922.84	3.47939
1924.32	3.1884
1925.81	2.7944
1927.3	2.00685
1928.78	2.2277
1930.27	1.12874
1931.75	0.513715
1933.24	0.570158
1934.72	0.0444123
1936.21	0.210853
1937.69	0.217435
1939.18	0.386579
1940.66	0.260863
1942.15	0.0320366
1943.63	0.0134352
1945.11	-0.308071
1946.6	-0.630873
1948.08	-0.838471
1949.56	-0.870788
1951.04	-0.235932
1952.53	0.469074
1954.01	0.298624
1955.49	0.36205
1956.97	0.33809
1958.45	0.867546
1959.93	1.09576
1961.41	0.715637
1962.89	1.13809
1964.37	1.616
1965.85	1.90271
1967.33	2.25237
1968.81	2.81336
1970.29	3.13222
1971.77	3.67596
1973.24	2.89795
1974.72	3.52034
1976.2	3.52484
1977.68	3.404
1979.15	3.69813
1980.63	3.36725
1982.11	3.02984
1983.58	2.69732
1985.06	3.12952
1986.53	3.24652
1988.01	3.36301
1989.48	3.39641
1990.96	3.88395
1992.43	4.2071
1993.91	3.80208
1995.38	3.86898
1996.86	4.19551
1998.33	4.46189
1999.8	4.13717
2001.27	4.5773
2002.75	4.73294
2004.22	4.19631
2005.69	3.98358
2007.16	4.40143
2008.64	4.52465
2010.11	4.92239
2011.58	4.46491
2013.05	4.54861
2014.52	4.94447
2015.99	4.54822
2017.46	4.8847
2018.93	5.15017
2020.4	6.07217
2021.87	6.46302
2023.34	6.45374
2024.8	7.03592
2026.27	6.88159
2027.74	6.77739
2029.21	6.90985
2030.68	6.41541
2032.14	6.90474
2033.61	6.66998
2035.08	6.53841
2036.54	6.85997
2038.01	7.1948
2039.48	7.13719
2040.94	6.88337
2042.41	6.5295
2043.87	6.2572
2045.34	6.11826
2046.8	6.04053
2048.27	6.12577
2049.73	5.20741
2051.19	5.00542
2052.66	4.8924
2054.12	4.99259
2055.58	4.94486
2057.05	4.96998
2058.51	5.347
2059.97	5.36119
2061.43	5.60295
2062.9	5.27141
2064.36	5.62586
2065.82	5.43087
2067.28	5.51399
2068.74	5.64533
2070.2	5.30978
2071.66	5.25393
2073.12	5.2208
2074.58	5.08295
2076.04	4.5679
2077.5	5.13758
2078.95	5.33404
2080.41	5.71468
2081.87	5.43257
2083.33	5.81324
2084.79	6.2694
2086.24	6.82243
2087.7	7.22495
2089.16	7.47943
2090.61	8.41411
2092.07	8.87506
2093.53	9.36598
2094.98	9.15606
2096.44	9.53225
2097.89	9.87039
2099.35	9.45759
2100.8	9.91949
2102.26	10.7651
2103.71	10.6669
2105.16	11.8756
2106.62	11.9967
2108.07	12.8063
2109.53	13.2046
2110.98	13.7404
2112.43	13.8152
2113.88	14.2863
2115.33	15.0124
2116.79	15.7247
2118.24	15.8246
2119.69	16.371
2121.14	16.867
2122.59	17.4883
2124.04	18.2914
2125.49	18.7776
2126.94	19.1307
2128.39	19.226
2129.84	19.9237
2131.29	20.3705
2132.74	20.4978
