#Acq. time (s)=	45
#Accumulations=	2
#Range (cm-¹)=	200...3150
#Windows=	2
#Auto scanning=	Off
#Autofocus=	Off
#Macrospot=	Off
#AutoExposure=	Off
#Spike filter=	Multiple accum.
#Delay time (s)=	0
#Binning=	1
#Readout mode=	Signal
#DeNoise=	Off
#ICS correction=	On
#Dark correction=	Off
#Inst. Process=	Off
#Detector Gain=	Best Dynamic Range
#Detector ADC=	20 kHz       
#Detector temperature (°C)=	-69.85
#Instrument=	LabRAM HR Evol
#Detector=	Synapse
#Objective=	x100
#Grating=	600 gr/mm
#ND Filter=	100%
#Laser (nm)=	532 
#Hole=	100.021
#Range=	Auto
#Laser Pol.=	No
#Raman. Pol.=	No
#Laser Pol. (°)=	-0.0007625
#Raman Pol. (°)=	89.9995
#Collection=	Microscope
#StageXY=	Marzhauser
#StageZ=	Marzhauser
#X (µm)=	-1202.3
#Y (µm)=	1255.6
#Z (µm)=	577.85
#Full time(mm:ss)=	3:18
#Project=	
#Sample=	
#Site=	
#Title=	Mbcal_20_25_05_2x_45s_532 nm_x100_100%_600 gr_mm
#Remark=	
#Date=	18.07.2022 09:45
#Acquired=	18.07.2022 09:45:21
#Base:Fit=	10.08.2022 10:55:08
#Base:Sub=	10.08.2022 10:55:14
#Filter:Polynom=	16.08.2022 10:07:27
#AxisType[0]=Intens
#AxisUnit[0]=Cnt
#AxisType[1]=Spectr
#AxisUnit[1]=1/cm
200.419	4.15146
202.234	2.75168
204.048	3.22361
205.862	2.80884
207.678	2.67485
209.491	2.13213
211.304	1.88163
213.116	2.17659
214.928	1.63822
216.742	1.81636
218.554	2.48353
220.365	1.78745
222.176	0.569907
223.986	0.707331
225.798	1.58593
227.608	2.57969
229.417	3.2142
231.226	4.00854
233.035	4.46692
234.843	4.82181
236.653	4.619
238.46	5.17411
240.268	5.2239
242.074	5.99176
243.881	6.57816
245.687	6.70804
247.493	7.18245
249.298	7.77984
251.103	8.38465
252.908	9.60773
254.715	10.6215
256.519	10.4001
258.322	11.3766
260.126	11.7133
261.929	11.419
263.731	11.3768
265.534	13.188
267.336	12.8861
269.137	12.3972
270.938	12.5516
272.739	13.074
274.54	14.1425
276.34	12.8765
278.14	11.6589
279.939	11.9009
281.739	11.8247
283.537	11.2163
285.336	10.0434
287.134	10.4059
288.932	10.4253
290.729	10.9086
292.526	10.0787
294.323	9.24231
296.117	9.06029
297.913	9.04907
299.709	11.0971
301.504	12.1577
303.299	12.3649
305.093	12.0439
306.888	12.3665
308.682	11.9569
310.475	12.1096
312.268	13.3833
314.059	14.8787
315.852	15.8759
317.644	16.3416
319.436	16.975
321.227	17.2339
323.018	17.7949
324.807	18.0582
326.597	18.419
328.387	19.4436
330.177	19.4111
331.967	19.8257
333.753	20.0414
335.542	20.0091
337.331	20.4351
339.119	21.6497
340.906	21.2864
342.691	20.6479
344.478	20.4117
346.265	18.9803
348.051	18.8107
349.835	17.3807
351.621	16.3312
353.406	16.2401
355.189	14.5283
356.973	12.869
358.757	13.2284
360.541	12.4658
362.323	11.5403
364.106	10.8568
365.889	9.34394
367.669	8.09126
369.451	7.38795
371.233	7.14189
373.012	6.0986
374.793	6.24532
376.574	6.31993
378.353	6.72983
380.133	6.14335
381.91	5.4799
383.69	5.68542
385.469	5.47052
387.245	6.39201
389.024	7.09068
390.8	5.59975
392.577	4.64241
394.353	4.25595
396.129	3.79325
397.906	4.4312
399.68	5.55776
401.456	5.50118
403.23	5.96965
405.005	7.00287
406.778	7.02731
408.552	7.60876
410.325	7.3901
412.099	7.66868
413.87	6.99849
415.643	7.33154
417.414	7.48647
419.187	6.98118
420.957	7.36462
422.728	7.19849
424.498	7.23236
426.269	7.08202
428.038	7.65617
429.806	6.68292
431.576	6.7467
433.344	6.48838
435.114	6.40485
436.881	6.99591
438.649	6.37927
440.416	7.03982
442.182	7.84278
443.949	7.18241
445.715	8.8592
447.48	8.98081
449.247	8.97984
451.011	9.34894
452.777	9.13392
454.541	9.16956
456.304	9.31835
458.069	10.5131
459.832	11.118
461.594	11.3748
463.358	12.1598
465.119	11.6729
466.881	11.8231
468.642	11.4544
470.404	11.5984
472.165	12.2459
473.925	11.7982
475.684	11.9816
477.445	11.1565
479.204	10.5969
480.963	11.2363
482.721	12.1109
484.481	12.4189
486.239	13.355
487.996	14.1324
489.753	14.2411
491.511	13.2453
493.268	12.3673
495.023	11.8248
496.779	12.1415
498.534	11.8876
500.289	11.9604
502.046	12.7198
503.8	13.3381
505.554	12.6859
507.307	12.9943
509.06	13.6003
510.813	14.4772
512.566	15.783
514.32	16.6627
516.072	17.4133
517.823	17.715
519.574	17.8192
521.325	18.8215
523.076	18.9801
524.826	19.411
526.576	18.9369
528.325	19.3642
530.074	19.2979
531.823	18.2582
533.572	18.553
535.32	18.0547
537.068	19.1657
538.815	18.8038
540.562	19.1342
542.309	19.498
544.056	18.8435
545.802	19.4351
547.547	18.5577
549.293	19.1722
551.038	19.2394
552.783	18.4121
554.527	18.3021
556.271	18.5657
558.015	17.3357
559.759	16.6352
561.502	15.1102
563.245	14.6141
564.987	13.9781
566.729	14.056
568.471	13.6726
570.213	13.3278
571.954	11.4109
573.693	10.9759
575.433	9.26504
577.173	7.8213
578.913	6.26511
580.652	6.364
582.392	5.93082
584.13	5.4446
585.867	5.17093
587.605	5.04135
589.343	5.36881
591.08	4.35216
592.817	3.07858
594.552	3.66462
596.289	4.64408
598.025	4.82341
599.761	4.95783
601.496	5.12748
603.229	4.9301
604.964	5.80219
606.699	5.57213
608.433	6.71166
610.165	6.46739
611.898	7.7572
613.631	7.98464
615.364	8.33284
617.095	8.31571
618.827	8.15615
620.559	8.97139
622.288	9.19985
624.02	10.1177
625.75	10.1589
627.479	11.3197
629.209	11.1815
630.939	11.651
632.667	12.4353
634.396	12.9121
636.125	14.7705
637.851	15.2129
639.58	14.91
641.305	15.7575
643.033	15.8654
644.76	15.7531
646.485	16.4797
648.212	16.8727
649.936	17.1754
651.662	18.0608
653.388	18.9185
655.111	19.2952
656.836	19.7743
658.558	19.6687
660.283	20.5362
662.005	20.5636
663.728	20.0599
665.45	20.0979
667.173	19.9279
668.893	20.6909
670.616	21.6341
672.336	21.8805
674.057	21.8787
675.777	21.8123
677.498	21.2717
679.216	22.0431
680.937	23.1932
682.655	23.3482
684.375	23.5097
686.092	23.4614
687.809	23.1653
689.528	23.9069
691.244	24.7814
692.962	23.9839
694.678	24.9832
696.393	24.8479
698.111	24.5262
699.825	24.268
701.54	24.2465
703.256	24.1449
704.97	24.2966
706.685	23.7197
708.398	23.4465
710.111	24.4039
711.826	24.7357
713.538	25.5097
715.25	24.9076
716.961	25.8259
718.675	26.8823
720.386	28.0072
722.096	28.8106
723.808	28.9543
725.518	28.8524
727.228	29.0083
728.937	29.4138
730.648	30.4764
732.357	31.1439
734.065	32.0613
735.773	32.9241
737.483	34.1544
739.19	34.4954
740.897	34.8152
742.604	36.0035
744.31	36.6099
746.018	36.8272
747.724	37.7222
749.429	38.2741
751.134	39.9942
752.839	40.7244
754.544	41.5582
756.248	41.7266
757.953	42.5846
759.657	43.9257
761.36	44.5273
763.063	45.7586
764.765	47.5322
766.468	47.2885
768.169	47.8515
769.871	49.7091
771.572	49.3935
773.273	51.7837
774.976	53.5463
776.676	54.6297
778.376	54.6089
780.075	56.1628
781.775	58.0993
783.474	60.3557
785.172	61.1409
786.871	62.4559
788.569	63.2866
790.266	63.9258
791.964	64.7821
793.661	67.2868
795.358	69.2064
797.054	71.1499
798.75	73.0514
800.446	74.1858
802.141	75.5359
803.834	76.4074
805.529	76.1518
807.224	76.539
808.918	76.8849
810.612	76.406
812.305	76.8561
813.998	76.7102
815.691	76.7535
817.384	76.046
819.076	75.4289
820.766	75.4093
822.458	75.3036
824.149	75.1984
825.84	75.5368
827.531	75.8948
829.221	74.8468
830.909	74.94
832.599	75.3295
834.288	74.5376
835.977	73.7464
837.666	73.2107
839.353	72.4196
841.041	70.6989
842.729	69.9439
844.416	68.3535
846.103	66.1051
847.788	64.9454
849.475	63.6934
851.161	61.2791
852.845	60.3494
854.53	59.1448
856.216	57.5673
857.901	56.9142
859.583	54.7829
861.268	54.3605
862.952	53.7418
864.633	53.3891
866.317	53.7644
868	51.9061
869.681	50.5315
871.363	51.3006
873.045	50.5838
874.725	49.9251
876.406	50.2509
878.088	49.7016
879.767	48.6599
881.447	47.8993
883.125	46.679
884.805	45.3925
886.483	44.7621
888.162	44.1639
889.841	43.4186
891.518	43.8526
893.196	42.6824
894.872	41.6721
896.55	41.9843
898.225	41.3358
899.902	42.5362
901.577	42.8398
903.254	43.7731
904.928	44.9418
906.604	45.3596
908.277	46.144
909.952	46.4721
911.625	46.7315
913.3	47.383
914.972	48.0695
916.646	47.5284
918.318	46.1545
919.991	46.584
921.662	45.3665
923.333	44.6023
925.005	42.9596
926.675	42.7322
928.347	42.4796
930.017	42.0396
931.686	40.7605
933.357	40.2093
935.025	39.4494
936.693	38.8527
938.363	37.6392
940.031	36.588
941.698	35.8159
943.367	35.5437
945.034	35.689
946.7	34.6277
948.368	33.794
950.034	33.3866
951.699	32.2447
953.367	32.2122
955.031	31.3818
956.696	30.1527
958.36	28.7023
960.026	27.1637
961.689	26.0614
963.353	26.736
965.016	25.9843
966.68	26.1316
968.343	25.7831
970.005	26.4349
971.666	25.7461
973.328	25.916
974.991	25.737
976.652	24.1061
978.312	25.0664
979.972	24.4372
981.632	24.0638
983.292	24.6255
984.953	24.1465
986.612	23.5021
988.27	23.0841
989.929	21.6561
991.587	21.0896
993.244	20.6262
994.902	19.8887
996.559	18.4374
998.216	17.3313
999.872	15.7895
1001.53	15.356
1003.19	15.4739
1004.84	14.3231
1006.5	13.173
1008.15	12.0559
1009.81	11.8815
1011.46	11.7006
1013.11	9.98783
1014.77	9.53228
1016.42	9.56362
1018.07	9.81915
1019.73	9.81064
1021.38	9.30428
1023.03	8.63573
1024.68	8.77236
1026.34	9.64572
1027.99	9.90684
1029.64	10.3343
1031.29	10.399
1032.94	10.0884
1034.59	10.4159
1036.24	10.6625
1037.89	10.1966
1039.53	10.6243
1041.18	10.4883
1042.83	11.2987
1044.48	11.5155
1046.13	12.0454
1047.77	10.6383
1049.42	11.1937
1051.07	10.5383
1052.71	10.6602
1054.36	10.1411
1056	9.9911
1057.65	9.64581
1059.3	9.02993
1060.94	9.37481
1062.59	7.91067
1064.23	8.13923
1065.87	8.37054
1067.52	6.89553
1069.16	5.89179
1070.8	6.7267
1072.44	6.43516
1074.09	6.34169
1075.73	7.08828
1077.37	5.59245
1079.01	5.07404
1080.65	4.87866
1082.29	3.99807
1083.93	3.73399
1085.57	3.13888
1087.21	2.97264
1088.85	2.09494
1090.49	3.23029
1092.13	3.52535
1093.77	3.96693
1095.41	4.60037
1097.04	6.1422
1098.68	5.43176
1100.32	7.30094
1101.95	6.36549
1103.59	5.70602
1105.23	5.51513
1106.86	6.65473
1108.5	7.47746
1110.13	6.98036
1111.77	6.50203
1113.4	6.73078
1115.04	7.51621
1116.67	7.60014
1118.31	6.75802
1119.94	6.3465
1121.57	7.23182
1123.2	6.52396
1124.84	6.47319
1126.47	5.13135
1128.1	5.22931
1129.73	3.94879
1131.36	4.18574
1132.99	4.02097
1134.62	4.69489
1136.25	4.81005
1137.88	5.03907
1139.51	4.03991
1141.14	4.00334
1142.77	4.51686
1144.4	4.72829
1146.03	5.20472
1147.66	4.86171
1149.28	4.06085
1150.91	5.25703
1152.54	6.05267
1154.16	5.07702
1155.79	4.63586
1157.42	5.218
1159.04	3.50898
1160.67	4.28823
1162.29	4.82518
1163.92	5.17329
1165.54	4.67518
1167.17	5.17252
1168.79	5.57198
1170.41	6.02201
1172.04	7.30208
1173.66	7.37852
1175.28	8.42544
1176.9	7.84298
1178.53	6.86791
1180.15	5.57725
1181.77	5.76971
1183.39	4.35818
1185.01	5.42502
1186.63	5.98116
1188.25	6.83571
1189.87	5.76877
1191.49	6.0187
1193.11	5.91309
1194.73	6.46433
1196.35	5.763
1197.96	5.10907
1199.58	5.45868
1201.2	6.25347
1202.82	6.51779
1204.43	6.62254
1206.05	6.71685
1207.66	6.22358
1209.28	6.42975
1210.9	6.84887
1212.51	7.76128
1214.13	8.82743
1215.74	9.25674
1217.36	9.04603
1218.97	9.22552
1220.58	9.10653
1222.2	10.9436
1223.81	12.4705
1225.42	12.9546
1227.04	13.9845
1228.65	14.5997
1230.26	15.7173
1231.87	17.3414
1233.48	19.2861
1235.1	20.5992
1236.71	21.7196
1238.32	23.0708
1239.93	24.727
1241.53	25.8061
1243.14	26.1058
1244.75	26.3852
1246.36	26.6563
1247.97	27.6605
1249.58	28.4661
1251.19	28.4278
1252.8	28.6784
1254.4	28.2808
1256.01	28.4626
1257.62	27.7758
1259.22	27.9924
1260.83	28.2218
1262.43	28.9884
1264.04	29.4552
1265.64	30.5762
1267.25	29.63
1268.85	29.2971
1270.46	28.8059
1272.06	30.454
1273.66	30.5332
1275.27	30.9446
1276.87	31.434
1278.48	32.5288
1280.08	33.3748
1281.68	33.9677
1283.28	34.7968
1284.88	35.6448
1286.48	37.1718
1288.08	37.5142
1289.68	38.6882
1291.28	39.6215
1292.88	40.0543
1294.48	40.5727
1296.08	40.8067
1297.68	41.4601
1299.28	42.5097
1300.88	44.1689
1302.48	45.8885
1304.07	47.4122
1305.67	47.9575
1307.27	48.8966
1308.87	49.3064
1310.46	50.6878
1312.06	52.0648
1313.65	52.8041
1315.25	51.8746
1316.85	52.2095
1318.44	52.3284
1320.03	52.7289
1321.63	51.9949
1323.22	52.4981
1324.82	52.0934
1326.41	52.023
1328	51.5272
1329.6	52.0145
1331.19	51.9079
1332.78	51.4399
1334.37	51.5631
1335.96	51.8283
1337.56	51.3679
1339.15	50.5684
1340.74	49.9806
1342.33	49.4655
1343.92	49.0527
1345.51	48.6289
1347.1	48.3672
1348.69	48.873
1350.28	48.9012
1351.86	48.7772
1353.45	48.9526
1355.04	47.8547
1356.63	47.5076
1358.21	47.394
1359.8	46.8628
1361.39	47.2594
1362.97	47.1542
1364.56	46.8847
1366.15	46.9983
1367.73	45.3905
1369.32	45.0911
1370.9	44.2379
1372.49	43.5452
1374.07	43.5328
1375.65	42.6672
1377.24	42.1418
1378.82	41.9725
1380.41	41.6702
1381.99	40.8683
1383.57	40.3069
1385.15	39.7796
1386.73	39.1758
1388.32	38.6842
1389.9	38.1095
1391.48	38.2539
1393.06	37.1606
1394.64	36.5005
1396.22	36.7711
1397.8	36.5262
1399.38	37.5255
1400.96	37.3755
1402.54	37.7513
1404.11	37.8778
1405.69	39.1319
1407.27	39.4547
1408.85	40.6289
1410.43	40.3119
1412	40.5005
1413.58	41.9666
1415.16	42.7236
1416.73	44.2189
1418.31	45.726
1419.88	47.1671
1421.46	48.8501
1423.03	50.9608
1424.61	53.0889
1426.18	55.6427
1427.76	56.1885
1429.33	57.603
1430.9	59.9423
1432.48	61.8162
1434.05	63.2503
1435.62	65.5291
1437.2	67.7431
1438.77	68.4181
1440.34	70.5418
1441.91	72.0276
1443.48	71.902
1445.05	72.2712
1446.62	72.7088
1448.19	73.4406
1449.76	72.9987
1451.33	72.1385
1452.9	71.6427
1454.47	70.9834
1456.04	71.6479
1457.61	71.4949
1459.17	72.2649
1460.74	71.4852
1462.31	70.9458
1463.88	70.1563
1465.44	69.4406
1467.01	69.2384
1468.58	67.9737
1470.14	66.5761
1471.71	63.8891
1473.27	62.0274
1474.84	60.4556
1476.4	59.1527
1477.97	57.6472
1479.53	55.6072
1481.1	54.9931
1482.66	52.6208
1484.22	50.7775
1485.78	48.946
1487.35	47.2781
1488.91	44.9155
1490.47	43.755
1492.03	41.9776
1493.59	41.4682
1495.16	41.1042
1496.72	39.4612
1498.28	37.9508
1499.84	37.3623
1501.4	36.555
1502.96	36.4534
1504.52	35.3861
1506.08	34.0118
1507.64	34.191
1509.19	33.8303
1510.75	33.2301
1512.31	32.4956
1513.87	31.0441
1515.42	29.874
1516.98	28.3789
1518.54	28.464
1520.1	27.5938
1521.65	26.1458
1523.21	27.0635
1524.76	26.6349
1526.32	26.4682
1527.87	25.9972
1529.43	26.6307
1530.98	26.7606
1532.54	27.0767
1534.09	27.1671
1535.64	27.5937
1537.2	27.7714
1538.75	27.1144
1540.3	27.0329
1541.85	27.5538
1543.41	27.8678
1544.96	27.4408
1546.51	26.9208
1548.06	26.903
1549.61	27.1098
1551.16	26.9854
1552.71	27.7818
1554.26	28.4068
1555.81	28.7212
1557.36	29.1195
1558.91	29.7218
1560.46	29.4352
1562.01	29.5964
1563.56	30.6427
1565.1	29.8413
1566.65	29.9335
1568.2	31.1499
1569.75	31.565
1571.29	32.8804
1572.84	33.4941
1574.38	33.8582
1575.93	34.3143
1577.48	35.0713
1579.02	35.1455
1580.57	36.8314
1582.11	37.0643
1583.65	39.0586
1585.2	39.8727
1586.74	41.3444
1588.29	42.2779
1589.83	42.509
1591.37	43.2511
1592.92	44.6744
1594.46	46.5321
1596	47.9899
1597.54	48.5047
1599.08	49.0927
1600.62	50.2088
1602.16	49.726
1603.7	50.2886
1605.24	49.4937
1606.78	49.3841
1608.32	48.7827
1609.86	49.4963
1611.4	50.2423
1612.94	50.8127
1614.48	51.2544
1616.02	51.9155
1617.56	50.9503
1619.09	51.4672
1620.63	51.0033
1622.17	50.9883
1623.71	51.4706
1625.24	51.6157
1626.78	51.2566
1628.31	51.1482
1629.85	51.2861
1631.39	50.4399
1632.92	50.2683
1634.46	49.7007
1635.99	48.9269
1637.52	47.5566
1639.06	46.6352
1640.59	46.6301
1642.12	45.3064
1643.66	45.1902
1645.19	45.3993
1646.72	45.1373
1648.25	45.5583
1649.79	45.4002
1651.32	44.8261
1652.85	44.5092
1654.38	44.8135
1655.91	44.8602
1657.44	45.7507
1658.97	44.6513
1660.5	43.6671
1662.03	41.4608
1663.56	41.4135
1665.09	39.1878
1666.62	38.8345
1668.15	37.9028
1669.67	37.6557
1671.2	36.2598
1672.73	33.9595
1674.26	32.1801
1675.79	30.6655
1677.31	29.5224
1678.84	28.0157
1680.36	27.1802
1681.89	26.5741
1683.42	26.0518
1684.94	25.2331
1686.47	24.0966
1687.99	22.8461
1689.51	21.4096
1691.04	20.2492
1692.56	18.1884
1694.08	16.7835
1695.61	16.8348
1697.13	16.4684
1698.65	15.8437
1700.18	14.4537
1701.7	13.4052
1703.22	12.2173
1704.74	11.0477
1706.26	10.454
1707.78	9.72926
1709.3	9.04096
1710.82	7.79872
1712.35	6.98396
1713.86	6.55497
1715.39	6.90656
1716.9	6.66593
1718.42	6.19545
1719.94	6.3098
1721.46	6.63671
1722.98	6.73291
1724.5	6.28941
1726.01	5.4711
1727.53	5.91141
1729.05	6.28382
1730.56	6.37901
1732.08	6.03282
1733.6	5.78208
1735.11	5.12382
1736.63	5.34621
1738.14	5.68807
1739.66	5.99387
1741.17	5.66728
1742.69	6.72707
1744.2	6.1585
1745.71	6.44348
1747.23	5.82933
1748.74	5.05232
1750.25	5.19099
1751.77	5.35875
1753.28	6.43486
1754.79	6.00848
1756.3	5.918
1757.81	5.98175
1759.33	5.50634
1760.84	5.01039
1762.35	4.67969
1763.86	5.12744
1765.37	5.11947
1766.88	5.48756
1768.39	5.49356
1769.9	6.19392
1771.41	6.15358
1772.91	5.72228
1774.42	4.55033
1775.93	4.0258
1777.44	4.17513
1778.95	4.30638
1780.45	3.88913
1781.96	3.74062
1783.47	2.79135
1784.97	1.95067
1786.48	1.3049
1787.99	1.50645
1789.49	1.28091
1791	1.04398
1792.5	0.659508
1794.01	0.39119
1795.51	-0.106484
1797.01	-0.241272
1798.52	0.0981723
1800.02	0.136449
1801.52	0.474674
1803.03	1.03894
1804.53	0.384411
1806.03	0.511044
1807.54	0.407065
1809.04	0.378465
1810.54	0.0572628
1812.04	-0.0336452
1813.54	-0.709682
1815.04	-0.905272
1816.54	-0.798717
1818.04	-0.969039
1819.54	-0.854635
1821.04	-0.472871
1822.54	-0.581748
1824.04	-0.355302
1825.54	0.476672
1827.04	1.17378
1828.54	1.32023
1830.03	1.308
1831.53	2.16025
1833.03	2.44854
1834.53	2.60646
1836.02	2.84659
1837.52	3.39602
1839.02	4.03756
1840.51	4.40325
1842.01	5.22078
1843.5	5.28327
1845	5.94852
1846.49	6.10615
1847.99	6.42241
1849.48	6.95345
1850.98	7.77845
1852.47	7.90784
1853.96	7.66166
1855.46	7.49568
1856.95	7.68639
1858.44	8.42968
1859.94	8.57103
1861.43	8.04831
1862.92	8.69745
1864.41	7.81059
1865.9	7.37761
1867.39	6.62389
1868.88	6.46196
1870.37	5.98819
1871.86	6.2191
1873.35	6.27874
1874.84	6.09655
1876.33	5.73209
1877.82	5.1747
1879.31	4.57999
1880.8	4.95122
1882.29	4.51386
1882.58	4.43045
1884.08	3.95686
1885.57	3.84388
1887.06	3.85223
1888.56	3.78309
1890.05	3.78914
1891.54	3.65196
1893.04	3.77799
1894.53	3.05348
1896.02	3.26933
1897.51	3.33549
1899	3.13063
1900.5	3.00187
1901.99	2.91884
1903.48	3.47708
1904.97	2.9265
1906.46	2.58868
1907.95	1.94967
1909.44	2.64706
1910.93	2.9617
1912.42	3.06241
1913.91	3.05128
1915.4	3.44817
1916.88	3.14089
1918.37	3.23676
1919.86	3.30187
1921.35	3.4703
1922.84	3.22789
1924.32	2.97013
1925.81	3.30661
1927.3	3.71604
1928.78	4.48275
1930.27	4.9447
1931.75	4.61793
1933.24	3.73049
1934.72	3.32629
1936.21	3.59253
1937.69	3.59792
1939.18	3.93088
1940.66	4.07849
1942.15	4.28145
1943.63	4.58491
1945.11	4.10342
1946.6	3.9005
1948.08	3.74891
1949.56	3.76837
1951.04	3.81158
1952.53	4.62836
1954.01	5.34346
1955.49	5.84653
1956.97	5.90589
1958.45	5.68356
1959.93	6.31222
1961.41	5.65861
1962.89	5.66766
1964.37	5.49171
1965.85	5.31704
1967.33	5.44916
1968.81	5.56337
1970.29	5.75781
1971.77	5.47302
1973.24	4.70303
1974.72	5.20403
1976.2	5.07145
1977.68	4.8509
1979.15	4.28435
1980.63	4.09379
1982.11	3.73248
1983.58	4.80227
1985.06	4.82421
1986.53	4.62344
1988.01	5.01668
1989.48	5.29418
1990.96	5.6084
1992.43	6.44148
1993.91	6.57208
1995.38	7.53449
1996.86	7.6306
1998.33	8.47196
1999.8	8.43407
2001.27	7.78904
2002.75	7.29538
2004.22	6.43113
2005.69	6.16784
2007.16	5.98035
2008.64	6.329
2010.11	6.4639
2011.58	6.54068
2013.05	5.96311
2014.52	5.69629
2015.99	5.77383
2017.46	6.53624
2018.93	6.5046
2020.4	7.264
2021.87	7.87604
2023.34	8.08628
2024.8	8.17054
2026.27	8.46745
2027.74	8.7147
2029.21	8.69666
2030.68	8.15659
2032.14	7.90577
2033.61	8.72436
2035.08	7.13626
2036.54	7.59351
2038.01	7.03621
2039.48	6.71243
2040.94	6.68409
2042.41	6.51982
2043.87	5.99609
2045.34	5.37091
2046.8	4.94161
2048.27	5.21507
2049.73	4.85911
2051.19	4.84345
2052.66	5.40036
2054.12	5.24456
2055.58	5.5844
2057.05	6.36013
2058.51	6.32679
2059.97	6.09815
2061.43	5.66104
2062.9	6.14807
2064.36	6.51343
2065.82	6.48314
2067.28	6.28947
2068.74	7.08367
2070.2	6.62276
2071.66	5.91509
2073.12	5.47568
2074.58	5.25752
2076.04	5.03927
2077.5	5.26846
2078.95	5.94938
2080.41	6.21726
2081.87	6.1555
2083.33	5.93439
2084.79	6.07609
2086.24	6.42025
2087.7	7.37801
2089.16	8.45841
2090.61	8.88878
2092.07	8.38654
2093.53	8.74045
2094.98	8.56964
2096.44	9.19745
2097.89	9.8621
2099.35	10.3382
2100.8	10.685
2102.26	11.1839
2103.71	11.1004
2105.16	11.4382
2106.62	11.6668
2108.07	10.4706
2109.53	11.114
2110.98	10.8503
2112.43	11.0265
2113.88	10.8538
2115.33	11.0887
2116.79	11.8195
2118.24	12.4188
2119.69	13.2733
2121.14	13.6567
2122.59	14.5501
2124.04	15.1202
2125.49	15.8795
2126.94	16.185
2128.39	16.3794
2129.84	16.4935
2131.29	16.8205
