#Acq. time (s)=	45
#Accumulations=	2
#Range (cm-¹)=	200...3150
#Windows=	2
#Auto scanning=	Off
#Autofocus=	Off
#Macrospot=	Off
#AutoExposure=	Off
#Spike filter=	Multiple accum.
#Delay time (s)=	0
#Binning=	1
#Readout mode=	Signal
#DeNoise=	Off
#ICS correction=	On
#Dark correction=	Off
#Inst. Process=	Off
#Detector Gain=	Best Dynamic Range
#Detector ADC=	20 kHz       
#Detector temperature (°C)=	-69.85
#Instrument=	LabRAM HR Evol
#Detector=	Synapse
#Objective=	x100
#Grating=	600 gr/mm
#ND Filter=	100%
#Laser (nm)=	532 
#Hole=	100.021
#Range=	Auto
#Laser Pol.=	No
#Raman. Pol.=	No
#Laser Pol. (°)=	-0.0007625
#Raman Pol. (°)=	89.9995
#Collection=	Microscope
#StageXY=	Marzhauser
#StageZ=	Marzhauser
#X (µm)=	-1198.6
#Y (µm)=	1255.5
#Z (µm)=	577.9
#Full time(mm:ss)=	3:18
#Project=	
#Sample=	
#Site=	
#Title=	Mbcal_20_25_06_2x_45s_532 nm_x100_100%_600 gr_mm
#Remark=	
#Date=	18.07.2022 09:51
#Acquired=	18.07.2022 09:51:44
#Base:Fit=	10.08.2022 10:55:08
#Base:Sub=	10.08.2022 10:55:14
#Filter:Polynom=	16.08.2022 10:07:27
#AxisType[0]=Intens
#AxisUnit[0]=Cnt
#AxisType[1]=Spectr
#AxisUnit[1]=1/cm
200.419	34.7626
202.234	32.194
204.048	27.3596
205.862	22.8437
207.678	19.7631
209.491	17.8687
211.304	16.6751
213.116	15.7374
214.928	15.729
216.742	15.3385
218.554	15.0949
220.365	15.9026
222.176	16.3601
223.986	16.5695
225.798	18.2258
227.608	19.5644
229.417	20.7363
231.226	22.6145
233.035	22.9694
234.843	24.0287
236.653	25.1716
238.46	26.6841
240.268	26.5949
242.074	26.581
243.881	26.4662
245.687	26.9113
247.493	26.8779
249.298	26.8591
251.103	27.326
252.908	26.5572
254.715	27.0106
256.519	27.3081
258.322	27.9157
260.126	27.3204
261.929	27.713
263.731	27.967
265.534	29.3519
267.336	29.9679
269.137	30.3207
270.938	31.1134
272.739	30.3431
274.54	28.7186
276.34	27.4591
278.14	26.7218
279.939	24.5537
281.739	23.3848
283.537	23.6356
285.336	23.125
287.134	22.4976
288.932	21.746
290.729	22.0689
292.526	21.768
294.323	23.7894
296.117	24.8925
297.913	25.6432
299.709	25.8243
301.504	25.6176
303.299	26.4871
305.093	27.7867
306.888	28.5869
308.682	30.1096
310.475	32.272
312.268	33.5724
314.059	35.5349
315.852	37.238
317.644	38.4432
319.436	39.4194
321.227	40.333
323.018	40.1977
324.807	41.1013
326.597	42.0469
328.387	42.2888
330.177	41.8665
331.967	41.9293
333.753	42.0624
335.542	43.1064
337.331	42.7003
339.119	42.746
340.906	42.5975
342.691	42.4274
344.478	42.9148
346.265	41.3886
348.051	41.7822
349.835	41.2428
351.621	40.9214
353.406	39.7959
355.189	38.6584
356.973	37.631
358.757	36.6666
360.541	34.9769
362.323	33.0173
364.106	31.098
365.889	29.7341
367.669	29.2174
369.451	28.0397
371.233	26.7189
373.012	25.8485
374.793	24.6299
376.574	23.8326
378.353	24.4301
380.133	24.0206
381.91	23.3582
383.69	24.044
385.469	23.8189
387.245	24.1593
389.024	23.3804
390.8	23.1625
392.577	24.6348
394.353	25.1237
396.129	25.1816
397.906	24.7247
399.68	25.4314
401.456	25.1866
403.23	24.7763
405.005	23.4332
406.778	22.9175
408.552	22.4429
410.325	22.7739
412.099	22.9679
413.87	22.9871
415.643	23.5732
417.414	24.039
419.187	23.5992
420.957	22.7651
422.728	21.5319
424.498	21.3746
426.269	20.0302
428.038	19.5679
429.806	17.8214
431.576	17.462
433.344	16.3193
435.114	15.1172
436.881	13.9502
438.649	12.5332
440.416	11.6975
442.182	9.18012
443.949	8.9161
445.715	8.75614
447.48	7.95734
449.247	6.61615
451.011	7.78786
452.777	6.8078
454.541	6.93744
456.304	6.4994
458.069	5.8461
459.832	5.15521
461.594	6.38066
463.358	7.06337
465.119	8.43882
466.881	8.06696
468.642	4.46336
470.404	2.45525
472.165	5.21945
473.925	7.93534
475.684	11.401
477.445	13.2932
479.204	16.0586
480.963	18.5381
482.721	19.8997
484.481	21.5568
486.239	23.302
487.996	26.1389
489.753	27.8853
491.511	30.1555
493.268	32.1957
495.023	34.8645
496.779	37.0772
498.534	39.2196
500.289	41.0288
502.046	43.0436
503.8	44.5648
505.554	46.4133
507.307	47.0412
509.06	48.015
510.813	50.4296
512.566	53.2893
514.32	53.8282
516.072	55.127
517.823	56.2091
519.574	57.1447
521.325	56.7791
523.076	56.934
524.826	56.2498
526.576	56.5164
528.325	56.0444
530.074	54.6637
531.823	54.9432
533.572	52.8909
535.32	50.9575
537.068	49.2304
538.815	47.6275
540.562	44.3898
542.309	42.4168
544.056	39.9675
545.802	37.5767
547.547	35.3909
549.293	32.8768
551.038	28.7994
552.783	25.3777
554.527	21.0725
556.271	19.7477
558.015	21.1096
559.759	23.0666
561.502	21.8134
563.245	20.689
564.987	17.7498
566.729	15.7334
568.471	13.5632
570.213	12.0778
571.954	10.5785
573.693	8.55269
575.433	7.28859
577.173	6.32285
578.913	4.8285
580.652	3.984
582.392	2.45433
584.13	1.81989
585.867	1.98223
587.605	1.59632
589.343	1.3581
591.08	-0.0508737
592.817	1.06159
594.552	0.389098
596.289	-0.107872
598.025	1.53336
599.761	1.51775
601.496	1.46713
603.229	3.4528
604.964	4.45017
606.699	4.5952
608.433	5.77614
610.165	6.31575
611.898	7.74231
613.631	9.16219
615.364	10.2031
617.095	9.93256
618.827	10.181
620.559	10.6201
622.288	11.5668
624.02	12.3007
625.75	12.9762
627.479	13.4438
629.209	13.7741
630.939	14.6559
632.667	14.4645
634.396	13.9458
636.125	13.4253
637.851	13.7968
639.58	14.8685
641.305	15.5041
643.033	16.1141
644.76	15.4431
646.485	15.9542
648.212	16.1903
649.936	15.9409
651.662	16.1938
653.388	16.6289
655.111	16.7735
656.836	16.2629
658.558	15.9915
660.283	15.4333
662.005	15.6768
663.728	15.8824
665.45	15.4201
667.173	15.7207
668.893	14.6127
670.616	14.641
672.336	15.6088
674.057	15.6194
675.777	14.8703
677.498	13.8469
679.216	14.7442
680.937	14.8828
682.655	15.9989
684.375	17.5098
686.092	17.6787
687.809	18.3682
689.528	19.8187
691.244	19.7108
692.962	20.3843
694.678	19.5835
696.393	19.4508
698.111	20.2069
699.825	20.2982
701.54	19.7796
703.256	19.3874
704.97	19.3462
706.685	19.0825
708.398	18.7902
710.111	18.6679
711.826	18.5193
713.538	19.2414
715.25	20.3764
716.961	20.1394
718.675	20.5171
720.386	20.4724
722.096	20.3901
723.808	20.7182
725.518	19.8002
727.228	18.5046
728.937	18.095
730.648	17.8558
732.357	18.0361
734.065	18.7174
735.773	19.4823
737.483	20.8042
739.19	21.7507
740.897	22.0083
742.604	22.2738
744.31	23.3283
746.018	24.5994
747.724	26.305
749.429	27.0153
751.134	28.4544
752.839	28.9585
754.544	30.3117
756.248	32.3048
757.953	32.8591
759.657	32.4071
761.36	33.1432
763.063	35.0248
764.765	37.0369
766.468	37.8255
768.169	38.1184
769.871	38.7205
771.572	39.5989
773.273	39.9509
774.976	41.0696
776.676	41.4639
778.376	42.2194
780.075	42.4763
781.775	44.9253
783.474	46.3858
785.172	47.5757
786.871	48.0368
788.569	48.8242
790.266	49.9975
791.964	51.5344
793.661	53.0506
795.358	54.597
797.054	55.4812
798.75	56.3858
800.446	57.09
802.141	57.0983
803.834	57.4448
805.529	56.2175
807.224	56.0648
808.918	56.512
810.612	54.8573
812.305	54.5764
813.998	54.8517
815.691	54.3423
817.384	54.8144
819.076	55.9684
820.766	56.8303
822.458	58.6352
824.149	59.2143
825.84	59.2124
827.531	59.8883
829.221	61.6332
830.909	64.6488
832.599	66.4283
834.288	67.0713
835.977	68.5497
837.666	70.3402
839.353	72.2915
841.041	72.4395
842.729	72.4844
844.416	74.5199
846.103	75.3501
847.788	74.9713
849.475	74.6452
851.161	74.6728
852.845	74.6444
854.53	74.821
856.216	74.3585
857.901	73.7671
859.583	73.8856
861.268	73.1948
862.952	72.4553
864.633	71.4862
866.317	71.7447
868	71.2199
869.681	70.5723
871.363	68.8455
873.045	67.1546
874.725	67.1225
876.406	65.3554
878.088	63.9121
879.767	61.6842
881.447	59.8968
883.125	58.4236
884.805	56.1201
886.483	53.173
888.162	50.1967
889.841	47.8368
891.518	45.9884
893.196	42.8144
894.872	39.6496
896.55	37.8023
898.225	36.9487
899.902	36.5455
901.577	36.2793
903.254	37.086
904.928	36.5049
906.604	37.2962
908.277	36.6263
909.952	36.7232
911.625	38.6984
913.3	40.4488
914.972	41.3747
916.646	40.3348
918.318	39.5025
919.991	40.131
921.662	40.5128
923.333	39.3822
925.005	38.6186
926.675	37.8142
928.347	37.8719
930.017	37.5707
931.686	36.9162
933.357	38.0538
935.025	37.2354
936.693	36.0139
938.363	35.3348
940.031	34.5214
941.698	34.0862
943.367	33.4699
945.034	32.8035
946.7	32.5129
948.368	31.7521
950.034	32.3516
951.699	31.8941
953.367	31.0086
955.031	30.7959
956.696	31.3019
958.36	30.3245
960.026	28.5101
961.689	27.8498
963.353	26.6791
965.016	27.2264
966.68	25.6595
968.343	24.2081
970.005	23.5461
971.666	23.0733
973.328	22.1336
974.991	21.642
976.652	20.9111
978.312	21.8754
979.972	22.026
981.632	22.5869
983.292	22.6436
984.953	22.0664
986.612	23.3053
988.27	22.2738
989.929	23.3482
991.587	21.8941
993.244	22.2805
994.902	23.9027
996.559	23.0903
998.216	22.0302
999.872	21.9314
1001.53	22.3564
1003.19	22.8425
1004.84	22.096
1006.5	21.6022
1008.15	22.2575
1009.81	23.7532
1011.46	25.8166
1013.11	26.7498
1014.77	28.3507
1016.42	31.3686
1018.07	31.6805
1019.73	33.1629
1021.38	34.4981
1023.03	35.558
1024.68	36.1797
1026.34	36.5522
1027.99	37.1088
1029.64	37.9344
1031.29	39.2273
1032.94	40.6533
1034.59	41.7732
1036.24	42.1315
1037.89	42.0793
1039.53	41.1321
1041.18	40.2382
1042.83	41.861
1044.48	42.2733
1046.13	42.1352
1047.77	42.3058
1049.42	41.3549
1051.07	41.3602
1052.71	40.4053
1054.36	40.0492
1056	39.4014
1057.65	39.3977
1059.3	38.8061
1060.94	38.1616
1062.59	37.8144
1064.23	37.4107
1065.87	37.9627
1067.52	36.9867
1069.16	36.9298
1070.8	35.5961
1072.44	35.3079
1074.09	34.3492
1075.73	34.7453
1077.37	34.287
1079.01	32.6271
1080.65	32.4399
1082.29	31.9924
1083.93	31.737
1085.57	31.7854
1087.21	32.5885
1088.85	34.1449
1090.49	36.0154
1092.13	37.7258
1093.77	38.0972
1095.41	38.7817
1097.04	39.9041
1098.68	40.2177
1100.32	39.0829
1101.95	38.7005
1103.59	38.2926
1105.23	36.8791
1106.86	36.8802
1108.5	36.498
1110.13	37.5445
1111.77	37.9658
1113.4	37.9116
1115.04	37.3368
1116.67	37.4301
1118.31	36.8945
1119.94	36.5042
1121.57	36.3538
1123.2	35.3959
1124.84	33.9474
1126.47	31.1902
1128.1	29.695
1129.73	28.2523
1131.36	26.776
1132.99	25.999
1134.62	24.772
1136.25	23.8734
1137.88	23.0998
1139.51	22.0004
1141.14	20.5391
1142.77	19.1482
1144.4	18.5943
1146.03	16.6707
1147.66	15.9229
1149.28	13.5869
1150.91	13.1896
1152.54	11.0711
1154.16	9.78587
1155.79	9.11704
1157.42	7.82048
1159.04	7.35426
1160.67	6.66404
1162.29	5.42999
1163.92	5.09386
1165.54	6.26162
1167.17	6.92661
1168.79	7.3943
1170.41	6.57613
1172.04	6.41231
1173.66	6.95426
1175.28	6.25913
1176.9	7.22154
1178.53	7.78908
1180.15	8.03636
1181.77	7.35255
1183.39	7.21125
1185.01	7.50286
1186.63	7.22402
1188.25	8.29271
1189.87	8.39649
1191.49	10.4061
1193.11	11.2115
1194.73	11.9103
1196.35	13.4606
1197.96	14.1188
1199.58	14.8984
1201.2	16.4024
1202.82	17.4205
1204.43	18.0444
1206.05	19.5596
1207.66	22.2732
1209.28	25.0943
1210.9	26.9745
1212.51	29.0426
1214.13	31.1089
1215.74	32.9981
1217.36	34.9084
1218.97	36.1299
1220.58	37.8306
1222.2	39.424
1223.81	41.2255
1225.42	43.8721
1227.04	45.8211
1228.65	48.7106
1230.26	49.8399
1231.87	51.8728
1233.48	53.0872
1235.1	56.4274
1236.71	59.1691
1238.32	59.8225
1239.93	61.8513
1241.53	62.3754
1243.14	63.3805
1244.75	66.2888
1246.36	67.7022
1247.97	68.8432
1249.58	70.0666
1251.19	71.0997
1252.8	72.278
1254.4	72.7531
1256.01	73.0204
1257.62	73.8397
1259.22	73.9801
1260.83	74.2466
1262.43	74.3234
1264.04	74.3537
1265.64	75.4601
1267.25	75.4819
1268.85	76.8691
1270.46	77.7441
1272.06	78.476
1273.66	79.289
1275.27	79.4268
1276.87	80.6678
1278.48	82.1936
1280.08	83.8218
1281.68	84.962
1283.28	85.7203
1284.88	87.0231
1286.48	88.4354
1288.08	89.7505
1289.68	90.3184
1291.28	91.0437
1292.88	92.472
1294.48	93.2922
1296.08	94.4891
1297.68	94.4332
1299.28	94.5528
1300.88	96.5596
1302.48	97.5076
1304.07	98.0381
1305.67	99.3842
1307.27	100.701
1308.87	102.06
1310.46	102.299
1312.06	103.443
1313.65	104.947
1315.25	106.131
1316.85	106.136
1318.44	105.943
1320.03	106.76
1321.63	106.694
1323.22	107.278
1324.82	107.181
1326.41	107.041
1328	106.553
1329.6	104.648
1331.19	103.884
1332.78	103.103
1334.37	102.473
1335.96	101.544
1337.56	100.895
1339.15	99.1653
1340.74	97.4536
1342.33	96.7772
1343.92	94.7941
1345.51	94.0228
1347.1	92.4911
1348.69	91.5242
1350.28	90.4026
1351.86	88.9872
1353.45	88.5122
1355.04	86.5437
1356.63	85.9355
1358.21	83.8575
1359.8	82.5757
1361.39	81.2765
1362.97	78.883
1364.56	77.0035
1366.15	76.6873
1367.73	75.304
1369.32	74.1639
1370.9	72.9003
1372.49	71.6542
1374.07	70.8485
1375.65	70.8983
1377.24	70.5889
1378.82	70.4777
1380.41	70.7212
1381.99	70.2506
1383.57	69.45
1385.15	69.9392
1386.73	70.9284
1388.32	70.3385
1389.9	69.4266
1391.48	69.2448
1393.06	70.4607
1394.64	70.8688
1396.22	70.4527
1397.8	70.6399
1399.38	71.378
1400.96	72.2209
1402.54	73.6085
1404.11	73.886
1405.69	76.3148
1407.27	77.7115
1408.85	79.6582
1410.43	82.2719
1412	85.3948
1413.58	87.3974
1415.16	89.7807
1416.73	93.7537
1418.31	96.7941
1419.88	101.167
1421.46	105.365
1423.03	108.965
1424.61	113.321
1426.18	118.298
1427.76	122.016
1429.33	125.887
1430.9	128.94
1432.48	132.04
1434.05	134.5
1435.62	137.765
1437.2	140.286
1438.77	143.51
1440.34	145.293
1441.91	147.273
1443.48	149.613
1445.05	151.33
1446.62	150.716
1448.19	151.543
1449.76	151.317
1451.33	149.949
1452.9	148.901
1454.47	148.105
1456.04	145.62
1457.61	142.838
1459.17	140.945
1460.74	138.873
1462.31	137.063
1463.88	134.577
1465.44	131.195
1467.01	127.78
1468.58	124.297
1470.14	122.286
1471.71	119.842
1473.27	116.107
1474.84	111.827
1476.4	107.997
1477.97	105.236
1479.53	101.697
1481.1	98.7111
1482.66	94.5725
1484.22	91.0839
1485.78	87.731
1487.35	84.2485
1488.91	80.403
1490.47	78.8675
1492.03	75.2697
1493.59	71.9566
1495.16	70.1415
1496.72	66.4486
1498.28	63.775
1499.84	61.6643
1501.4	59.2363
1502.96	57.0259
1504.52	55.1074
1506.08	51.923
1507.64	50.399
1509.19	47.5651
1510.75	44.751
1512.31	43.0907
1513.87	41.466
1515.42	40.0672
1516.98	38.8173
1518.54	37.6971
1520.1	36.245
1521.65	33.9286
1523.21	32.8091
1524.76	31.6986
1526.32	31.4207
1527.87	30.8672
1529.43	30.1862
1530.98	31.2224
1532.54	32.5989
1534.09	32.4918
1535.64	34.1032
1537.2	35.8792
1538.75	37.649
1540.3	39.2407
1541.85	39.476
1543.41	40.7859
1544.96	42.7949
1546.51	43.7528
1548.06	45.6354
1549.61	46.5798
1551.16	47.5984
1552.71	48.3193
1554.26	49.4278
1555.81	51.0604
1557.36	51.4822
1558.91	51.7554
1560.46	52.0438
1562.01	52.6407
1563.56	54.2886
1565.1	54.2015
1566.65	55.1526
1568.2	55.8362
1569.75	56.3907
1571.29	57.084
1572.84	58.044
1574.38	58.4777
1575.93	60.184
1577.48	61.4537
1579.02	62.0787
1580.57	64.1035
1582.11	64.9396
1583.65	65.4714
1585.2	66.7018
1586.74	65.966
1588.29	67.3086
1589.83	69.0338
1591.37	69.6933
1592.92	71.6587
1594.46	71.7223
1596	72.2408
1597.54	72.0844
1599.08	71.7815
1600.62	72.6649
1602.16	73.1543
1603.7	73.2445
1605.24	73.6259
1606.78	73.7793
1608.32	74.9554
1609.86	75.1627
1611.4	75.1102
1612.94	76.1019
1614.48	77.1025
1616.02	77.4048
1617.56	77.9488
1619.09	76.5984
1620.63	77.3203
1622.17	77.5578
1623.71	78.19
1625.24	78.4352
1626.78	78.5754
1628.31	78.9574
1629.85	79.6158
1631.39	80.1063
1632.92	80.9639
1634.46	82.7065
1635.99	83.9323
1637.52	85.394
1639.06	86.8369
1640.59	88.5778
1642.12	89.7716
1643.66	90.9473
1645.19	92.9604
1646.72	95.1869
1648.25	96.6071
1649.79	98.1653
1651.32	99.674
1652.85	100.293
1654.38	101.167
1655.91	101.689
1657.44	102.661
1658.97	101.824
1660.5	100.922
1662.03	100.324
1663.56	99.4183
1665.09	99.5825
1666.62	98.2022
1668.15	95.8342
1669.67	95.1062
1671.2	92.9758
1672.73	91.0173
1674.26	88.0329
1675.79	85.9758
1677.31	84.0095
1678.84	80.8541
1680.36	77.959
1681.89	75.5537
1683.42	73.0061
1684.94	70.1947
1686.47	66.3569
1687.99	62.7855
1689.51	59.4775
1691.04	56.5352
1692.56	53.2699
1694.08	50.6316
1695.61	47.7112
1697.13	45.9688
1698.65	42.8174
1700.18	40.978
1701.7	38.3283
1703.22	36.0727
1704.74	34.742
1706.26	33.4417
1707.78	31.2423
1709.3	30.1303
1710.82	28.9976
1712.35	27.1917
1713.86	25.6984
1715.39	25.1311
1716.9	23.5303
1718.42	22.2886
1719.94	22.2818
1721.46	22.2112
1722.98	20.544
1724.5	19.5282
1726.01	18.1535
1727.53	16.4374
1729.05	15.2935
1730.56	14.9502
1732.08	13.5494
1733.6	12.7817
1735.11	11.2285
1736.63	10.7555
1738.14	10.1258
1739.66	9.90227
1741.17	8.85069
1742.69	7.73699
1744.2	7.34413
1745.71	7.04324
1747.23	5.3535
1748.74	3.71698
1750.25	3.33618
1751.77	2.83701
1753.28	1.74832
1754.79	1.55588
1756.3	1.54297
1757.81	1.5209
1759.33	0.910348
1760.84	0.676566
1762.35	0.34189
1763.86	0.807279
1765.37	1.78628
1766.88	2.0728
1768.39	2.33021
1769.9	2.3481
1771.41	2.28117
1772.91	1.64904
1774.42	2.3268
1775.93	3.76138
1777.44	3.86464
1778.95	4.05263
1780.45	5.02079
1781.96	5.55757
1783.47	5.44597
1784.97	6.32051
1786.48	6.50917
1787.99	6.63717
1789.49	7.12167
1791	7.75736
1792.5	7.97596
1794.01	8.76512
1795.51	9.00015
1797.01	8.45707
1798.52	8.60084
1800.02	8.80244
1801.52	8.80184
1803.03	8.96754
1804.53	9.27441
1806.03	9.49626
1807.54	9.18914
1809.04	9.70392
1810.54	9.22612
1812.04	9.56191
1813.54	8.97455
1815.04	8.38593
1816.54	7.85369
1818.04	7.71553
1819.54	7.73754
1821.04	6.76578
1822.54	6.93604
1824.04	7.4061
1825.54	7.72128
1827.04	7.53844
1828.54	7.65292
1830.03	8.15141
1831.53	7.64326
1833.03	7.48096
1834.53	7.54336
1836.02	8.25407
1837.52	8.30786
1839.02	7.96103
1840.51	7.6185
1842.01	7.2317
1843.5	7.98145
1845	8.43397
1846.49	8.73699
1847.99	8.87568
1849.48	8.58459
1850.98	7.94549
1852.47	7.0314
1853.96	6.67117
1855.46	6.51225
1856.95	6.10421
1858.44	6.032
1859.94	6.1256
1861.43	6.10423
1862.92	6.27578
1864.41	6.69213
1865.9	6.38384
1867.39	6.22514
1868.88	5.52564
1870.37	5.01342
1871.86	5.23273
1873.35	4.9893
1874.84	4.09342
1876.33	3.62343
1877.82	3.905
1879.31	4.12068
1880.8	4.10334
1882.29	3.97989
1882.58	3.69684
1884.08	3.21203
1885.57	3.08506
1887.06	3.34537
1888.56	2.82213
1890.05	3.1725
1891.54	3.41499
1893.04	4.13717
1894.53	4.59129
1896.02	5.58511
1897.51	5.0497
1899	5.33963
1900.5	5.20457
1901.99	5.92792
1903.48	6.70628
1904.97	6.92045
1906.46	7.75079
1907.95	7.56101
1909.44	7.60723
1910.93	7.96206
1912.42	8.27059
1913.91	8.26453
1915.4	7.8734
1916.88	8.08784
1918.37	7.65847
1919.86	7.19939
1921.35	6.64724
1922.84	6.20668
1924.32	6.08551
1925.81	6.05123
1927.3	6.16469
1928.78	5.90738
1930.27	6.09138
1931.75	6.44714
1933.24	6.18551
1934.72	6.40539
1936.21	6.26443
1937.69	5.73394
1939.18	5.31908
1940.66	5.12218
1942.15	4.96164
1943.63	5.24831
1945.11	5.54229
1946.6	4.63486
1948.08	4.67103
1949.56	5.10676
1951.04	5.88411
1952.53	5.74364
1954.01	5.82341
1955.49	5.86487
1956.97	5.88219
1958.45	6.08478
1959.93	6.11717
1961.41	6.13975
1962.89	5.79596
1964.37	6.50272
1965.85	6.42188
1967.33	6.38399
1968.81	5.93816
1970.29	5.54759
1971.77	5.01178
1973.24	5.45098
1974.72	5.65346
1976.2	6.64048
1977.68	6.81383
1979.15	6.25952
1980.63	6.91562
1982.11	6.96718
1983.58	7.63353
1985.06	7.59372
1986.53	7.81339
1988.01	7.45496
1989.48	8.1549
1990.96	8.85018
1992.43	9.34143
1993.91	9.16935
1995.38	8.99202
1996.86	8.37464
1998.33	8.1641
1999.8	7.88363
2001.27	7.57627
2002.75	7.30779
2004.22	7.89703
2005.69	7.31096
2007.16	7.68323
2008.64	7.31744
2010.11	6.80303
2011.58	6.97663
2013.05	7.74437
2014.52	7.36713
2015.99	7.50876
2017.46	7.97648
2018.93	7.58829
2020.4	7.31972
2021.87	7.82194
2023.34	8.0015
2024.8	8.93792
2026.27	9.01926
2027.74	9.40285
2029.21	9.71075
2030.68	8.93213
2032.14	9.40425
2033.61	9.57981
2035.08	9.09623
2036.54	8.83674
2038.01	8.65789
2039.48	8.44234
2040.94	8.90303
2042.41	8.95474
2043.87	9.25837
2045.34	9.6675
2046.8	10.4072
2048.27	10.8835
2049.73	10.9541
2051.19	10.8608
2052.66	11.658
2054.12	11.9757
2055.58	11.8459
2057.05	11.6671
2058.51	11.7103
2059.97	11.7967
2061.43	11.5717
2062.9	11.8087
2064.36	11.2593
2065.82	11.2987
2067.28	10.0105
2068.74	9.40496
2070.2	8.81112
2071.66	8.67519
2073.12	8.08887
2074.58	7.60433
2076.04	7.78306
2077.5	8.03672
2078.95	7.74544
2080.41	8.82313
2081.87	8.20537
2083.33	9.07206
2084.79	9.79094
2086.24	10.0681
2087.7	9.95851
2089.16	10.5336
2090.61	11.3986
2092.07	11.1397
2093.53	11.6231
2094.98	12.7916
2096.44	13.8208
2097.89	14.6243
2099.35	14.7156
2100.8	16.1986
2102.26	17.2644
2103.71	17.8556
2105.16	19.7664
2106.62	20.0821
2108.07	20.5784
2109.53	21.6597
2110.98	23.0697
2112.43	24.073
2113.88	24.4278
2115.33	24.8285
2116.79	25.9914
2118.24	27.548
2119.69	28.6722
2121.14	29.6708
2122.59	31.0105
2124.04	32.836
2125.49	33.9257
2126.94	33.8216
2128.39	35.51
2129.84	35.8719
2131.29	37.671
2132.74	38.585
2134.19	40.1716
2135.63	41.0366
