#Acq. time (s)=	45
#Accumulations=	2
#Range (cm-¹)=	200...3150
#Windows=	2
#Auto scanning=	Off
#Autofocus=	Off
#Macrospot=	Off
#AutoExposure=	Off
#Spike filter=	Multiple accum.
#Delay time (s)=	0
#Binning=	1
#Readout mode=	Signal
#DeNoise=	Off
#ICS correction=	On
#Dark correction=	Off
#Inst. Process=	Off
#Detector Gain=	Best Dynamic Range
#Detector ADC=	20 kHz       
#Detector temperature (°C)=	-69.85
#Instrument=	LabRAM HR Evol
#Detector=	Synapse
#Objective=	x100
#Grating=	600 gr/mm
#ND Filter=	100%
#Laser (nm)=	532 
#Hole=	100.021
#Range=	Auto
#Laser Pol.=	No
#Raman. Pol.=	No
#Laser Pol. (°)=	-0.0007625
#Raman Pol. (°)=	89.9995
#Collection=	Microscope
#StageXY=	Marzhauser
#StageZ=	Marzhauser
#X (µm)=	-1173.1
#Y (µm)=	1255.1
#Z (µm)=	578.65
#Full time(mm:ss)=	3:19
#Project=	
#Sample=	
#Site=	
#Title=	Mbcal_20_25_17_2x_45s_532 nm_x100_100%_600 gr_mm
#Remark=	
#Date=	18.07.2022 10:38
#Acquired=	18.07.2022 10:38:27
#Base:Fit=	10.08.2022 10:55:08
#Base:Sub=	10.08.2022 10:55:14
#Filter:Polynom=	16.08.2022 10:07:28
#AxisType[0]=Intens
#AxisUnit[0]=Cnt
#AxisType[1]=Spectr
#AxisUnit[1]=1/cm
200.419	5.44112
202.234	7.77627
204.048	10.3724
205.862	9.08013
207.678	9.05392
209.491	8.92053
211.304	7.86922
213.116	8.39929
214.928	8.99291
216.742	8.98025
218.554	9.55642
220.365	10.2916
222.176	12.3914
223.986	13.8418
225.798	14.4256
227.608	14.5507
229.417	14.2934
231.226	15.8891
233.035	16.3134
234.843	14.9394
236.653	15.7546
238.46	16.9802
240.268	18.3513
242.074	19.6009
243.881	20.9714
245.687	21.7149
247.493	22.2849
249.298	22.7671
251.103	22.8829
252.908	26.1358
254.715	24.5816
256.519	26.7728
258.322	28.167
260.126	29.3548
261.929	28.1912
263.731	27.009
265.534	28.9584
267.336	27.6074
269.137	27.0965
270.938	24.5574
272.739	24.0852
274.54	25.0806
276.34	25.0634
278.14	26.981
279.939	26.9921
281.739	28.5634
283.537	28.6012
285.336	27.4717
287.134	25.4889
288.932	24.7018
290.729	23.304
292.526	24.0932
294.323	25.1075
296.117	26.2373
297.913	24.5342
299.709	24.539
301.504	24.1271
303.299	26.4555
305.093	25.447
306.888	24.0573
308.682	24.32
310.475	25.5149
312.268	25.8935
314.059	23.7404
315.852	23.5369
317.644	24.184
319.436	24.0063
321.227	24.2606
323.018	23.9685
324.807	23.8608
326.597	26.0786
328.387	26.6843
330.177	25.6182
331.967	26.9193
333.753	26.8414
335.542	26.1106
337.331	26.374
339.119	26.7222
340.906	25.9494
342.691	26.5542
344.478	23.5004
346.265	23.626
348.051	21.6335
349.835	21.1156
351.621	17.8416
353.406	16.455
355.189	16.5691
356.973	14.3837
358.757	14.6295
360.541	14.6509
362.323	16.6348
364.106	16.1706
365.889	15.6751
367.669	16.032
369.451	15.6501
371.233	13.6044
373.012	12.6152
374.793	11.9991
376.574	10.9049
378.353	10.7516
380.133	10.4029
381.91	11.1596
383.69	9.70063
385.469	7.73507
387.245	7.31004
389.024	7.2506
390.8	6.26515
392.577	5.4082
394.353	4.11724
396.129	3.59871
397.906	4.34656
399.68	5.52534
401.456	5.04187
403.23	4.40451
405.005	5.34188
406.778	5.22946
408.552	3.76598
410.325	4.93043
412.099	5.66985
413.87	6.81533
415.643	6.98552
417.414	7.07062
419.187	6.95253
420.957	7.69487
422.728	7.07222
424.498	7.76277
426.269	7.13157
428.038	7.30169
429.806	6.53303
431.576	7.60506
433.344	6.16711
435.114	6.49641
436.881	5.70967
438.649	5.90325
440.416	5.00496
442.182	5.9556
443.949	7.849
445.715	6.95715
447.48	8.0282
449.247	6.51799
451.011	6.13008
452.777	4.61426
454.541	6.10611
456.304	7.18386
458.069	7.80851
459.832	9.68216
461.594	10.5655
463.358	10.183
465.119	10.1907
466.881	10.6523
468.642	9.69808
470.404	11.2355
472.165	11.9733
473.925	13.0612
475.684	13.415
477.445	12.1655
479.204	11.7501
480.963	12.761
482.721	14.8843
484.481	15.5046
486.239	17.2707
487.996	18.158
489.753	18.4451
491.511	18.5728
493.268	17.8012
495.023	18.9775
496.779	19.8183
498.534	21.8202
500.289	22.0575
502.046	23.2459
503.8	21.1781
505.554	21.5153
507.307	21.0579
509.06	20.7567
510.813	22.71
512.566	21.6815
514.32	21.4492
516.072	21.4115
517.823	19.4743
519.574	18.7065
521.325	15.9919
523.076	15.3843
524.826	13.8157
526.576	14.4604
528.325	15.0343
530.074	15.2698
531.823	14.1354
533.572	13.4202
535.32	15.2209
537.068	15.8635
538.815	17.7028
540.562	20.1442
542.309	21.7299
544.056	21.2868
545.802	20.9622
547.547	21.0044
549.293	19.6132
551.038	19.1563
552.783	18.8639
554.527	19.2264
556.271	19.8229
558.015	20.0886
559.759	19.3006
561.502	17.6577
563.245	15.9133
564.987	16.0643
566.729	16.4419
568.471	17.6462
570.213	17.4325
571.954	15.9118
573.693	15.0994
575.433	12.7011
577.173	13.1391
578.913	12.8171
580.652	14.4276
582.392	16.6218
584.13	15.7612
585.867	15.2597
587.605	14.0461
589.343	12.794
591.08	11.1179
592.817	10.4156
594.552	9.54152
596.289	9.22587
598.025	8.69751
599.761	5.98686
601.496	6.78979
603.229	5.20256
604.964	5.12688
606.699	6.28089
608.433	4.63219
610.165	6.10323
611.898	7.10698
613.631	8.92592
615.364	9.79197
617.095	10.2338
618.827	9.39514
620.559	10.5185
622.288	11.0184
624.02	10.115
625.75	10.468
627.479	10.6453
629.209	10.6283
630.939	9.11323
632.667	8.417
634.396	9.66266
636.125	10.661
637.851	9.82723
639.58	10.3657
641.305	10.2111
643.033	8.91504
644.76	7.39001
646.485	6.53113
648.212	6.36607
649.936	7.71224
651.662	7.38651
653.388	7.07555
655.111	7.94816
656.836	7.90259
658.558	8.10619
660.283	8.04279
662.005	8.92735
663.728	11.176
665.45	11.9271
667.173	13.1303
668.893	11.5053
670.616	11.8029
672.336	12.7853
674.057	12.7981
675.777	13.4069
677.498	14.5875
679.216	15.7027
680.937	18.3558
682.655	20.4893
684.375	21.6358
686.092	23.1176
687.809	24.9353
689.528	23.8969
691.244	23.2864
692.962	24.5172
694.678	23.9503
696.393	26.7161
698.111	26.4622
699.825	26.2696
701.54	26.3082
703.256	26.5342
704.97	25.6027
706.685	26.3074
708.398	28.5935
710.111	27.9838
711.826	30.0318
713.538	29.7225
715.25	30.944
716.961	29.7779
718.675	30.8856
720.386	32.2235
722.096	32.4007
723.808	32.155
725.518	34.4102
727.228	33.6898
728.937	33.2561
730.648	34.6245
732.357	36.4999
734.065	39.3766
735.773	40.2838
737.483	40.9163
739.19	43.4222
740.897	43.5866
742.604	45.6484
744.31	47.047
746.018	48.08
747.724	51.3922
749.429	54.5495
751.134	57.7213
752.839	60.2308
754.544	61.3009
756.248	64.9921
757.953	67.8634
759.657	70.04
761.36	72.7483
763.063	76.1653
764.765	78.9137
766.468	80.9067
768.169	81.9631
769.871	83.4877
771.572	84.7606
773.273	86.3931
774.976	87.3868
776.676	90.0254
778.376	94.4366
780.075	95.024
781.775	98.3079
783.474	100.266
785.172	103.097
786.871	105.136
788.569	106.806
790.266	107.522
791.964	109.961
793.661	112.581
795.358	112.06
797.054	114.287
798.75	113.945
800.446	115.343
802.141	114.934
803.834	117.051
805.529	118.783
807.224	120.207
808.918	120.385
810.612	120.041
812.305	118.53
813.998	119.861
815.691	123.982
817.384	123.624
819.076	123.253
820.766	122.073
822.458	124.457
824.149	125.425
825.84	126.36
827.531	129.331
829.221	129.185
830.909	131.272
832.599	133.117
834.288	136.022
835.977	139.8
837.666	140.489
839.353	142.498
841.041	145.646
842.729	145.987
844.416	146.333
846.103	146.636
847.788	147.381
849.475	147.914
851.161	149.419
852.845	149.046
854.53	150.018
856.216	150.107
857.901	149.979
859.583	148.771
861.268	149.064
862.952	149.044
864.633	146.716
866.317	146.028
868	144.901
869.681	144.19
871.363	142.106
873.045	139.703
874.725	136.912
876.406	133.177
878.088	130.332
879.767	127.792
881.447	125.403
883.125	120.941
884.805	119.131
886.483	115.495
888.162	112.288
889.841	108.897
891.518	105.244
893.196	102.422
894.872	100.604
896.55	99.1019
898.225	97.5509
899.902	96.8895
901.577	93.7131
903.254	92.8333
904.928	92.9684
906.604	94.2844
908.277	93.3129
909.952	93.2838
911.625	93.2228
913.3	93.0315
914.972	94.1494
916.646	94.2876
918.318	96.956
919.991	96.7645
921.662	92.0474
923.333	92.5759
925.005	91.0276
926.675	89.7913
928.347	89.569
930.017	88.4927
931.686	87.9298
933.357	87.5718
935.025	85.6528
936.693	82.962
938.363	82.8044
940.031	82.048
941.698	80.7067
943.367	79.9852
945.034	80.1805
946.7	79.2972
948.368	77.1855
950.034	78.4294
951.699	78.3829
953.367	76.1754
955.031	70.5494
956.696	68.5766
958.36	66.0611
960.026	64.1289
961.689	63.0215
963.353	61.0328
965.016	59.0067
966.68	55.8789
968.343	55.4554
970.005	52.9808
971.666	51.8648
973.328	51.5358
974.991	51.0486
976.652	50.5101
978.312	48.5138
979.972	46.9381
981.632	46.6436
983.292	45.4565
984.953	43.2272
986.612	41.262
988.27	39.315
989.929	38.0346
991.587	35.4274
993.244	33.2577
994.902	32.5529
996.559	31.4212
998.216	31.0658
999.872	29.8128
1001.53	28.1862
1003.19	26.3998
1004.84	23.2194
1006.5	24.2558
1008.15	21.9303
1009.81	22.6661
1011.46	22.3478
1013.11	21.7491
1014.77	22.0199
1016.42	22.3019
1018.07	22.6999
1019.73	23.5545
1021.38	24.8905
1023.03	25.7668
1024.68	27.2026
1026.34	29.0737
1027.99	31.8727
1029.64	33.2796
1031.29	33.4355
1032.94	35.1827
1034.59	34.2408
1036.24	34.1303
1037.89	34.0865
1039.53	37.1573
1041.18	38.2256
1042.83	39.5549
1044.48	40.1153
1046.13	42.4855
1047.77	44.5939
1049.42	45.5758
1051.07	48.7518
1052.71	49.9179
1054.36	51.844
1056	52.3713
1057.65	52.8856
1059.3	52.5423
1060.94	51.8994
1062.59	53.1654
1064.23	53.7513
1065.87	51.7061
1067.52	51.6866
1069.16	51.5727
1070.8	52.4035
1072.44	53.7743
1074.09	52.4675
1075.73	53.4208
1077.37	53.8242
1079.01	52.0515
1080.65	51.8812
1082.29	49.1428
1083.93	48.3985
1085.57	47.4766
1087.21	45.8206
1088.85	44.5039
1090.49	44.2
1092.13	45.8543
1093.77	45.1948
1095.41	44.9513
1097.04	44.8646
1098.68	44.7453
1100.32	43.9099
1101.95	44.0008
1103.59	44.4463
1105.23	45.6973
1106.86	47.4093
1108.5	47.616
1110.13	45.991
1111.77	43.9085
1113.4	42.9961
1115.04	43.2425
1116.67	43.4846
1118.31	43.2349
1119.94	42.0962
1121.57	42.1702
1123.2	42.4524
1124.84	40.5817
1126.47	40.7002
1128.1	40.5992
1129.73	40.4802
1131.36	38.3765
1132.99	36.6637
1134.62	35.7194
1136.25	34.1301
1137.88	31.532
1139.51	30.5182
1141.14	30.358
1142.77	31.0971
1144.4	30.3114
1146.03	27.5524
1147.66	24.8349
1149.28	24.267
1150.91	23.3479
1152.54	21.3607
1154.16	19.0454
1155.79	16.511
1157.42	15.8974
1159.04	14.1042
1160.67	11.7321
1162.29	10.6422
1163.92	7.77647
1165.54	6.94663
1167.17	6.62725
1168.79	5.85336
1170.41	4.66409
1172.04	5.61922
1173.66	7.7173
1175.28	7.04197
1176.9	6.44965
1178.53	6.32057
1180.15	7.07493
1181.77	6.61293
1183.39	8.54531
1185.01	9.35074
1186.63	9.10297
1188.25	9.2719
1189.87	9.90949
1191.49	10.1043
1193.11	12.8867
1194.73	15.2437
1196.35	15.0045
1197.96	16.969
1199.58	16.6497
1201.2	16.463
1202.82	17.2905
1204.43	17.6178
1206.05	17.5346
1207.66	19.3202
1209.28	19.2769
1210.9	22.0608
1212.51	23.4537
1214.13	26.0243
1215.74	28.3946
1217.36	28.9449
1218.97	31.2434
1220.58	32.5325
1222.2	34.0054
1223.81	34.4698
1225.42	34.523
1227.04	35.8095
1228.65	37.9476
1230.26	40.1613
1231.87	40.9217
1233.48	42.4144
1235.1	45.3377
1236.71	47.0017
1238.32	49.4567
1239.93	50.7334
1241.53	53.2102
1243.14	54.3693
1244.75	55.6826
1246.36	58.5574
1247.97	60.8197
1249.58	62.347
1251.19	63.2566
1252.8	65.9654
1254.4	68.2782
1256.01	67.4508
1257.62	68.5928
1259.22	69.4859
1260.83	70.9136
1262.43	72.5794
1264.04	73.1902
1265.64	74.6288
1267.25	76.3159
1268.85	79.1659
1270.46	81.6201
1272.06	82.8895
1273.66	85.1165
1275.27	86.2177
1276.87	85.3568
1278.48	86.1133
1280.08	86.3349
1281.68	89.3818
1283.28	92.8588
1284.88	95.9802
1286.48	97.4827
1288.08	100.142
1289.68	102.652
1291.28	104.803
1292.88	105.701
1294.48	106.91
1296.08	108.269
1297.68	109.998
1299.28	110.968
1300.88	109.808
1302.48	112.252
1304.07	113.44
1305.67	116.147
1307.27	116.452
1308.87	117.266
1310.46	117.324
1312.06	119.921
1313.65	121.355
1315.25	121.917
1316.85	122.249
1318.44	124.621
1320.03	126.377
1321.63	126.364
1323.22	124.509
1324.82	126.731
1326.41	127.995
1328	128.131
1329.6	126.658
1331.19	125.23
1332.78	125.633
1334.37	125.71
1335.96	125.55
1337.56	126.163
1339.15	125.14
1340.74	125.348
1342.33	123.543
1343.92	122.829
1345.51	122.569
1347.1	122.38
1348.69	121.521
1350.28	121.221
1351.86	119.947
1353.45	118.187
1355.04	115.978
1356.63	113.881
1358.21	113.342
1359.8	113.573
1361.39	113.047
1362.97	110.572
1364.56	108.725
1366.15	106.525
1367.73	105.915
1369.32	104.844
1370.9	103.168
1372.49	102.84
1374.07	100.786
1375.65	98.3559
1377.24	96.573
1378.82	93.9185
1380.41	90.4616
1381.99	90.6934
1383.57	88.5538
1385.15	87.94
1386.73	86.6956
1388.32	86.6171
1389.9	85.4195
1391.48	85.3185
1393.06	83.0727
1394.64	80.8505
1396.22	81.1293
1397.8	81.5575
1399.38	81.8707
1400.96	81.247
1402.54	82.8195
1404.11	85.7998
1405.69	86.6705
1407.27	87.544
1408.85	88.4924
1410.43	92.7616
1412	95.8906
1413.58	100.159
1415.16	102.356
1416.73	105.85
1418.31	108.271
1419.88	113.129
1421.46	115.869
1423.03	121.12
1424.61	126.212
1426.18	130.96
1427.76	135.266
1429.33	138.094
1430.9	142.086
1432.48	145.193
1434.05	148.597
1435.62	152.835
1437.2	156.874
1438.77	160.838
1440.34	164.423
1441.91	166.601
1443.48	170.472
1445.05	171.497
1446.62	174.076
1448.19	175.642
1449.76	176.305
1451.33	177.185
1452.9	176.577
1454.47	176.878
1456.04	176.185
1457.61	174.444
1459.17	172.047
1460.74	171.837
1462.31	170.499
1463.88	168.922
1465.44	166.134
1467.01	162.249
1468.58	158.585
1470.14	155.78
1471.71	151.744
1473.27	147.944
1474.84	144.986
1476.4	142.261
1477.97	138.686
1479.53	133.315
1481.1	129.186
1482.66	124.498
1484.22	119.899
1485.78	115.148
1487.35	111.795
1488.91	108.913
1490.47	104.341
1492.03	100.65
1493.59	95.7062
1495.16	92.9567
1496.72	88.9035
1498.28	85.5286
1499.84	80.7817
1501.4	77.4696
1502.96	74.7831
1504.52	70.4525
1506.08	67.1991
1507.64	62.3826
1509.19	59.3747
1510.75	56.0253
1512.31	53.594
1513.87	51.7074
1515.42	50.03
1516.98	47.2511
1518.54	44.4732
1520.1	43.0856
1521.65	42.9655
1523.21	42.0059
1524.76	42.6145
1526.32	41.7456
1527.87	42.1894
1529.43	42.4766
1530.98	42.0884
1532.54	42.4801
1534.09	41.8878
1535.64	42.4727
1537.2	43.4418
1538.75	43.7842
1540.3	44.3995
1541.85	44.4251
1543.41	45.6319
1544.96	46.7544
1546.51	48.2839
1548.06	48.4539
1549.61	49.1039
1551.16	49.0307
1552.71	49.931
1554.26	51.9611
1555.81	52.6031
1557.36	52.4875
1558.91	53.6259
1560.46	55.0566
1562.01	57.1012
1563.56	58.1959
1565.1	61.2219
1566.65	61.8771
1568.2	62.7052
1569.75	63.7966
1571.29	65.6575
1572.84	68.2555
1574.38	68.9409
1575.93	70.7146
1577.48	71.4816
1579.02	73.2801
1580.57	76.3107
1582.11	78.5904
1583.65	79.4465
1585.2	80.73
1586.74	83.0115
1588.29	85.4118
1589.83	87.7807
1591.37	88.9358
1592.92	91.0008
1594.46	90.5093
1596	91.9286
1597.54	94.3611
1599.08	94.2257
1600.62	95.3134
1602.16	95.8841
1603.7	94.5859
1605.24	94.3636
1606.78	93.6091
1608.32	91.8214
1609.86	91.2157
1611.4	88.4707
1612.94	85.9055
1614.48	83.3193
1616.02	81.5854
1617.56	80.8196
1619.09	79.1309
1620.63	77.8704
1622.17	76.2689
1623.71	75.1505
1625.24	73.1667
1626.78	73.0126
1628.31	71.7991
1629.85	72.3464
1631.39	71.3234
1632.92	71.3961
1634.46	70.3102
1635.99	72.9008
1637.52	72.8904
1639.06	73.2146
1640.59	72.3628
1642.12	74.3466
1643.66	73.4648
1645.19	74.1392
1646.72	74.3782
1648.25	75.6291
1649.79	76.5677
1651.32	76.907
1652.85	78.2219
1654.38	79.32
1655.91	80.7339
1657.44	81.6978
1658.97	80.9662
1660.5	81.1546
1662.03	80.6723
1663.56	80.5503
1665.09	79.9527
1666.62	78.4045
1668.15	75.7066
1669.67	73.768
1671.2	71.4901
1672.73	70.4887
1674.26	68.9419
1675.79	65.7462
1677.31	64.2309
1678.84	60.6572
1680.36	57.2194
1681.89	53.7879
1683.42	49.2092
1684.94	44.3006
1686.47	40.7838
1687.99	37.6006
1689.51	35.0441
1691.04	31.7679
1692.56	29.0185
1694.08	26.5206
1695.61	24.0498
1697.13	22.9127
1698.65	20.7155
1700.18	17.5414
1701.7	16.8392
1703.22	16.2945
1704.74	14.6936
1706.26	13.4779
1707.78	11.8897
1709.3	11.3892
1710.82	8.72412
1712.35	8.45084
1713.86	5.4479
1715.39	5.57791
1716.9	5.34224
1718.42	6.14335
1719.94	3.96027
1721.46	2.20678
1722.98	2.51156
1724.5	3.26139
1726.01	3.2754
1727.53	3.59043
1729.05	4.77789
1730.56	4.53421
1732.08	3.32939
1733.6	3.41846
1735.11	3.01256
1736.63	2.76628
1738.14	1.23648
1739.66	1.55007
1741.17	1.82456
1742.69	0.617403
1744.2	1.42407
1745.71	2.31933
1747.23	3.04075
1748.74	2.72494
1750.25	2.52265
1751.77	2.23704
1753.28	2.49001
1754.79	2.08487
1756.3	1.48404
1757.81	0.897773
1759.33	1.43128
1760.84	2.10389
1762.35	2.82623
1763.86	4.24755
1765.37	3.03913
1766.88	2.98918
1768.39	4.18671
1769.9	4.93225
1771.41	4.38794
1772.91	4.45438
1774.42	4.82749
1775.93	4.88413
1777.44	6.21869
1778.95	5.96398
1780.45	5.71128
1781.96	4.73201
1783.47	4.813
1784.97	4.85385
1786.48	4.03865
1787.99	4.46984
1789.49	4.23535
1791	4.39069
1792.5	4.18789
1794.01	4.17376
1795.51	2.55409
1797.01	2.1312
1798.52	4.30589
1800.02	4.46979
1801.52	5.42068
1803.03	6.84511
1804.53	7.34865
1806.03	6.68481
1807.54	6.97442
1809.04	7.67937
1810.54	8.29053
1812.04	8.34415
1813.54	10.8348
1815.04	12.4864
1816.54	13.0351
1818.04	12.8895
1819.54	13.5927
1821.04	12.876
1822.54	12.3706
1824.04	11.9872
1825.54	12.4006
1827.04	12.3597
1828.54	12.6893
1830.03	12.9137
1831.53	12.7936
1833.03	13.5454
1834.53	13.703
1836.02	14.2676
1837.52	14.9931
1839.02	16.3314
1840.51	15.9672
1842.01	16.7719
1843.5	16.7159
1845	17.0018
1846.49	17.6313
1847.99	17.7053
1849.48	18.1628
1850.98	17.125
1852.47	16.5316
1853.96	15.3831
1855.46	13.9958
1856.95	14.5086
1858.44	15.2363
1859.94	15.3043
1861.43	15.3731
1862.92	15.797
1864.41	15.8128
1865.9	15.925
1867.39	15.0286
1868.88	14.3233
1870.37	14.0247
1871.86	13.7239
1873.35	14.6809
1874.84	15.0289
1876.33	14.4438
1877.82	14.4488
1879.31	13.7265
1880.8	13.6533
1882.29	13.2949
1882.58	12.988
1884.08	12.4861
1885.57	12.4698
1887.06	12.5191
1888.56	11.6244
1890.05	10.5448
1891.54	10.7333
1893.04	9.45748
1894.53	8.33579
1896.02	7.94537
1897.51	7.95732
1899	8.22236
1900.5	8.97896
1901.99	9.27952
1903.48	9.30203
1904.97	8.43939
1906.46	9.51093
1907.95	9.73985
1909.44	9.85064
1910.93	9.87112
1912.42	10.2813
1913.91	9.40576
1915.4	8.98164
1916.88	9.1331
1918.37	9.76239
1919.86	8.65926
1921.35	7.53714
1922.84	7.44089
1924.32	7.74171
1925.81	7.4795
1927.3	7.74235
1928.78	9.64387
1930.27	10.3272
1931.75	9.7574
1933.24	9.02009
1934.72	7.67893
1936.21	5.85965
1937.69	5.90197
1939.18	4.83278
1940.66	2.9679
1942.15	2.93016
1943.63	3.65434
1945.11	2.42301
1946.6	3.42454
1948.08	3.06535
1949.56	2.69832
1951.04	3.14671
1952.53	3.10716
1954.01	3.08421
1955.49	2.70152
1956.97	2.34564
1958.45	2.64782
1959.93	3.11053
1961.41	2.09043
1962.89	2.03107
1964.37	1.50561
1965.85	1.76288
1967.33	0.9728
1968.81	1.7734
1970.29	2.50527
1971.77	2.60222
1973.24	2.22848
1974.72	2.71995
1976.2	1.44721
1977.68	2.08528
1979.15	2.70319
1980.63	4.53216
1982.11	4.35818
1983.58	5.92894
1985.06	7.17503
1986.53	7.63766
1988.01	7.37126
1989.48	8.31836
1990.96	8.80645
1992.43	8.55776
1993.91	8.33274
1995.38	8.92087
1996.86	9.73741
1998.33	10.1316
1999.8	9.92487
2001.27	9.67233
2002.75	10.3552
2004.22	9.3636
2005.69	9.6617
2007.16	9.2193
2008.64	9.05924
2010.11	9.60237
2011.58	11.692
2013.05	10.6168
2014.52	11.3178
2015.99	13.2247
2017.46	14.3375
2018.93	14.171
2020.4	14.8526
2021.87	15.7901
2023.34	15.8728
2024.8	15.1306
2026.27	16.009
2027.74	15.1233
2029.21	14.8626
2030.68	15.3753
2032.14	14.8876
2033.61	15.647
2035.08	14.9738
2036.54	15.4324
2038.01	15.2863
2039.48	15.1152
2040.94	14.0147
2042.41	13.0292
2043.87	12.7641
2045.34	12.3032
2046.8	13.0579
2048.27	13.8965
2049.73	14.8848
2051.19	16.2884
2052.66	17.0375
2054.12	17.6656
2055.58	17.5519
2057.05	18.918
2058.51	18.8724
2059.97	18.7728
2061.43	18.3849
2062.9	18.0494
2064.36	18.653
2065.82	19.5243
2067.28	19.2821
2068.74	19.1435
2070.2	19.3382
2071.66	20.0084
2073.12	20.2761
2074.58	19.8673
2076.04	20.2778
2077.5	20.9691
2078.95	20.452
2080.41	21.137
2081.87	20.8747
2083.33	21.5975
2084.79	22.1224
2086.24	21.4207
2087.7	20.2713
2089.16	20.7973
2090.61	20.2941
2092.07	20.5257
2093.53	21.6516
2094.98	22.5882
2096.44	23.2353
2097.89	22.8975
2099.35	24.689
2100.8	24.4158
2102.26	25.5803
2103.71	27.421
2105.16	27.3512
2106.62	29.0699
2108.07	28.4029
2109.53	29.0831
2110.98	29.1758
2112.43	29.9828
2113.88	30.5026
2115.33	32.1843
2116.79	34.1471
2118.24	33.8796
2119.69	35.1452
2121.14	35.7429
2122.59	37.022
2124.04	37.315
2125.49	38.5072
2126.94	39.9029
2128.39	40.2551
2129.84	42.1589
2131.29	43.5509
2132.74	42.8933
2134.19	43.6685
2135.63	44.8519
