#Acq. time (s)=	45
#Accumulations=	2
#Range (cm-¹)=	200...3150
#Windows=	2
#Auto scanning=	Off
#Autofocus=	Off
#Macrospot=	Off
#AutoExposure=	Off
#Spike filter=	Multiple accum.
#Delay time (s)=	0
#Binning=	1
#Readout mode=	Signal
#DeNoise=	Off
#ICS correction=	On
#Dark correction=	Off
#Inst. Process=	Off
#Detector Gain=	Best Dynamic Range
#Detector ADC=	20 kHz       
#Detector temperature (°C)=	-69.85
#Instrument=	LabRAM HR Evol
#Detector=	Synapse
#Objective=	x100
#Grating=	600 gr/mm
#ND Filter=	100%
#Laser (nm)=	532 
#Hole=	100.021
#Range=	Auto
#Laser Pol.=	No
#Raman. Pol.=	No
#Laser Pol. (°)=	-0.0007625
#Raman Pol. (°)=	89.9995
#Collection=	Microscope
#StageXY=	Marzhauser
#StageZ=	Marzhauser
#X (µm)=	-2358.5
#Y (µm)=	242.2
#Z (µm)=	521.7
#Full time(mm:ss)=	3:18
#Project=	
#Sample=	
#Site=	
#Title=	Thy_10_08_45_2x_45s_532 nm_x100_100%_600 gr_mm
#Remark=	
#Date=	06.07.2022 15:01
#Acquired=	06.07.2022 15:01:59
#Base:Fit=	10.08.2022 09:46:25
#Base:Sub=	10.08.2022 09:46:49
#Filter:Polynom=	16.08.2022 10:24:56
#AxisType[0]=Intens
#AxisUnit[0]=Cnt
#AxisType[1]=Spectr
#AxisUnit[1]=1/cm
200.398	32.1954
202.213	29.1293
204.027	28.3068
205.843	25.4045
207.657	22.9343
209.47	20.8069
211.283	19.1291
213.097	17.6133
214.909	15.7376
216.721	14.151
218.533	12.8303
220.344	12.525
222.157	12.0481
223.967	11.2102
225.777	10.7546
227.587	9.31324
229.396	9.18754
231.205	8.34463
233.016	7.20333
234.824	6.49009
236.632	6.00112
238.439	5.9325
240.247	4.9345
242.053	4.3337
243.86	3.90948
245.666	3.41652
247.474	3.44079
249.279	2.93814
251.085	2.53312
252.889	2.64546
254.694	1.97267
256.498	1.73682
258.301	1.49266
260.105	1.81465
261.908	2.03927
263.71	2.34573
265.513	2.49529
267.315	2.07329
269.116	2.23037
270.918	2.16498
272.718	2.13481
274.519	2.09481
276.319	0.843979
278.119	0.623204
279.918	1.00441
281.718	1.69856
283.516	2.02444
285.315	2.27123
287.113	2.93063
288.911	2.94011
290.708	3.7422
292.505	4.77179
294.302	4.81311
296.098	6.41799
297.894	7.92732
299.69	8.13266
301.485	9.38847
303.278	9.37465
305.073	10.059
306.867	10.8433
308.661	11.9137
310.454	12.9825
312.247	13.5498
314.04	13.4285
315.833	13.5116
317.623	13.4826
319.415	13.6837
321.206	13.3506
322.997	13.328
324.788	13.5705
326.579	14.2514
328.367	14.219
330.156	13.7407
331.946	14.2272
333.735	14.0341
335.523	14.0648
337.31	14.3537
339.098	14.1787
340.885	14.2137
342.673	13.3478
344.458	12.8284
346.244	11.841
348.03	10.9556
349.816	10.1033
351.6	8.04225
353.385	6.37852
355.17	5.44141
356.953	5.22738
358.737	4.47495
360.521	4.22912
362.304	4.79031
364.085	4.52701
365.868	4.6176
367.65	5.42802
369.431	5.7916
371.212	5.92234
372.994	5.67085
374.773	6.9738
376.554	7.22736
378.332	6.86509
380.112	6.33172
381.892	6.52617
383.669	7.00608
385.448	7.47808
387.225	7.97678
389.003	7.98533
390.781	8.11858
392.557	8.64614
394.334	9.3526
396.109	9.79884
397.885	10.9052
399.66	10.9274
401.436	10.3424
403.211	9.62951
404.984	10.2471
406.759	11.1827
408.532	11.1504
410.306	11.5139
412.078	11.6306
413.851	12.2804
415.623	12.6973
417.395	13.0013
419.166	13.6254
420.938	13.7485
422.708	14.2176
424.477	13.5967
426.248	12.6497
428.017	12.2375
429.788	11.0868
431.556	9.65001
433.326	9.3376
435.093	9.6156
436.86	9.87434
438.629	9.48852
440.395	8.62579
442.163	8.67543
443.929	8.61111
445.694	9.07115
447.461	8.6201
449.226	9.17618
450.99	9.99797
452.756	9.2226
454.52	8.98589
456.285	7.9907
458.048	7.35417
459.811	6.91953
461.573	7.21586
463.337	7.62901
465.099	7.66586
466.86	8.26924
468.623	8.60898
470.384	9.74921
472.144	11.0236
473.906	11.0082
475.666	12.7228
477.425	13.7014
479.184	13.6597
480.944	15.6962
482.703	15.4204
484.461	15.5362
486.218	15.5965
487.975	15.212
489.734	16.0657
491.491	17.4064
493.247	18.0911
495.003	18.5689
496.759	18.6491
498.516	18.9838
500.271	19.5555
502.025	20.1545
503.779	20.4462
505.533	20.9152
507.287	21.0728
509.042	20.2517
510.795	19.9888
512.547	18.6686
514.299	19.6122
516.051	19.8238
517.803	19.4574
519.554	19.106
521.305	19.1447
523.055	18.8304
524.805	18.4039
526.555	17.099
528.307	16.2245
530.056	16.379
531.805	15.8406
533.553	15.8547
535.301	15.4308
537.049	14.7747
538.797	14.0538
540.544	12.1404
542.291	12.0791
544.037	11.5109
545.783	11.5887
547.529	12.1077
549.275	13.0717
551.02	13.4054
552.765	13.3913
554.509	12.4216
556.253	11.9188
557.997	11.7753
559.738	11.4322
561.482	11.5671
563.224	12.0217
564.967	10.7872
566.709	10.5815
568.451	10.2523
570.192	7.59009
571.933	7.4561
573.674	7.48325
575.415	6.97495
577.153	7.22221
578.893	6.08858
580.632	5.71688
582.371	6.77953
584.11	6.82994
585.849	6.56717
587.587	6.55515
589.323	5.28463
591.06	4.52582
592.797	3.82874
594.534	3.41958
596.271	2.353
598.005	2.57575
599.741	2.91837
601.476	4.11101
603.211	3.65227
604.944	3.694
606.679	3.92221
608.413	4.20429
610.147	4.27128
611.878	4.97387
613.611	4.6966
615.344	5.55619
617.077	5.92136
618.807	5.46981
620.539	5.67784
622.27	6.27028
623.999	5.84572
625.73	6.08538
627.461	6.58647
629.189	7.78246
630.919	7.15911
632.648	8.55345
634.376	9.1456
636.105	9.62694
637.833	10.0327
639.559	10.4365
641.287	10.7673
643.013	12.6971
644.74	14.0549
646.467	14.8699
648.192	15.2837
649.918	15.5299
651.642	15.7238
653.368	16.4364
655.091	16.5776
656.816	16.7725
658.538	17.9594
660.263	18.1963
661.987	18.6332
663.708	18.9954
665.432	19.2831
667.153	20.3754
668.875	21.6757
670.596	21.2422
672.318	21.3912
674.037	20.4333
675.759	20.4137
677.478	21.3044
679.196	22.0226
680.917	22.6948
682.635	23.9989
684.355	25.1252
686.072	26.7864
687.791	27.3811
689.508	26.4526
691.224	27.1331
692.942	27.9777
694.658	27.9949
696.376	27.9131
698.091	27.8501
699.805	28.2648
701.522	28.2329
703.236	27.6425
704.95	28.7577
706.665	29.2271
708.379	30.0771
710.093	30.3742
711.806	32.1889
713.518	34.0706
715.23	34.0992
716.943	34.3786
718.655	37.3004
720.366	38.3035
722.078	39.8199
723.788	41.5825
725.498	42.7845
727.208	44.4289
728.919	46.4609
730.628	47.2075
732.337	47.6389
734.045	48.9788
735.755	51.0689
737.463	52.8538
739.17	53.8159
740.877	54.2024
742.584	54.6225
744.292	55.0821
745.998	56.3723
747.704	57.7767
749.409	58.3098
751.114	59.8371
752.819	60.6706
754.526	62.8581
756.23	63.967
757.934	64.3983
759.637	65.8827
761.34	67.9326
763.043	69.3701
764.746	70.6655
766.448	72.601
768.152	74.5629
769.853	75.2795
771.554	76.9619
773.255	77.1965
774.956	77.2088
776.656	79.1092
778.356	79.1594
780.056	79.543
781.755	80.1868
783.454	81.8991
785.153	82.6315
786.851	82.7018
788.549	83.6153
790.247	85.2167
791.944	85.808
793.641	87.8011
795.338	88.2457
797.034	89.6763
798.73	90.0172
800.426	89.3909
802.121	89.7355
803.817	91.1446
805.511	90.6838
807.206	90.79
808.9	91.1186
810.592	90.9707
812.286	90.5364
813.979	90.5132
815.672	90.5644
817.364	90.496
819.057	89.7875
820.748	89.6513
822.44	88.185
824.129	86.698
825.82	85.1474
827.511	84.4384
829.201	83.7203
830.891	82.8328
832.581	82.5411
834.269	81.0388
835.958	80.5226
837.646	79.2861
839.335	79.406
841.023	77.5393
842.709	76.3757
844.396	76.3694
846.084	76.1188
847.77	74.5145
849.455	73.2375
851.141	72.7067
852.827	71.1077
854.513	69.492
856.196	68.2569
857.881	66.448
859.566	65.2105
861.248	64.652
862.932	63.6633
864.616	63.9851
866.297	62.9862
867.98	61.8018
869.663	60.1488
871.343	60.131
873.026	60.7651
874.707	61.1095
876.387	61.1133
878.068	60.3757
879.747	58.9785
881.428	58.4853
883.108	57.1959
884.786	56.3858
886.465	55.6793
888.143	55.759
889.822	55.0459
891.498	55.1901
893.177	54.9177
894.855	54.7821
896.53	54.6024
898.208	55.3369
899.883	54.5427
901.56	53.7828
903.234	53.109
904.91	53.029
906.584	51.7483
908.26	52.0877
909.933	51.0118
911.608	51.2094
913.28	50.4823
914.955	49.7709
916.627	50.2628
918.298	49.4965
919.972	49.5589
921.643	49.253
923.315	49.4614
924.986	49.3219
926.656	51.0873
928.328	51.178
929.997	51.4663
931.668	50.1025
933.337	51.0465
935.006	51.7044
936.676	51.5922
938.344	51.2575
940.012	50.4562
941.681	50.898
943.348	51.3004
945.014	51.1975
946.683	51.823
948.349	51.5865
950.015	51.0091
951.682	51.0937
953.347	52.3857
955.012	52.2195
956.676	50.8731
958.343	48.9231
960.006	47.6284
961.67	47.2206
963.333	47.714
964.998	48.4594
966.661	49.8962
968.323	50.5665
969.985	50.6128
971.649	51.6077
973.31	51.5027
974.971	51.6131
976.632	50.7611
978.293	50.6612
979.953	49.7098
981.615	48.3192
983.274	46.4318
984.933	45.4555
986.592	44.2695
988.251	43.0647
989.909	42.0945
991.567	41.0107
993.225	39.9272
994.884	39.1348
996.541	37.8366
998.198	38.1281
999.855	38.0977
1001.51	37.7249
1003.17	37.6625
1004.82	37.3809
1006.48	37.0291
1008.13	37.9018
1009.79	37.9212
1011.44	37.1582
1013.1	36.4765
1014.75	36.3769
1016.4	36.757
1018.06	36.1456
1019.71	34.9755
1021.36	33.3961
1023.01	32.95
1024.66	33.4749
1026.32	33.4998
1027.97	32.6932
1029.62	32.2196
1031.27	31.7595
1032.92	31.091
1034.57	29.4838
1036.22	28.2212
1037.87	27.1562
1039.52	26.3962
1041.16	26.9752
1042.81	27.6885
1044.46	28.8894
1046.11	28.8408
1047.76	28.2354
1049.4	27.6233
1051.05	26.5546
1052.7	26.0278
1054.34	25.8101
1055.99	24.522
1057.63	24.2412
1059.28	23.903
1060.92	23.3344
1062.57	22.9424
1064.21	22.6267
1065.85	22.4019
1067.5	22.1776
1069.14	22.1826
1070.78	21.3564
1072.43	21.643
1074.07	21.0689
1075.71	21.4444
1077.35	21.5148
1078.99	21.5027
1080.63	22.1196
1082.27	21.7946
1083.91	21.8531
1085.55	21.3915
1087.19	21.2215
1088.83	22.0577
1090.47	22.6348
1092.11	22.4546
1093.75	22.9665
1095.39	22.6419
1097.03	23.1953
1098.66	23.0209
1100.3	23.1168
1101.94	23.18
1103.57	22.8861
1105.21	23.9251
1106.84	24.1113
1108.48	23.9786
1110.11	22.1919
1111.75	21.7784
1113.38	20.7342
1115.02	19.4986
1116.65	17.6151
1118.29	17.0454
1119.92	17.25
1121.55	16.4889
1123.19	16.1869
1124.82	16.1658
1126.45	16.1677
1128.08	15.5044
1129.71	15.2704
1131.34	15.4579
1132.97	14.9644
1134.6	14.7519
1136.23	14.3893
1137.86	14.3041
1139.49	14.4889
1141.12	14.1112
1142.75	12.8961
1144.38	13.0176
1146.01	12.3239
1147.64	11.7798
1149.26	11.3727
1150.89	10.9639
1152.52	10.4767
1154.15	9.49387
1155.77	8.20482
1157.4	8.06184
1159.02	8.14249
1160.65	6.44668
1162.27	5.7258
1163.9	5.58586
1165.52	5.49535
1167.15	5.52739
1168.77	6.01025
1170.39	7.01735
1172.02	6.53109
1173.64	7.49898
1175.26	8.2847
1176.89	8.39075
1178.51	10.2412
1180.13	10.9068
1181.75	11.941
1183.37	12.7419
1184.99	12.9029
1186.61	13.3579
1188.23	14.438
1189.85	14.7489
1191.47	15.1335
1193.09	17.3131
1194.71	17.8298
1196.33	19.6342
1197.94	20.4296
1199.56	22.5451
1201.18	24.4615
1202.8	26.4058
1204.41	28.2582
1206.03	29.9121
1207.65	30.2401
1209.26	31.8991
1210.88	33.5921
1212.49	35.5109
1214.11	37.0286
1215.72	38.7731
1217.34	40.5053
1218.95	42.648
1220.57	43.1642
1222.18	44.4652
1223.79	46.0166
1225.41	47.6537
1227.02	48.6429
1228.63	48.9273
1230.24	49.2081
1231.85	49.2246
1233.47	49.8967
1235.08	49.4893
1236.69	50.1188
1238.3	50.9161
1239.91	51.2888
1241.52	50.9691
1243.13	51.7936
1244.74	52.519
1246.34	52.4976
1247.95	52.7526
1249.56	53.7299
1251.17	54.2712
1252.78	54.1808
1254.38	54.728
1255.99	53.7276
1257.6	54.0281
1259.2	54.8562
1260.81	54.3809
1262.42	55.1131
1264.02	55.593
1265.63	55.1728
1267.23	55.8751
1268.84	57.2198
1270.44	56.7863
1272.04	57.0339
1273.65	57.6496
1275.25	58.0038
1276.85	59.6133
1278.46	60.0445
1280.06	60.259
1281.66	61.2093
1283.26	63.0218
1284.86	63.6453
1286.46	64.2507
1288.07	65.1642
1289.67	66.5157
1291.27	67.2433
1292.87	67.8567
1294.47	68.0701
1296.06	68.0763
1297.66	68.8141
1299.26	69.2009
1300.86	69.3161
1302.46	69.0515
1304.06	69.6073
1305.65	70.2878
1307.25	70.9868
1308.85	71.7414
1310.44	72.8332
1312.04	73.4496
1313.64	74.2866
1315.23	73.9163
1316.83	73.9689
1318.42	74.1468
1320.02	73.7816
1321.61	73.6412
1323.2	73.1003
1324.8	72.1861
1326.39	71.423
1327.99	71.41
1329.58	71.197
1331.17	69.685
1332.76	69.3741
1334.36	68.9256
1335.95	68.5432
1337.54	68.8736
1339.13	67.9435
1340.72	68.132
1342.31	67.5999
1343.9	66.5766
1345.49	64.9738
1347.08	64.3891
1348.67	63.5339
1350.26	61.8297
1351.85	60.478
1353.43	60.0514
1355.02	59.4197
1356.61	58.2935
1358.2	55.969
1359.78	53.3665
1361.37	52.3061
1362.96	51.5141
1364.54	49.3549
1366.13	47.127
1367.71	45.5149
1369.3	43.5926
1370.88	42.8808
1372.47	41.3041
1374.05	39.8264
1375.64	38.3508
1377.22	37.4406
1378.8	36.1379
1380.39	35.1479
1381.97	34.6537
1383.55	36.023
1385.13	35.8726
1386.72	35.3322
1388.3	33.8512
1389.88	33.3094
1391.46	32.5058
1393.04	31.3087
1394.62	30.3912
1396.2	30.2118
1397.78	29.6766
1399.36	29.4349
1400.94	29.52
1402.52	30.114
1404.1	30.1986
1405.68	30.9335
1407.25	32.0679
1408.83	33.2861
1410.41	35.3006
1411.98	37.5637
1413.56	39.6589
1415.14	41.6795
1416.71	43.392
1418.29	46.1425
1419.87	48.9042
1421.44	50.1587
1423.02	52.8272
1424.59	55.5327
1426.16	58.8192
1427.74	61.658
1429.31	64.2539
1430.89	66.9123
1432.46	69.8794
1434.03	71.942
1435.6	74.473
1437.18	76.0926
1438.75	77.33
1440.32	79.4568
1441.89	81.1979
1443.46	81.5252
1445.03	82.5283
1446.6	84.0834
1448.17	84.3329
1449.74	84.9492
1451.31	84.6842
1452.88	83.829
1454.45	82.867
1456.02	81.605
1457.59	80.1113
1459.16	78.327
1460.72	76.7945
1462.29	73.5086
1463.86	70.4362
1465.43	66.7463
1466.99	63.6176
1468.56	60.7407
1470.13	57.1756
1471.69	53.3444
1473.26	50.5786
1474.82	46.9604
1476.38	43.9465
1477.95	41.1313
1479.51	37.7752
1481.08	35.0974
1482.64	30.9885
1484.2	28.6601
1485.77	26.4201
1487.33	24.3193
1488.89	22.398
1490.46	19.4953
1492.02	17.7315
1493.58	15.5883
1495.14	13.9617
1496.7	12.6247
1498.26	10.8087
1499.82	10.4368
1501.38	10.5323
1502.94	9.33121
1504.5	8.25907
1506.06	8.17425
1507.62	7.53331
1509.18	7.48055
1510.73	7.39662
1512.29	7.15934
1513.85	7.83032
1515.41	8.29345
1516.96	9.42363
1518.52	10.2629
1520.08	10.7584
1521.63	11.7951
1523.19	13.3497
1524.75	13.6051
1526.3	13.9039
1527.85	14.6799
1529.41	15.0487
1530.96	14.9204
1532.52	15.1787
1534.07	15.6193
1535.62	15.6845
1537.18	15.9489
1538.73	16.8373
1540.28	17.4769
1541.84	18.9783
1543.39	19.6319
1544.94	21.3183
1546.49	21.9353
1548.04	23.7145
1549.59	25.7961
1551.14	27.3596
1552.69	29.0092
1554.25	31.1004
1555.79	31.858
1557.34	33.2324
1558.89	35.1845
1560.44	36.1168
1561.99	37.2945
1563.54	37.9674
1565.08	39.7971
1566.63	41.8602
1568.18	42.8479
1569.73	44.3941
1571.27	45.5243
1572.82	47.0128
1574.37	47.5312
1575.91	48.6485
1577.46	49.9468
1579	50.3844
1580.55	51.5863
1582.09	52.8829
1583.64	54.8112
1585.18	55.842
1586.73	57.0592
1588.27	57.6169
1589.81	59.3282
1591.35	60.6564
1592.9	61.6727
1594.44	62.1129
1595.98	61.7938
1597.52	62.1889
1599.06	62.0867
1600.61	61.6073
1602.15	60.9799
1603.69	60.8295
1605.23	59.9609
1606.77	59.1193
1608.31	58.1177
1609.85	57.1008
1611.39	56.6916
1612.93	56.1373
1614.46	55.79
1616	55.7283
1617.54	54.9286
1619.08	54.8027
1620.61	54.4025
1622.15	55.1428
1623.69	55.5444
1625.23	57.1898
1626.76	57.8892
1628.3	58.2032
1629.83	58.5112
1631.37	59.4776
1632.9	59.8626
1634.44	60.9647
1635.97	61.9478
1637.51	63.5086
1639.04	64.6486
1640.57	65.7351
1642.11	67.6515
1643.64	68.0033
1645.17	68.0628
1646.71	68.7773
1648.24	69.9214
1649.77	70.3306
1651.3	70.5332
1652.83	71.308
1654.36	72.186
1655.89	72.8168
1657.42	73.1947
1658.96	72.5789
1660.48	72.9716
1662.01	72.656
1663.54	71.8904
1665.07	71.0762
1666.6	70.9721
1668.13	69.3584
1669.66	68.6147
1671.19	67.1217
1672.71	65.0917
1674.24	62.9213
1675.77	60.9562
1677.29	59.002
1678.82	56.7101
1680.35	53.6916
1681.87	50.6574
1683.4	48.0843
1684.92	45.0598
1686.45	42.6478
1687.97	41.1053
1689.5	38.7788
1691.02	35.7485
1692.54	33.8143
1694.07	31.6325
1695.59	29.9925
1697.11	28.1157
1698.64	26.8069
1700.16	24.9049
1701.68	23.0106
1703.2	20.8151
1704.72	19.1024
1706.25	17.6792
1707.77	17.0935
1709.29	15.9067
1710.81	15.0478
1712.33	14.4612
1713.85	13.7445
1715.37	12.1682
1716.89	11.1847
1718.41	11.4061
1719.92	10.9646
1721.44	11.3432
1722.96	10.9334
1724.48	11.087
1725.99	10.4706
1727.51	10.337
1729.03	10.1601
1730.55	9.87231
1732.06	9.97759
1733.58	9.72728
1735.09	9.77378
1736.61	9.92531
1738.13	9.91906
1739.64	9.59973
1741.15	9.58241
1742.67	9.56658
1744.18	8.99425
1745.7	8.89986
1747.21	7.84267
1748.72	7.84194
1750.24	7.18726
1751.75	6.82836
1753.26	6.33252
1754.77	5.89246
1756.29	5.39755
1757.8	4.81502
1759.31	4.38445
1760.82	3.56402
1762.33	3.41643
1763.84	3.20395
1765.35	2.46908
1766.86	1.53724
1768.37	1.26777
1769.88	0.580988
1771.39	-0.0603263
1772.9	-0.527001
1774.4	-1.04467
1775.91	-1.91439
1777.42	-2.35081
1778.93	-2.11007
1780.44	-2.25144
1781.94	-1.81985
1783.45	-1.58522
1784.96	-1.36337
1786.46	-1.58261
1787.97	-0.982202
1789.47	-0.506039
1790.98	-0.333025
1792.48	-0.0547739
1793.99	0.619172
1795.49	0.936727
1797	1.09529
1798.5	0.747141
1800.01	1.02099
1801.51	1.16953
1803.01	1.19801
1804.51	1.48879
1806.02	1.88713
1807.52	2.30309
1809.02	1.66408
1810.52	1.76046
1812.02	1.72073
1813.52	2.08098
1815.02	2.03637
1816.53	2.4201
1818.03	2.33736
1819.52	2.29207
1821.02	2.08418
1822.52	2.0879
1824.02	2.53112
1825.52	2.36564
1827.02	2.90568
1828.52	3.13118
1830.02	2.62801
1831.51	2.39606
1833.01	1.75911
1834.51	1.86171
1836.01	1.68461
1837.5	2.13924
1839	2.53551
1840.49	2.23761
1841.99	1.43829
1843.49	1.28078
1844.98	1.28884
1846.48	1.3792
1847.97	1.1705
1849.47	1.53418
1850.96	1.61616
1852.45	2.16223
1853.95	2.44353
1855.44	3.0597
1856.93	3.6435
1858.42	3.52157
1859.92	3.24712
1861.41	3.37316
1862.9	3.76486
1864.39	4.28151
1865.88	4.95003
1867.38	5.44801
1868.87	6.2957
1870.36	6.42968
1871.85	6.99201
1873.34	6.7988
1874.83	7.22502
1876.32	7.60922
1877.81	7.29313
1879.29	7.37272
1880.78	7.43898
1882.27	7.45748
1882.53	7.77799
1884.03	8.43481
1885.52	8.85295
1887.01	9.23055
1888.51	9.3226
1890	9.33059
1891.5	9.05289
1892.99	9.60512
1894.48	9.6484
1895.97	9.98939
1897.47	9.95439
1898.96	10.2648
1900.45	10.306
1901.94	10.0945
1903.43	9.72604
1904.92	9.71903
1906.41	9.59666
1907.9	9.799
1909.39	9.59996
1910.88	9.50795
1912.37	9.04482
1913.86	8.39312
1915.35	9.05249
1916.84	9.01741
1918.33	8.88286
1919.81	8.36423
1921.3	8.07428
1922.79	8.24797
1924.28	8.33878
1925.76	8.15346
1927.25	7.89805
1928.73	7.70997
1930.22	6.70491
1931.71	6.67277
1933.19	6.79263
1934.68	7.07451
1936.16	6.94002
1937.65	7.71129
1939.13	7.30436
1940.62	7.39077
1942.1	7.51067
1943.58	6.8185
1945.07	6.93706
1946.55	6.22025
1948.03	5.94802
1949.51	5.66363
1951	5.75596
1952.48	6.07392
1953.96	6.22575
1955.44	5.9856
1956.92	5.76753
1958.4	5.61172
1959.88	5.16442
1961.36	5.32716
1962.84	5.16584
1964.32	5.55805
1965.8	5.91899
1967.28	6.33608
1968.76	5.88063
1970.24	6.40006
1971.72	6.91646
1973.2	7.42933
1974.67	7.35269
1976.15	7.3376
1977.63	7.75807
1979.1	8.20932
1980.58	8.91738
1982.06	9.44233
1983.54	9.64237
1985.01	10.262
1986.49	10.4284
1987.96	10.7567
1989.44	11.3249
1990.91	10.6686
1992.39	10.8408
1993.86	10.6997
1995.33	11.3785
1996.81	11.8143
1998.28	12.5055
1999.75	12.4685
2001.23	12.8832
2002.7	13.3913
2004.17	13.6941
2005.65	14.5482
2007.12	14.8143
2008.59	14.9558
2010.06	14.8768
2011.53	15.1293
2013	14.5766
2014.47	15.2485
2015.94	15.1031
2017.41	15.2724
2018.88	16.0638
2020.35	16.0672
2021.82	16.0129
2023.29	16.1565
2024.76	16.0163
2026.23	15.6992
2027.69	14.9646
2029.16	14.6054
2030.63	14.692
2032.1	15.3476
2033.56	15.5108
2035.03	15.6614
2036.5	15.8547
2037.96	15.5588
2039.43	15.6891
2040.89	15.2443
2042.36	15.2406
2043.83	15.8582
2045.29	15.5948
2046.75	15.486
2048.22	15.4384
2049.68	15.0572
2051.15	15.2163
2052.61	15.4717
2054.07	15.766
2055.54	15.4581
2057	15.2033
2058.46	15.4471
2059.92	15.62
2061.39	15.4062
2062.85	15.5913
2064.31	15.5922
2065.77	16.2112
2067.23	16.5058
2068.69	16.8969
2070.15	17.2118
2071.61	17.5235
2073.07	17.2601
2074.53	17.3299
2075.99	17.932
2077.45	17.6422
2078.91	17.8436
2080.37	17.8757
2081.82	17.5386
2083.28	17.6376
2084.74	18.0366
2086.2	18.5279
2087.65	19.1208
2089.11	19.321
2090.57	19.059
2092.02	19.0173
2093.48	18.7344
2094.94	18.9299
2096.39	19.1951
2097.85	19.3652
2099.3	19.5813
2100.76	19.0314
2102.21	19.3714
2103.66	19.8661
2105.12	20.1786
2106.57	19.9075
2108.03	19.7001
2109.48	20.2901
2110.93	19.9263
2112.38	20.6256
2113.84	20.3663
2115.29	20.9148
2116.74	21.201
2118.19	21.3335
2119.64	21.2072
2121.09	21.5392
2122.54	21.7629
2123.99	22.6199
2125.45	23.36
2126.89	23.6389
2128.34	23.8643
2129.79	24.4461
2131.24	24.9979
2132.69	25.4407
