#Acq. time (s)=	45
#Accumulations=	2
#Range (cm-¹)=	200...3150
#Windows=	2
#Auto scanning=	Off
#Autofocus=	Off
#Macrospot=	Off
#AutoExposure=	Off
#Spike filter=	Multiple accum.
#Delay time (s)=	0
#Binning=	1
#Readout mode=	Signal
#DeNoise=	Off
#ICS correction=	On
#Dark correction=	Off
#Inst. Process=	Off
#Detector Gain=	Best Dynamic Range
#Detector ADC=	20 kHz       
#Detector temperature (°C)=	-69.85
#Instrument=	LabRAM HR Evol
#Detector=	Synapse
#Objective=	x100
#Grating=	600 gr/mm
#ND Filter=	100%
#Laser (nm)=	532 
#Hole=	100.021
#Range=	Auto
#Laser Pol.=	No
#Raman. Pol.=	No
#Laser Pol. (°)=	-0.0007625
#Raman Pol. (°)=	89.9995
#Collection=	Microscope
#StageXY=	Marzhauser
#StageZ=	Marzhauser
#X (µm)=	-5919.6
#Y (µm)=	2873.2
#Z (µm)=	-222.75
#Full time(mm:ss)=	3:19
#Project=	
#Sample=	
#Site=	
#Title=	Thy_20_09_34_2x_45s_532 nm_x100_100%_600 gr_mm
#Remark=	
#Date=	29.06.2022 13:02
#Acquired=	29.06.2022 13:02:16
#Base:Fit=	10.08.2022 09:52:02
#Base:Fit=	10.08.2022 09:52:12
#Base:Sub=	10.08.2022 09:54:21
#Filter:Polynom=	16.08.2022 10:24:04
#AxisType[0]=Intens
#AxisUnit[0]=Cnt
#AxisType[1]=Spectr
#AxisUnit[1]=1/cm
200.523	20.6755
202.339	18.362
204.154	15.6683
205.967	13.601
207.781	12.2962
209.596	10.6471
211.409	9.27256
213.222	7.58827
215.034	6.6118
216.848	6.01377
218.659	5.79368
220.47	5.68001
222.281	4.64138
224.091	4.63384
225.903	4.72546
227.713	4.20802
229.522	4.16188
231.331	4.54431
233.14	5.49632
234.948	5.18975
236.756	6.46655
238.566	5.87889
240.373	6.96734
242.18	7.77263
243.986	8.61983
245.792	8.68434
247.598	8.93915
249.403	9.40247
251.208	9.70288
253.013	10.4618
254.818	11.2395
256.624	11.7058
258.427	12.141
260.231	12.2987
262.034	13.265
263.836	13.4816
265.638	12.9139
267.44	14.1185
269.242	15.2671
271.043	14.8092
272.844	15.1299
274.645	15.2343
276.445	15.1496
278.245	14.8103
280.044	15.0002
281.843	14.3381
283.642	13.9461
285.44	13.2518
287.238	12.1759
289.036	12.2371
290.833	12.1667
292.63	12.8487
294.425	12.7631
296.221	12.0298
298.017	11.0966
299.813	11.1789
301.608	11.6377
303.403	11.2508
305.198	11.4742
306.992	11.4423
308.786	10.6975
310.579	10.1302
312.371	9.29284
314.163	9.85554
315.956	9.55367
317.748	9.59729
319.54	9.45979
321.331	10.1715
323.122	10.6237
324.911	10.5575
326.701	10.6681
328.491	8.96159
330.281	10.1893
332.071	10.186
333.857	9.99881
335.646	9.55981
337.434	9.46141
339.222	9.88794
341.008	9.50055
342.795	9.47095
344.582	8.57666
346.369	8.08863
348.153	8.25115
349.939	8.04161
351.724	6.8733
353.51	6.20897
355.292	5.5309
357.077	6.01516
358.861	4.99764
360.643	5.64545
362.426	6.44686
364.21	6.06339
365.99	5.76199
367.773	5.21975
369.555	4.10798
371.335	3.98924
373.116	3.47931
374.897	3.39952
376.676	3.24052
378.456	4.33404
380.236	4.38162
382.014	4.00006
383.793	4.25544
385.57	4.19948
387.349	5.26089
389.127	5.5148
390.903	5.42221
392.681	5.47659
394.456	5.14844
396.233	4.8239
398.007	4.22638
399.784	3.95729
401.56	4.24108
403.333	5.68144
405.108	5.32741
406.881	5.28231
408.656	5.89222
410.428	7.22166
412.202	7.4004
413.973	7.44445
415.746	7.2303
417.517	7.50425
419.29	8.24611
421.06	8.48841
422.831	8.36935
424.601	9.11799
426.37	9.08742
428.141	8.61837
429.909	7.86513
431.679	7.71223
433.447	7.48239
435.216	6.95272
436.983	7.04559
438.75	6.14011
440.519	5.97754
442.285	5.54521
444.052	5.39123
445.818	6.14189
447.583	6.11109
449.349	5.99396
451.114	4.45287
452.878	4.1233
454.643	3.80418
456.407	3.13882
458.169	2.74325
459.934	2.73087
461.696	2.6163
463.458	4.24507
465.222	4.27301
466.983	4.80178
468.744	5.03026
470.507	5.67112
472.267	6.35857
474.027	6.86943
475.787	7.47054
477.548	7.07046
479.307	7.70645
481.065	7.38138
482.823	8.11108
484.583	8.45114
486.341	9.72878
488.098	10.7613
489.855	12.0168
491.612	13.197
493.37	13.0833
495.126	14.3147
496.881	16.0207
498.636	16.973
500.391	17.6515
502.148	18.3831
503.902	18.6201
505.656	19.6966
507.409	20.5876
509.162	21.8178
510.915	22.1832
512.668	22.2731
514.42	21.8168
516.174	21.4119
517.925	22.2331
519.676	22.5643
521.427	22.6912
523.178	22.7356
524.928	23.1203
526.678	22.2387
528.427	22.1295
530.176	21.7325
531.925	22.0809
533.673	22.1611
535.422	21.0685
537.169	20.0231
538.917	19.6239
540.664	19.8504
542.411	19.8169
544.157	19.9835
545.903	19.6473
547.649	19.5772
549.395	19.8016
551.14	19.7292
552.884	19.242
554.629	19.5239
556.373	19.4363
558.117	18.3367
559.86	17.6816
561.603	18.1892
563.346	18.0737
565.089	18.5113
566.831	18.7865
568.573	18.6042
570.314	19.1184
572.053	19.5025
573.794	19.3262
575.534	18.6806
577.274	17.8426
579.014	17.3807
580.754	16.7903
582.493	16.5569
584.23	16.2874
585.968	15.8609
587.706	15.0854
589.444	14.6991
591.181	13.9113
592.919	13.4056
594.653	13.0872
596.39	12.6037
598.126	12.6055
599.862	12.6373
601.595	13.0188
603.33	12.5105
605.065	12.8904
606.8	12.987
608.532	13.8881
610.266	13.4732
611.999	12.7974
613.732	11.9099
615.463	11.8614
617.196	12.0035
618.928	12.3425
620.66	12.0664
622.389	12.4907
624.12	13.16
625.851	14.0704
627.58	15.3829
629.31	15.3886
631.04	15.373
632.767	15.2353
634.497	15.2517
636.223	16.0585
637.952	17.9034
639.68	18.4311
641.406	18.8949
643.134	19.0219
644.861	20.5473
646.586	22.1579
648.312	23.8943
650.037	24.5879
651.762	25.1901
653.486	26.3991
655.211	26.5665
656.936	26.9507
658.659	27.8692
660.383	27.4529
662.105	27.6785
663.829	27.3018
665.55	27.6122
667.273	28.6893
668.994	29.5086
670.716	29.3431
672.436	29.8603
674.158	30.7939
675.877	31.1665
677.598	31.7262
679.317	32.5748
681.035	34.1295
682.755	34.6748
684.473	35.4132
686.192	36.3775
687.909	36.8791
689.628	37.3905
691.344	38.1962
693.06	38.7331
694.778	39.2552
696.493	38.7584
698.211	39.5884
699.925	39.8211
701.64	41.4363
703.356	41.8735
705.07	42.3832
706.783	42.7666
708.498	44.0501
710.211	44.3054
711.924	45.0278
713.638	44.6401
715.35	44.4429
717.061	46.1655
718.774	47.3237
720.485	48.3577
722.196	51.2054
723.906	51.698
725.618	51.6617
727.328	53.8362
729.037	54.5451
730.746	56.534
732.456	57.4616
734.165	58.3299
735.873	58.3116
737.58	59.3261
739.289	60.9358
740.997	60.7424
742.703	61.7034
744.41	62.4139
746.116	62.6643
747.823	62.3852
749.529	63.0817
751.234	63.8172
752.938	64.6513
754.643	65.1834
756.347	65.5522
758.051	66.2574
759.756	66.9903
761.459	67.2628
763.162	68.9664
764.865	70.103
766.567	71.648
768.269	71.9047
769.97	72.4051
771.671	72.8832
773.372	73.3231
775.073	73.9574
776.773	74.6378
778.473	75.4156
780.174	75.6513
781.874	76.0795
783.573	76.6945
785.271	77.7107
786.97	78.9947
788.668	79.5748
790.365	80.5365
792.063	82.3904
793.76	83.1812
795.456	84.0064
797.153	83.4367
798.847	83.536
800.543	85.5075
802.238	86.7726
803.933	87.3761
805.628	88.1096
807.322	89.5161
809.017	88.904
810.71	90.2664
812.404	90.2499
814.097	90.0228
815.79	90.3428
817.483	89.9556
819.173	90.3534
820.865	90.5869
822.556	91.715
824.248	90.805
825.939	90.2233
827.629	90.4189
829.318	90.1891
831.008	89.7405
832.697	90.0519
834.387	90.0037
836.076	89.6799
837.765	89.1949
839.451	89.2263
841.139	88.1983
842.827	87.5108
844.514	87.0668
846.2	85.4243
847.886	84.2915
849.573	82.049
851.259	80.2568
852.943	77.8027
854.629	76.1001
856.314	74.7298
857.997	73.5428
859.682	72.0229
861.366	69.7229
863.05	68.57
864.732	67.7715
866.415	66.9108
868.098	66.3705
869.779	65.5087
871.461	63.8725
873.141	63.0991
874.823	61.2526
876.505	60.4817
878.184	58.3913
879.865	56.966
881.545	55.3871
883.223	55.615
884.903	55.3534
886.581	53.6693
888.26	53.1531
889.937	51.6168
891.616	51.251
893.294	50.3946
894.97	50.7931
896.648	50.9885
898.323	51.8613
900	52.3954
901.675	52.96
903.351	53.3476
905.026	53.4136
906.701	52.9879
908.375	51.6235
910.05	52.0334
911.723	51.875
913.398	51.9445
915.07	51.9954
916.742	52.5723
918.415	52.5357
920.087	52.886
921.76	53.0052
923.43	52.8879
925.103	52.5405
926.773	51.501
928.443	49.7277
930.114	49.2481
931.783	49.4845
933.454	49.136
935.123	49.421
936.791	48.7601
938.461	48.2961
940.128	48.0791
941.796	47.3841
943.464	47.2409
945.131	46.4527
946.797	47.5575
948.465	47.4084
950.131	46.6297
951.797	47.2348
953.462	46.8404
955.128	46.5392
956.793	46.2459
958.457	44.6522
960.121	44.0601
961.786	43.1878
963.45	43.5389
965.113	44.1649
966.775	44.8583
968.44	45.0752
970.102	45.1631
971.763	46.7808
973.425	47.6857
975.086	48.3739
976.748	48.7516
978.409	49.8883
980.069	50.602
981.729	50.7731
983.388	51.8429
985.048	51.3861
986.708	51.2215
988.367	50.9962
990.025	50.2202
991.683	49.9286
993.341	50.6976
994.998	51.3831
996.655	51.4832
998.312	51.4943
999.969	52.333
1001.62	52.6225
1003.28	52.1084
1004.94	50.8912
1006.59	50.0259
1008.25	50.3325
1009.9	49.427
1011.56	49.3491
1013.21	49.544
1014.86	48.303
1016.52	47.4489
1018.17	46.5803
1019.82	45.4922
1021.48	44.5401
1023.13	43.2869
1024.78	42.071
1026.43	41.1145
1028.08	39.9596
1029.73	40.0857
1031.38	38.6328
1033.03	37.1988
1034.68	35.8847
1036.33	33.9492
1037.98	32.2382
1039.63	31.1921
1041.28	30.3258
1042.93	30.5356
1044.57	30.4409
1046.22	30.822
1047.87	30.5105
1049.52	29.6951
1051.16	29.0535
1052.81	28.8794
1054.45	28.4698
1056.1	26.6779
1057.75	25.0085
1059.39	25.049
1061.04	25.4088
1062.68	25.7912
1064.32	25.0771
1065.97	24.7441
1067.61	23.4346
1069.25	22.8545
1070.9	22.8191
1072.54	23.5431
1074.18	23.678
1075.82	23.1636
1077.47	23.2689
1079.11	22.6584
1080.75	23.7252
1082.39	24.4077
1084.03	23.8281
1085.67	22.6131
1087.31	22.483
1088.95	23.1182
1090.59	23.362
1092.22	23.2179
1093.86	23.6135
1095.5	23.9125
1097.14	23.7702
1098.78	25.0045
1100.41	24.5868
1102.05	24.2708
1103.69	23.9346
1105.32	23.8383
1106.96	24.3614
1108.59	25.123
1110.23	25.3535
1111.86	25.1767
1113.5	24.3734
1115.13	23.4357
1116.77	22.9184
1118.4	23.3528
1120.03	22.5281
1121.67	21.8255
1123.3	21.122
1124.93	19.9819
1126.56	18.7
1128.19	17.5516
1129.83	16.133
1131.46	15.6581
1133.09	15.5132
1134.72	15.3838
1136.35	13.8998
1137.98	12.5306
1139.61	11.8447
1141.24	11.1996
1142.86	11.411
1144.49	11.2459
1146.12	9.8884
1147.75	10.1234
1149.38	9.79962
1151	9.59206
1152.63	9.90307
1154.26	9.26189
1155.88	7.67534
1157.51	6.8902
1159.14	6.24519
1160.76	6.41031
1162.39	6.53442
1164.01	4.50109
1165.63	3.45744
1167.26	2.79711
1168.88	3.609
1170.51	4.0713
1172.13	4.8512
1173.75	6.06573
1175.38	6.48523
1177	6.76202
1178.62	7.17662
1180.24	7.63593
1181.86	7.62838
1183.48	8.33634
1185.1	9.46475
1186.72	9.77066
1188.34	10.302
1189.96	10.255
1191.58	9.94617
1193.2	9.87979
1194.82	10.5102
1196.44	10.2053
1198.06	10.527
1199.68	11.237
1201.29	11.7159
1202.91	12.6846
1204.53	14.484
1206.14	15.9628
1207.76	17.5833
1209.38	19.4119
1210.99	20.7126
1212.61	22.3253
1214.22	23.8437
1215.84	24.8932
1217.45	25.2976
1219.07	27.0295
1220.68	28.9545
1222.29	31.2256
1223.91	33.3153
1225.52	34.805
1227.13	35.5985
1228.74	37.5904
1230.36	38.3858
1231.97	38.9898
1233.58	39.9588
1235.19	40.0993
1236.8	40.6499
1238.41	41.4932
1240.02	42.3711
1241.63	44.0288
1243.24	43.7581
1244.85	44.144
1246.46	46.4081
1248.07	47.0253
1249.67	47.8872
1251.28	49.4635
1252.89	50.251
1254.5	50.5954
1256.1	49.625
1257.71	50.2209
1259.32	50.843
1260.92	51.211
1262.53	52.3789
1264.13	53.4015
1265.74	54.3048
1267.34	53.9489
1268.95	54.2749
1270.55	54.4035
1272.15	55.1541
1273.76	55.342
1275.36	55.8813
1276.97	56.1572
1278.57	56.6313
1280.17	58.4978
1281.77	59.0205
1283.37	59.4354
1284.97	59.7252
1286.58	59.6433
1288.18	60.4424
1289.78	60.6217
1291.38	60.3465
1292.98	61.0443
1294.58	62.2179
1296.18	62.2126
1297.78	62.6118
1299.37	63.0937
1300.97	63.61
1302.57	63.8494
1304.17	63.5214
1305.77	63.8741
1307.36	64.4858
1308.96	65.4409
1310.55	64.4959
1312.15	64.3357
1313.75	64.6721
1315.34	64.3617
1316.94	64.7215
1318.53	64.8546
1320.13	65.1077
1321.72	65.1579
1323.32	64.6754
1324.91	64.9561
1326.5	64.3712
1328.1	62.8246
1329.69	62.3145
1331.28	62.8434
1332.87	62.196
1334.47	61.9526
1336.06	60.9911
1337.65	61.5027
1339.24	61.1192
1340.83	60.7903
1342.42	60.6234
1344.01	60.3368
1345.6	59.4743
1347.19	58.5013
1348.78	57.8474
1350.37	57.7649
1351.96	57.1471
1353.54	55.3736
1355.13	54.7199
1356.72	53.5594
1358.31	52.4852
1359.89	51.6862
1361.48	49.6425
1363.07	48.8208
1364.65	47.2178
1366.24	46.2757
1367.82	45.7563
1369.41	43.6227
1370.99	42.7961
1372.58	42.144
1374.16	42.5571
1375.75	40.9676
1377.33	40.7141
1378.91	40.168
1380.5	40.1796
1382.08	39.3874
1383.66	38.7445
1385.25	39.4111
1386.83	39.1499
1388.41	38.5681
1389.99	37.3154
1391.57	37.1708
1393.15	37.4257
1394.73	37.6624
1396.31	37.2713
1397.89	37.1542
1399.47	36.9217
1401.05	36.6434
1402.63	35.9961
1404.21	35.8383
1405.78	36.2187
1407.36	36.1396
1408.94	36.6889
1410.52	37.9463
1412.1	38.9394
1413.67	39.5277
1415.25	40.0374
1416.82	40.8198
1418.4	42.3961
1419.98	44.0668
1421.55	45.8458
1423.13	48.376
1424.7	50.2986
1426.28	51.3476
1427.85	53.0544
1429.42	54.8479
1431	56.5247
1432.57	58.0235
1434.14	60.1481
1435.71	61.0541
1437.29	62.4256
1438.86	63.3049
1440.43	64.2221
1442	65.6821
1443.57	66.3725
1445.14	67.123
1446.71	68.1796
1448.28	68.4862
1449.85	69.8597
1451.42	70.627
1452.99	71.1155
1454.56	70.1246
1456.13	69.6911
1457.7	68.4197
1459.26	67.1004
1460.83	65.55
1462.4	64.4226
1463.97	63.4608
1465.54	60.6973
1467.1	59.0079
1468.67	56.1966
1470.23	54.6282
1471.8	52.4335
1473.36	49.0386
1474.93	45.9624
1476.49	43.6255
1478.06	40.5476
1479.62	37.8524
1481.19	35.3939
1482.75	32.5907
1484.31	30.607
1485.88	27.3611
1487.44	25.8919
1489	24.3618
1490.56	21.9601
1492.13	19.6908
1493.69	17.5585
1495.25	15.9504
1496.81	15.8241
1498.37	14.8926
1499.93	14.4721
1501.49	14.0828
1503.05	13.5728
1504.61	12.4199
1506.17	12.4988
1507.73	12.8627
1509.28	13.8856
1510.84	13.5802
1512.4	14.3298
1513.96	14.3995
1515.52	14.8634
1517.07	15.9746
1518.63	17.0704
1520.19	19.0158
1521.74	19.6944
1523.3	21.2158
1524.85	23.1353
1526.41	24.1977
1527.96	25.5382
1529.52	26.5497
1531.07	26.973
1532.63	26.9073
1534.18	26.6479
1535.73	27.5955
1537.29	28.6306
1538.84	30.3459
1540.39	31.6337
1541.94	32.2474
1543.5	33.4108
1545.05	35.1577
1546.6	36.2633
1548.15	37.6649
1549.7	39.0153
1551.25	40.1242
1552.8	41.7036
1554.35	43.2987
1555.9	44.4086
1557.45	45.9001
1559	46.9028
1560.55	47.6761
1562.1	49.1707
1563.65	48.9975
1565.19	50.2658
1566.74	50.8464
1568.29	51.7929
1569.83	53.6634
1571.38	54.0786
1572.93	54.8382
1574.47	56.2053
1576.02	57.2547
1577.56	58.7319
1579.11	59.0341
1580.66	60.0868
1582.2	60.8065
1583.74	62.2207
1585.29	63.495
1586.83	64.143
1588.38	64.6234
1589.92	65.3594
1591.46	65.7651
1593.01	66.7533
1594.55	67.9417
1596.09	68.7429
1597.63	69.1522
1599.17	68.0811
1600.71	68.3573
1602.25	68.1346
1603.79	67.1108
1605.34	66.2786
1606.88	66.0548
1608.41	64.8003
1609.95	63.8147
1611.49	63.6916
1613.03	63.755
1614.57	64.2881
1616.11	64.569
1617.65	64.4368
1619.18	64.6876
1620.72	65.5783
1622.26	65.5768
1623.79	66.0772
1625.33	65.8452
1626.87	66.4025
1628.4	66.2571
1629.94	66.9114
1631.48	67.8369
1633.01	68.1395
1634.55	69.1346
1636.08	68.9794
1637.61	69.1797
1639.15	69.6713
1640.68	70.0385
1642.21	71.858
1643.75	72.684
1645.28	73.6276
1646.81	74.0444
1648.34	73.7712
1649.88	75.1329
1651.41	76.5033
1652.94	76.7737
1654.47	77.3054
1656	77.3054
1657.53	78.0936
1659.06	78.4851
1660.59	78.1402
1662.12	78.6401
1663.65	78.7101
1665.18	77.9458
1666.71	77.2453
1668.24	77.2277
1669.76	76.0138
1671.29	74.4839
1672.82	72.8796
1674.35	70.9298
1675.87	68.9092
1677.4	67.537
1678.93	65.314
1680.45	62.6043
1681.98	59.4982
1683.5	57.2458
1685.03	54.6449
1686.55	52.5565
1688.08	50.4373
1689.6	47.5981
1691.13	45.4926
1692.65	43.1696
1694.17	40.5264
1695.7	37.8415
1697.22	35.5539
1698.74	32.9851
1700.27	31.6206
1701.79	29.4807
1703.31	28.2347
1704.83	26.2088
1706.35	24.4744
1707.87	22.4599
1709.39	20.5956
1710.91	19.0966
1712.43	17.2515
1713.95	15.5075
1715.47	14.5481
1716.99	13.3947
1718.51	12.2094
1720.03	11.0139
1721.55	9.95414
1723.07	9.76419
1724.58	9.62924
1726.1	8.89886
1727.62	8.06564
1729.13	7.69576
1730.65	7.52599
1732.17	7.18425
1733.68	6.9728
1735.2	7.27965
1736.72	6.7264
1738.23	6.89041
1739.74	6.49114
1741.26	6.36365
1742.77	6.45243
1744.29	6.47396
1745.8	5.65204
1747.32	5.72108
1748.83	5.49389
1750.34	5.52798
1751.85	5.04909
1753.37	4.79042
1754.88	4.25795
1756.39	3.95104
1757.9	3.73863
1759.41	4.5191
1760.92	4.50835
1762.44	4.23456
1763.95	3.38127
1765.46	3.11985
1766.96	3.53127
1768.47	3.51756
1769.98	3.50659
1771.49	3.80528
1773	4.21413
1774.51	4.1837
1776.02	4.60399
1777.53	3.86021
1779.03	2.9886
1780.54	2.57941
1782.05	2.4982
1783.55	2.47051
1785.06	2.64299
1786.57	2.59199
1788.07	2.47952
1789.58	1.91024
1791.08	2.22749
1792.59	1.92264
1794.09	2.21554
1795.6	2.54177
1797.1	2.94041
1798.61	2.99755
1800.11	2.31623
1801.61	1.84014
1803.12	2.5712
1804.62	2.95889
1806.12	3.09629
1807.62	3.08549
1809.12	3.03663
1810.63	3.29784
1812.13	3.05581
1813.63	2.96538
1815.13	3.01022
1816.63	2.26671
1818.13	1.72593
1819.63	1.76567
1821.13	1.37953
1822.63	1.6349
1824.13	1.03418
1825.63	0.94526
1827.13	1.01343
1828.62	1.36751
1830.12	1.60823
1831.62	1.62617
1833.12	1.41751
1834.61	1.44524
1836.11	1.29258
1837.61	0.866219
1839.1	0.63298
1840.6	1.68447
1842.09	1.21125
1843.59	1.89845
1845.09	2.47807
1846.58	2.53269
1848.08	2.36919
1849.57	2.57016
1851.06	2.12617
1852.56	1.93851
1854.05	1.89265
1855.54	2.45367
1857.04	2.33853
1858.53	1.96367
1860.02	1.87194
1861.51	1.97107
1863.01	2.05209
1864.5	1.74017
1865.99	1.79038
1867.48	2.02487
1868.97	2.14355
1870.46	2.41163
1871.95	2.28481
1873.44	2.64735
1874.93	2.72679
1876.42	3.09822
1877.91	3.56621
1879.4	3.51433
1880.89	3.0027
1882.37	2.67628
1882.46	2.50158
1883.95	2.81659
1885.45	2.59436
1886.94	2.04825
1888.43	1.64499
1889.93	1.60327
1891.42	1.56413
1892.91	1.41626
1894.41	1.80191
1895.9	2.09016
1897.39	1.96846
1898.88	2.12916
1900.37	2.59423
1901.86	2.91317
1903.36	2.69601
1904.85	2.82161
1906.34	3.5001
1907.83	4.0849
1909.32	4.34107
1910.81	4.10412
1912.29	4.78448
1913.78	4.73883
1915.27	4.70174
1916.76	6.02227
1918.25	5.90674
1919.74	5.52384
1921.23	5.13494
1922.71	5.09899
1924.2	4.81935
1925.69	4.83706
1927.17	4.89534
1928.66	4.72087
1930.15	4.70168
1931.63	4.59897
1933.12	5.08546
1934.6	5.2269
1936.09	5.61413
1937.57	6.23695
1939.06	7.0579
1940.54	6.98297
1942.02	7.76594
1943.51	8.61154
1944.99	8.59011
1946.47	9.40011
1947.96	9.6726
1949.44	9.99125
1950.92	10.058
1952.4	9.88176
1953.88	9.85868
1955.37	10.9996
1956.85	11.5927
1958.33	11.705
1959.81	11.5804
1961.29	11.5816
1962.77	11.8589
1964.25	13.1128
1965.73	13.0937
1967.21	13.7494
1968.69	14.1936
1970.16	14.3111
1971.64	14.2805
1973.12	14.6748
1974.6	15.3893
1976.08	15.3801
1977.55	15.4639
1979.03	15.9804
1980.51	15.9298
1981.98	15.2333
1983.46	14.9185
1984.94	14.96
1986.41	14.747
1987.89	14.6547
1989.36	14.7042
1990.84	14.5441
1992.31	13.9003
1993.79	13.2496
1995.26	12.8383
1996.73	12.4611
1998.21	12.1376
1999.68	11.9435
2001.15	11.8676
2002.63	11.1956
2004.1	10.8928
2005.57	10.3771
2007.04	10.4966
2008.51	10.9324
2009.99	11.2342
2011.46	11.0882
2012.93	10.6643
2014.4	10.0208
2015.87	10.6173
2017.34	10.449
2018.81	10.1276
2020.28	9.63109
2021.75	9.42092
2023.21	9.5548
2024.68	9.77265
2026.15	10.214
2027.62	10.4002
2029.09	10.5694
2030.56	10.8186
2032.02	11.4475
2033.49	12.3381
2034.96	12.4962
2036.42	12.7496
2037.89	13.22
2039.36	12.7868
2040.82	13.5362
2042.29	13.8645
2043.75	14.2704
2045.22	14.136
2046.68	15.3546
2048.14	15.5587
2049.61	14.8698
2051.07	15.3967
2052.54	15.6864
2054	15.369
2055.46	15.3725
2056.93	15.9407
2058.39	16.2574
2059.85	16.0618
2061.31	15.8447
2062.77	15.9261
2064.23	16.0341
2065.7	15.9046
2067.16	15.6511
2068.62	15.4717
2070.08	15.3745
2071.54	15.4755
2073	15.2392
2074.46	14.6094
2075.92	14.4907
2077.38	14.6778
2078.83	15.0632
2080.29	15.5165
2081.75	15.8959
2083.21	15.4973
2084.67	15.3166
2086.12	15.1648
2087.58	15.4741
2089.04	15.886
2090.49	16.2868
2091.95	16.1964
2093.41	16.303
2094.86	18.1257
2096.32	18.8541
2097.77	19.1951
2099.23	19.9161
2100.68	20.5923
2102.14	21.1547
2103.59	22.4865
2105.05	22.7088
2106.5	23.0054
2107.95	23.264
2109.41	23.8415
2110.86	24.9323
2112.31	26.1314
2113.76	27.2769
2115.21	27.6213
2116.67	28.6905
2118.12	30.1428
2119.57	31.2127
2121.02	31.561
2122.47	32.1043
2123.92	33.9691
2125.37	34.7465
2126.82	35.8415
2128.27	36.437
2129.72	37.4264
2131.17	37.9385
2132.62	38.5666
2134.07	39.465
