#Acq. time (s)=	45
#Accumulations=	2
#Range (cm-¹)=	200...3150
#Windows=	2
#Auto scanning=	Off
#Autofocus=	Off
#Macrospot=	Off
#AutoExposure=	Off
#Spike filter=	Multiple accum.
#Delay time (s)=	0
#Binning=	1
#Readout mode=	Signal
#DeNoise=	Off
#ICS correction=	On
#Dark correction=	Off
#Inst. Process=	Off
#Detector Gain=	Best Dynamic Range
#Detector ADC=	20 kHz       
#Detector temperature (°C)=	-69.85
#Instrument=	LabRAM HR Evol
#Detector=	Synapse
#Objective=	x100
#Grating=	600 gr/mm
#ND Filter=	100%
#Laser (nm)=	532 
#Hole=	100.021
#Range=	Auto
#Laser Pol.=	No
#Raman. Pol.=	No
#Laser Pol. (°)=	-0.0007625
#Raman Pol. (°)=	89.9995
#Collection=	Microscope
#StageXY=	Marzhauser
#StageZ=	Marzhauser
#X (µm)=	-5132.3
#Y (µm)=	1509
#Z (µm)=	63.5
#Full time(mm:ss)=	3:19
#Project=	
#Sample=	
#Site=	
#Title=	Thy_50_12_30_2x_45s_532 nm_x100_100%_600 gr_mm
#Remark=	
#Date=	07.07.2022 11:26
#Acquired=	07.07.2022 11:26:53
#Base:Fit=	10.08.2022 10:04:30
#Base:Sub=	10.08.2022 10:04:45
#Filter:Polynom=	16.08.2022 10:20:25
#AxisType[0]=Intens
#AxisUnit[0]=Cnt
#AxisType[1]=Spectr
#AxisUnit[1]=1/cm
200.43	-0.62921
202.246	2.49782
204.061	3.75096
205.875	4.45496
207.688	4.38015
209.501	3.9884
211.316	4.13802
213.129	4.75547
214.941	5.71253
216.753	6.90837
218.566	6.59432
220.377	6.30994
222.188	6.52797
223.999	6.02364
225.809	5.4517
227.618	5.54629
229.43	5.92545
231.239	6.26647
233.047	6.08338
234.855	6.1318
236.663	5.60953
238.471	6.01062
240.278	6.21537
242.087	6.32925
243.894	6.51768
245.7	6.05095
247.506	5.89508
249.311	5.3215
251.116	4.98181
252.921	4.01703
254.725	3.78337
256.529	3.93407
258.333	4.98935
260.136	4.48039
261.939	4.08197
263.744	3.27267
265.546	2.98176
267.348	2.62522
269.15	2.83676
270.951	2.32616
272.752	1.67045
274.552	1.91754
276.353	3.82398
278.152	5.34571
279.952	6.12825
281.751	6.117
283.55	6.42069
285.348	7.20708
287.146	6.90809
288.942	6.97676
290.739	7.47737
292.536	8.07014
294.333	9.17253
296.129	9.70835
297.925	10.8977
299.721	12.061
301.516	13.9698
303.311	14.4927
305.106	14.9779
306.9	15.4607
308.694	14.315
310.486	14.2926
312.279	14.4203
314.072	13.5385
315.864	13.5094
317.656	14.8042
319.448	14.7487
321.24	14.839
323.029	14.9614
324.819	15.6916
326.61	14.9297
328.4	15.5119
330.19	15.0728
331.977	14.2554
333.766	14.5951
335.555	14.0394
337.343	14.2354
339.131	13.2696
340.917	12.8099
342.704	11.6393
344.491	11.9262
346.277	11.3576
348.062	10.8553
349.848	10.3603
351.633	10.4546
353.416	8.91864
355.201	8.87302
356.986	8.52194
358.77	8.36882
360.552	7.01602
362.335	7.365
364.118	7.2853
365.899	7.37865
367.682	6.68154
369.464	6.56495
371.243	6.95895
373.025	6.94463
374.806	6.77806
376.585	7.07256
378.365	7.03947
380.143	7.75147
381.923	8.4677
383.702	7.71906
385.479	7.02114
387.258	6.89489
389.034	6.79672
390.812	6.988
392.59	6.50727
394.365	6.19008
396.142	5.00002
397.916	3.55107
399.693	3.38562
401.467	3.31042
403.242	3.03902
405.015	3.48276
406.79	4.46269
408.565	3.46041
410.337	4.20847
412.111	4.40917
413.882	4.11953
415.656	2.78427
417.426	3.23566
419.197	4.21358
420.969	4.2594
422.739	4.34093
424.51	3.96816
426.279	3.1872
428.05	3.57807
429.819	3.87618
431.589	3.76447
433.356	4.98199
435.124	5.17593
436.893	5.61001
438.66	5.10782
440.428	4.24346
442.194	3.95025
443.96	3.37743
445.727	3.46516
447.492	2.58867
449.259	2.64702
451.023	4.01339
452.787	4.67632
454.553	5.88662
456.316	7.49021
458.079	8.94499
459.844	8.91062
461.606	9.73469
463.368	10.1311
465.132	11.2201
466.893	11.0739
468.654	12.5537
470.415	13.0331
472.177	12.8539
473.937	13.3171
475.696	13.7147
477.456	14.4282
479.217	14.8276
480.975	13.9025
482.733	13.6068
484.491	13.5109
486.251	14.3393
488.008	15.1912
489.765	16.6668
491.522	17.007
493.278	16.9281
495.036	17.6811
496.791	17.7019
498.546	18.6205
500.301	18.9609
502.056	19.2247
503.81	19.3411
505.566	20.067
507.319	21.0678
509.073	20.5707
510.825	21.3535
512.578	21.491
514.33	20.9382
516.082	21.6135
517.833	21.1995
519.587	20.8592
521.337	20.7417
523.088	20.0016
524.838	19.8279
526.588	19.0005
528.337	18.6235
530.087	18.7925
531.835	17.3884
533.584	18.6856
535.332	18.76
537.08	19.4466
538.827	19.1096
540.574	18.6234
542.321	17.6732
544.068	16.551
545.814	15.4852
547.56	14.3111
549.305	14.4409
551.05	13.3437
552.795	12.4222
554.54	12.6631
556.284	12.9379
558.027	11.7394
559.771	10.8085
561.514	9.70822
563.257	8.49061
564.999	7.59971
566.742	6.96517
568.481	5.75871
570.223	5.99729
571.964	6.73277
573.705	6.34711
575.445	5.87794
577.185	5.71234
578.925	4.73183
580.665	4.82387
582.402	5.43353
584.141	4.96158
585.879	5.12773
587.617	5.01961
589.355	5.07368
591.092	4.66982
592.828	4.74015
594.564	4.66482
596.301	4.38916
598.037	3.66049
599.773	3.0386
601.506	3.27465
603.242	4.46163
604.976	4.46286
606.711	4.4212
608.443	5.55393
610.177	5.56547
611.91	6.37741
613.644	6.06307
615.374	6.33509
617.107	6.40014
618.839	6.81029
620.569	7.04036
622.3	6.89116
624.032	6.16306
625.761	6.31518
627.491	6.22983
629.221	6.09159
630.949	7.23947
632.679	8.45165
634.408	8.51015
636.135	9.17552
637.863	8.94241
639.592	9.98732
641.318	10.5407
643.045	9.68516
644.77	9.16488
646.497	10.3068
648.224	10.2895
649.948	10.6407
651.674	10.9859
653.398	11.6883
655.123	12.5573
656.846	13.0395
658.57	12.2275
660.293	11.4468
662.017	12.1316
663.738	13.1474
665.462	12.9302
667.185	13.5654
668.905	13.2524
670.628	13.7763
672.348	14.2165
674.067	15.102
675.789	15.1712
677.508	14.8305
679.228	15.2992
680.947	16.343
682.667	17.0314
684.385	18.6706
686.104	21.1979
687.821	22.8411
689.538	24.4778
691.256	24.1324
692.972	24.8833
694.69	25.827
696.406	25.829
698.121	27.6521
699.837	28.3963
701.552	29.9764
703.268	30.9886
704.982	31.9143
706.695	33.0715
708.41	34.677
710.123	35.8223
711.836	37.0823
713.55	37.1972
715.262	39.0562
716.973	39.7184
718.685	39.0552
720.398	40.2012
722.108	41.3571
723.818	41.178
725.53	41.6426
727.24	41.8587
728.949	43.1028
730.658	44.7961
732.369	45.6657
734.077	45.2786
735.785	45.8185
737.493	46.7549
739.2	47.4742
740.909	47.9105
742.616	47.272
744.322	47.3805
746.028	48.0748
747.734	47.8905
749.441	48.2151
751.146	48.7459
752.851	50.6692
754.555	51.215
756.26	52.6447
757.963	52.9101
759.667	54.3209
761.372	55.4465
763.075	57.1701
764.777	59.2812
766.479	61.0745
768.181	62.4934
769.883	64.3939
771.584	64.6103
773.285	64.0937
774.986	65.2965
776.686	65.5889
778.386	67.4311
780.085	69.576
781.785	70.8685
783.484	71.9155
785.182	72.5058
786.881	73.1034
788.579	73.6533
790.276	75.4211
791.974	76.0939
793.671	76.6183
795.367	77.3745
797.064	77.7717
798.76	78.6441
800.456	79.6485
802.151	79.2418
803.846	80.0411
805.541	81.779
807.236	81.7775
808.93	81.8605
810.624	83.4567
812.317	84.1147
814.01	84.9449
815.703	84.7946
817.394	85.2579
819.086	85.0025
820.778	85.0569
822.47	84.1424
824.161	83.9829
825.852	83.0468
827.543	81.9627
829.231	80.2706
830.921	80.1516
832.611	79.2768
834.3	78.4777
835.989	78.2563
837.676	76.9134
839.364	75.6386
841.053	73.4562
842.74	70.9773
844.426	69.0743
846.113	68.1402
847.8	67.0743
849.486	66.7194
851.171	64.5551
852.857	63.0261
854.542	61.6259
856.227	60.4203
857.911	59.6536
859.595	58.3507
861.279	55.755
862.961	53.6669
864.645	52.1488
866.329	50.9367
868.01	49.5857
869.692	49.4324
871.375	49.34
873.055	49.2584
874.737	49.3586
876.418	47.5116
878.097	47.7621
879.778	47.8286
881.457	47.8059
883.137	47.8662
884.817	47.7596
886.495	47.9218
888.174	47.937
889.851	48.7178
891.53	48.8534
893.206	48.6501
894.884	48.4672
896.562	48.1447
898.237	49.0716
899.914	48.37
901.589	48.4247
903.265	47.1554
904.94	46.9479
906.615	45.8545
908.289	46.2914
909.964	45.518
911.637	44.3016
913.31	43.527
914.984	43.7109
916.656	41.9944
918.33	40.7008
920.001	40.4833
921.674	39.079
923.345	38.7293
925.015	37.2226
926.687	37.1532
928.357	37.1185
930.028	37.246
931.698	37.653
933.366	36.9397
935.037	35.3898
936.705	35.55
938.373	35.2289
940.043	34.3515
941.71	32.8145
943.379	30.8675
945.046	29.9286
946.712	30.0227
948.378	30.7764
950.046	30.4402
951.711	29.4655
953.376	29.593
955.043	28.9578
956.708	28.6567
958.372	27.7053
960.036	26.7081
961.701	27.1591
963.364	27.2149
965.027	27.3195
966.69	27.6458
968.354	27.8272
970.016	28.2183
971.678	28.7163
973.339	30.5161
975	30.1263
976.661	29.8193
978.324	30.2152
979.984	30.2905
981.644	30.3799
983.303	29.9966
984.962	29.4888
986.621	29.0988
988.282	29.4813
989.94	29.8957
991.598	30.0805
993.256	29.1822
994.913	28.7411
996.57	29.7793
998.227	29.9819
999.884	30.3564
1001.54	31.0978
1003.2	31.3551
1004.85	31.6838
1006.51	31.5435
1008.16	32.4665
1009.82	32.8643
1011.47	33.5668
1013.12	33.7044
1014.78	35.1007
1016.43	35.1266
1018.08	35.3097
1019.74	36.097
1021.39	35.3442
1023.04	34.8723
1024.69	34.7467
1026.34	35.2887
1028	35.4029
1029.65	35.7515
1031.3	35.1481
1032.95	34.5564
1034.6	34.7045
1036.25	34.1943
1037.9	34.3563
1039.55	33.6815
1041.19	33.2177
1042.84	33.7674
1044.49	33.8342
1046.14	33.848
1047.79	33.3135
1049.43	32.7478
1051.08	31.9876
1052.73	31.8631
1054.37	31.6245
1056.02	30.8132
1057.66	28.5966
1059.31	28.0006
1060.95	27.2919
1062.6	25.6217
1064.24	24.6551
1065.88	24.2249
1067.53	23.5397
1069.17	23.3774
1070.81	23.1264
1072.46	21.736
1074.1	21.1692
1075.74	21.039
1077.38	22.1583
1079.02	21.9678
1080.66	21.7931
1082.3	20.9296
1083.94	20.5304
1085.58	19.6877
1087.22	20.5987
1088.86	21.2369
1090.5	22.6796
1092.14	22.837
1093.78	23.091
1095.42	23.9796
1097.05	24.9967
1098.69	25.9859
1100.33	26.9359
1101.97	28.1327
1103.6	28.3168
1105.24	29.9462
1106.87	30.297
1108.51	30.312
1110.15	29.7626
1111.78	29.7278
1113.41	29.5867
1115.05	29.2579
1116.68	28.1702
1118.31	26.958
1119.95	27.355
1121.58	25.8906
1123.21	26.0569
1124.85	25.5995
1126.48	24.1839
1128.11	22.7065
1129.74	20.5246
1131.37	20.1347
1133	19.0503
1134.63	17.5328
1136.26	16.9771
1137.89	16.5699
1139.52	15.9765
1141.15	15.1075
1142.78	13.5477
1144.41	12.7976
1146.04	13.0706
1147.66	13.0998
1149.29	12.0338
1150.92	11.2519
1152.55	10.1881
1154.17	9.13948
1155.8	8.11139
1157.43	6.98194
1159.05	6.56713
1160.68	5.52415
1162.3	5.35817
1163.93	5.00663
1165.55	6.21266
1167.17	6.48062
1168.8	7.37754
1170.42	8.07901
1172.05	9.2441
1173.67	9.56879
1175.29	9.63645
1176.91	10.7017
1178.54	10.7538
1180.16	11.5969
1181.78	12.4169
1183.4	12.1661
1185.02	11.3196
1186.64	10.8038
1188.26	10.5877
1189.88	11.5361
1191.5	11.2635
1193.12	10.5913
1194.74	10.4772
1196.36	10.0326
1197.97	9.71005
1199.59	10.251
1201.21	10.6356
1202.83	10.6743
1204.44	11.5727
1206.06	12.0288
1207.68	11.614
1209.29	11.5278
1210.91	13.3713
1212.52	15.6261
1214.14	16.0154
1215.75	17.3702
1217.37	20.2234
1218.98	21.6227
1220.6	21.4656
1222.21	22.8114
1223.82	24.6689
1225.44	27.0335
1227.05	27.7549
1228.66	28.9371
1230.27	30.0343
1231.88	31.3179
1233.49	33.0677
1235.1	34.9159
1236.72	36.8292
1238.33	39.5137
1239.94	41.4566
1241.55	43.3649
1243.16	45.013
1244.76	47.4257
1246.37	49.7561
1247.98	52.4047
1249.59	54.7452
1251.2	56.8196
1252.8	58.7584
1254.41	60.2131
1256.02	61.8587
1257.63	63.6626
1259.23	66.2215
1260.84	67.1037
1262.44	68.6627
1264.05	69.8919
1265.66	70.9813
1267.26	72.6864
1268.87	75.7645
1270.47	77.0676
1272.07	77.9266
1273.68	79.4974
1275.28	80.7509
1276.88	82.0263
1278.48	83.0719
1280.09	84.3255
1281.69	86.5609
1283.29	88.5508
1284.89	89.5802
1286.49	90.6841
1288.09	90.3591
1289.69	90.7481
1291.3	91.5505
1292.9	90.8831
1294.49	89.7669
1296.09	90.0999
1297.69	89.3785
1299.29	88.6972
1300.89	87.9757
1302.49	89.0108
1304.09	88.4504
1305.68	87.8179
1307.28	86.8001
1308.88	87.2372
1310.47	86.3104
1312.07	85.8404
1313.66	85.3886
1315.26	83.3946
1316.86	82.6857
1318.45	82.0211
1320.05	81.5956
1321.64	81.4366
1323.23	80.8737
1324.83	81.0438
1326.42	80.3806
1328.01	79.5424
1329.61	78.074
1331.2	77.5391
1332.79	76.8821
1334.38	76.5548
1335.98	74.9849
1337.57	74.155
1339.16	73.8297
1340.75	71.4237
1342.34	70.7019
1343.93	69.2735
1345.52	67.9417
1347.11	67.2939
1348.7	66.2216
1350.29	64.2071
1351.87	62.703
1353.46	62.0357
1355.05	60.3735
1356.64	60.1687
1358.23	58.417
1359.81	58.1519
1361.4	58.0445
1362.99	55.8261
1364.57	54.4053
1366.16	52.7014
1367.74	50.6645
1369.33	50.74
1370.91	49.9435
1372.5	49.4489
1374.08	50.3134
1375.67	49.9964
1377.25	50.2218
1378.83	51.7313
1380.42	52.2353
1382	52.6941
1383.58	52.6532
1385.16	52.7095
1386.75	53.2964
1388.33	53.1765
1389.91	51.882
1391.49	52.6359
1393.07	52.3045
1394.65	52.1374
1396.23	53.5276
1397.81	54.3228
1399.39	54.4688
1400.97	54.3679
1402.55	54.7934
1404.13	55.9754
1405.7	56.4151
1407.28	56.6897
1408.86	57.1091
1410.44	57.613
1412.01	58.4044
1413.59	59.3399
1415.17	59.1927
1416.74	60.5843
1418.32	61.337
1419.89	61.6024
1421.47	63.6003
1423.05	65.3294
1424.62	67.4186
1426.19	69.0523
1427.77	70.9535
1429.34	72.7401
1430.92	74.2652
1432.49	77.0034
1434.06	79.1176
1435.63	82.1627
1437.2	83.8194
1438.78	86.8334
1440.35	89.1974
1441.92	90.271
1443.49	92.2176
1445.06	93.2167
1446.63	94.865
1448.2	96.527
1449.77	97.4388
1451.34	98.869
1452.91	99.3517
1454.48	98.81
1456.05	98.9499
1457.62	97.5235
1459.18	96.2156
1460.75	94.5623
1462.32	92.9381
1463.89	90.4096
1465.45	87.9866
1467.02	84.9831
1468.59	82.5466
1470.15	80.6235
1471.72	77.0626
1473.28	74.4214
1474.85	71.7633
1476.41	68.9801
1477.98	64.9688
1479.54	61.7562
1481.11	58.3463
1482.67	54.9448
1484.23	51.4716
1485.8	47.9923
1487.36	44.7082
1488.92	42.0997
1490.48	40.4636
1492.05	38.0271
1493.61	35.5198
1495.17	33.6505
1496.73	31.6177
1498.29	30.5877
1499.85	29.8486
1501.41	29.0563
1502.97	28.1436
1504.53	27.5837
1506.09	27.1365
1507.65	27.7185
1509.2	27.3215
1510.76	27.8613
1512.32	28.518
1513.88	28.2264
1515.44	28.7902
1516.99	29.8066
1518.55	29.9508
1520.1	29.5029
1521.66	30.7825
1523.22	32.0125
1524.77	33.2681
1526.33	35.3748
1527.88	36.3426
1529.44	37.036
1530.99	38.8053
1532.55	40.2338
1534.1	41.751
1535.65	43.9816
1537.21	47.4063
1538.76	49.2582
1540.31	52.087
1541.86	53.7648
1543.42	56.5633
1544.97	59.0372
1546.52	61.1029
1548.07	64.5641
1549.62	66.4428
1551.17	69.2963
1552.72	71.5887
1554.27	74.0796
1555.82	75.278
1557.37	77.3783
1558.92	79.3001
1560.47	81.9814
1562.02	83.7845
1563.57	85.8565
1565.11	87.7849
1566.66	89.4987
1568.21	90.9893
1569.75	92.5062
1571.3	94.8992
1572.85	97.2822
1574.39	98.6518
1575.94	100.18
1577.49	101.11
1579.03	102.468
1580.58	102.963
1582.12	103.646
1583.67	104.714
1585.21	104.861
1586.75	103.484
1588.3	103.292
1589.84	103.407
1591.38	102.611
1592.93	103.431
1594.47	102.5
1596.01	101.333
1597.55	100.412
1599.09	100.221
1600.63	98.8721
1602.18	97.2751
1603.72	96.9498
1605.26	94.4667
1606.8	93.9622
1608.34	93.1664
1609.87	92.3292
1611.41	91.6049
1612.95	90.6709
1614.49	90.0333
1616.03	88.9642
1617.57	88.2355
1619.11	87.5857
1620.64	87.3695
1622.18	87.5397
1623.72	87.2325
1625.25	87.6368
1626.79	87.1842
1628.32	88.1024
1629.86	88.0141
1631.4	87.8633
1632.93	88.0747
1634.47	89.627
1636	91.6716
1637.53	92.2794
1639.07	93.0493
1640.6	94.4247
1642.14	94.5485
1643.67	95.2727
1645.2	96.1326
1646.73	97.8547
1648.27	97.7376
1649.8	97.2081
1651.33	97.3241
1652.86	97.8308
1654.39	98.2238
1655.92	98.321
1657.45	97.6917
1658.98	97.5344
1660.51	97.6216
1662.04	95.9604
1663.57	94.5323
1665.1	93.3115
1666.63	92.0117
1668.16	89.8114
1669.69	87.7067
1671.21	84.6532
1672.74	82.0681
1674.27	79.8251
1675.79	77.6492
1677.32	74.3907
1678.85	71.7419
1680.37	69.4428
1681.9	65.5784
1683.42	62.6157
1684.95	60.5633
1686.47	58.5202
1688	55.109
1689.52	52.5963
1691.05	50.1429
1692.57	47.753
1694.1	44.6359
1695.62	42.724
1697.14	39.9083
1698.66	37.7405
1700.19	34.6865
1701.71	33.2504
1703.23	32.0734
1704.75	30.1656
1706.27	28.5416
1707.79	27.3387
1709.32	27.001
1710.83	26.7318
1712.35	25.1727
1713.88	22.9398
1715.39	21.6655
1716.91	21.0524
1718.43	19.9285
1719.95	18.8624
1721.47	17.9269
1722.99	17.5307
1724.5	15.5227
1726.02	15.1782
1727.54	15.1148
1729.06	14.3442
1730.57	13.4154
1732.09	12.3797
1733.61	11.8995
1735.12	11.2214
1736.64	10.359
1738.15	8.80095
1739.67	7.38406
1741.18	6.13646
1742.7	4.30556
1744.21	4.09171
1745.72	4.26142
1747.24	4.49104
1748.75	4.72869
1750.26	4.76686
1751.78	4.61926
1753.29	4.83582
1754.8	5.488
1756.31	5.78097
1757.82	6.15771
1759.34	6.25193
1760.85	6.86467
1762.36	6.38528
1763.87	5.79137
1765.38	6.04038
1766.89	6.01852
1768.4	5.75093
1769.91	5.52913
1771.41	6.0287
1772.92	5.81812
1774.43	5.88483
1775.94	6.6722
1777.45	7.9616
1778.96	8.80223
1780.46	8.88682
1781.97	9.27182
1783.48	9.07161
1784.98	9.59531
1786.49	9.36415
1788	8.86507
1789.5	8.31037
1791.01	8.28074
1792.51	8.77946
1794.01	7.98306
1795.52	7.36808
1797.02	7.30107
1798.53	6.93128
1800.03	5.7779
1801.54	5.45644
1803.04	5.37117
1804.54	5.1347
1806.04	4.73898
1807.54	4.75247
1809.05	3.83559
1810.55	3.01501
1812.05	2.93329
1813.55	2.58529
1815.05	2.32935
1816.55	2.76656
1818.05	2.72533
1819.55	3.14165
1821.05	3.06207
1822.55	2.79896
1824.05	2.69099
1825.55	2.7048
1827.05	3.18996
1828.55	3.54956
1830.04	3.00681
1831.54	3.29051
1833.04	3.14337
1834.54	3.14223
1836.03	3.15638
1837.53	3.1559
1839.03	3.3659
1840.52	3.45972
1842.02	3.72454
1843.51	4.06605
1845.01	4.26528
1846.5	4.41496
1848	4.74561
1849.49	5.4891
1850.99	5.92142
1852.48	5.84262
1853.97	5.65829
1855.47	5.29898
1856.96	5.09681
1858.45	4.45376
1859.94	4.67023
1861.44	4.10712
1862.93	4.50305
1864.42	4.5443
1865.91	4.78703
1867.4	4.33596
1868.89	4.14005
1870.38	3.5894
1871.87	3.62281
1873.36	3.73999
1874.85	3.87971
1876.34	4.39045
1877.83	5.1367
1879.32	5.64807
1880.81	5.1275
1882.3	4.96515
1882.56	4.70435
1884.06	4.70716
1885.55	4.25405
1887.04	4.14839
1888.54	4.30543
1890.03	4.28811
1891.52	4.09757
1893.02	4.43926
1894.51	4.94543
1896	4.90319
1897.49	5.37805
1898.99	5.87299
1900.48	6.43377
1901.97	6.70989
1903.46	6.422
1904.95	6.81433
1906.44	6.59474
1907.93	6.12285
1909.42	4.91628
1910.91	5.61887
1912.4	5.57998
1913.89	5.84152
1915.38	6.25107
1916.86	6.44981
1918.35	6.06444
1919.84	6.65195
1921.33	7.05819
1922.82	6.59839
1924.3	5.70234
1925.79	5.69501
1927.28	5.41908
1928.76	4.56768
1930.25	4.40664
1931.74	4.21093
1933.22	4.30825
1934.71	4.3422
1936.19	4.7201
1937.67	4.12501
1939.16	3.61206
1940.64	3.24921
1942.13	3.76998
1943.61	3.8102
1945.09	4.05145
1946.58	4.26505
1948.06	3.54693
1949.54	2.9958
1951.03	2.66615
1952.51	2.38822
1953.99	1.63146
1955.47	1.94751
1956.95	1.52477
1958.43	1.09859
1959.91	0.599073
1961.39	0.974486
1962.87	1.48854
1964.35	1.47824
1965.83	2.17962
1967.31	2.85433
1968.79	2.90774
1970.27	3.67768
1971.75	4.09287
1973.22	4.21138
1974.7	4.23358
1976.18	4.17968
1977.66	3.7907
1979.13	3.88943
1980.61	4.00406
1982.09	3.88176
1983.56	4.38381
1985.04	4.9425
1986.52	4.37585
1987.99	5.46893
1989.47	5.55956
1990.94	5.72858
1992.41	5.71681
1993.89	5.95708
1995.36	5.97071
1996.84	5.9871
1998.31	6.1599
1999.78	6.29688
2001.26	5.84259
2002.73	5.51452
2004.2	6.76324
2005.67	6.55345
2007.15	6.49404
2008.62	6.74459
2010.09	6.24146
2011.56	6.08964
2013.03	6.36186
2014.5	6.53873
2015.97	6.70572
2017.44	6.18434
2018.91	5.80671
2020.38	5.58694
2021.85	5.27772
2023.32	5.69011
2024.79	5.26608
2026.25	5.64274
2027.72	5.39273
2029.19	5.83569
2030.66	5.74338
2032.13	6.04923
2033.59	6.10125
2035.06	7.50169
2036.53	8.37008
2037.99	8.64075
2039.46	9.30883
2040.92	9.78593
2042.39	9.80514
2043.85	11.0758
2045.32	11.522
2046.78	12.2207
2048.25	12.641
2049.71	13.4085
2051.18	14.106
2052.64	14.4762
2054.1	15.3288
2055.56	15.1064
2057.03	15.5725
2058.49	16.6601
2059.95	17.8236
2061.42	18.9737
2062.88	19.3216
2064.34	20.2058
2065.8	20.3073
2067.26	20.8873
2068.72	21.7891
2070.18	22.3759
2071.64	23.3237
2073.1	24.1229
2074.56	25.235
2076.02	25.4959
2077.48	26.9013
2078.94	26.9635
2080.39	27.5404
2081.85	28.6702
2083.31	29.4329
2084.77	30.8751
2086.22	32.1869
2087.68	32.5468
2089.14	33.0856
2090.6	33.5268
2092.05	34.7884
2093.51	35.7134
2094.96	36.5106
2096.42	37.5379
2097.87	38.2454
2099.33	40.2342
2100.78	40.7634
2102.24	41.8664
2103.69	42.9132
2105.15	44.755
2106.6	46.303
2108.05	48.3156
2109.51	49.6435
2110.96	51.6999
2112.41	53.8149
2113.86	56.6194
2115.32	58.8177
2116.77	61.4424
2118.22	62.9754
2119.67	64.5744
2121.12	66.8717
2122.57	69.2142
2124.02	70.9606
2125.47	72.6036
2126.92	75.0024
2128.37	77.713
2129.82	81.0768
2131.27	84.3327
2132.72	86.5262
2134.17	89.5359
2135.62	92.0826
2137.06	95.2983
