#Acq. time (s)=	45
#Accumulations=	2
#Range (cm-¹)=	200...3150
#Windows=	2
#Auto scanning=	Off
#Autofocus=	Off
#Macrospot=	Off
#AutoExposure=	Off
#Spike filter=	Multiple accum.
#Delay time (s)=	0
#Binning=	1
#Readout mode=	Signal
#DeNoise=	Off
#ICS correction=	On
#Dark correction=	Off
#Inst. Process=	Off
#Detector Gain=	Best Dynamic Range
#Detector ADC=	20 kHz       
#Detector temperature (°C)=	-69.85
#Instrument=	LabRAM HR Evol
#Detector=	Synapse
#Objective=	x100
#Grating=	600 gr/mm
#ND Filter=	100%
#Laser (nm)=	532 
#Hole=	100.021
#Range=	Auto
#Laser Pol.=	No
#Raman. Pol.=	No
#Laser Pol. (°)=	-0.0007625
#Raman Pol. (°)=	89.9995
#Collection=	Microscope
#StageXY=	Marzhauser
#StageZ=	Marzhauser
#X (µm)=	4724.5
#Y (µm)=	-7717.6
#Z (µm)=	584.8
#Full time(mm:ss)=	3:18
#Project=	
#Sample=	
#Site=	
#Title=	Thy_30_10_38_2x_45s_532 nm_x100_100%_600 gr_mm
#Remark=	
#Date=	30.06.2022 14:10
#Acquired=	30.06.2022 14:10:12
#Base:Fit=	10.08.2022 09:58:11
#Base:Sub=	10.08.2022 09:58:44
#Filter:Polynom=	16.08.2022 10:22:53
#AxisType[0]=Intens
#AxisUnit[0]=Cnt
#AxisType[1]=Spectr
#AxisUnit[1]=1/cm
200.533	8.36724
202.348	6.85647
204.162	5.96172
205.976	4.75977
207.792	4.30975
209.605	4.07445
211.418	4.22795
213.23	4.36394
215.044	5.59188
216.856	5.53509
218.667	5.01597
220.478	4.887
222.289	5.23776
224.102	4.82988
225.912	5.13731
227.721	5.42111
229.531	4.74043
231.34	4.56916
233.148	4.43883
234.956	3.84392
236.766	4.19659
238.574	3.91629
240.381	3.9039
242.188	4.5034
243.994	4.28565
245.801	4.13561
247.606	4.20162
249.412	4.60082
251.217	4.56248
253.024	5.09318
254.828	5.01079
256.632	4.57526
258.436	4.30422
260.239	4.29401
262.042	3.44329
263.845	3.28529
265.647	3.67889
267.449	3.89896
269.25	3.93694
271.052	3.62568
272.852	3.4383
274.653	3.54993
276.453	3.05823
278.253	2.70794
280.052	3.07333
281.852	2.81535
283.65	2.89162
285.449	3.11291
287.247	3.03538
289.044	2.97748
290.842	3.04411
292.639	3.32219
294.436	3.18065
296.232	4.32189
298.028	4.34239
299.821	4.46144
301.617	4.76036
303.412	4.84679
305.206	5.10524
307	4.69182
308.794	4.75988
310.588	5.03218
312.381	5.36142
314.172	5.21969
315.964	5.36053
317.756	5.25768
319.548	5.74065
321.34	5.69959
323.131	5.4178
324.921	4.98759
326.71	5.49647
328.5	5.2858
330.29	5.78639
332.079	6.4804
333.868	6.37555
335.654	6.18241
337.443	5.54055
339.231	5.13925
341.018	4.88226
342.804	5.23283
344.591	5.23721
346.377	5.34815
348.163	5.56342
349.947	6.56842
351.733	6.8222
353.518	7.43941
355.303	7.98669
357.085	7.03384
358.869	7.00054
360.653	7.49983
362.435	7.95627
364.218	7.90854
366.001	7.4035
367.781	7.33401
369.563	7.36514
371.345	6.71875
373.124	6.54634
374.905	6.13065
376.686	5.19756
378.464	4.95242
380.244	5.58626
382.022	5.46856
383.801	5.85527
385.58	6.17342
387.357	5.57459
389.135	4.82277
390.911	5.46514
392.689	5.31659
394.466	5.64728
396.241	5.20986
398.018	4.51997
399.792	4.37541
401.568	4.56518
403.341	4.54159
405.117	5.14072
406.889	5.05713
408.664	4.83971
410.436	3.10034
412.21	3.35034
413.981	3.06239
415.755	3.21098
417.525	3.39928
419.298	3.62548
421.068	3.45379
422.84	2.10914
424.609	1.64144
426.38	1.73345
428.149	2.05075
429.919	2.46608
431.688	2.34053
433.455	2.55505
435.225	2.63328
436.992	2.82867
438.76	3.01057
440.527	2.66536
442.293	2.28471
444.06	2.35359
445.826	2.39287
447.593	3.45975
449.357	3.9428
451.122	3.63429
452.888	3.31123
454.651	2.93676
456.415	3.22015
458.18	4.16719
459.942	4.52321
461.705	4.20129
463.469	4.09058
465.23	4.59307
466.991	5.99861
468.752	6.78096
470.515	7.02446
472.275	7.77527
474.035	8.08146
475.797	8.24205
477.556	8.47633
479.315	9.8529
481.073	11.0691
482.834	11.4426
484.592	10.8557
486.349	11.4205
488.106	12.3162
489.863	12.3859
491.622	12.694
493.378	12.3875
495.134	11.7789
496.889	12.5076
498.645	12.6833
500.401	13.197
502.156	12.2241
503.91	12.8678
505.664	13.3207
507.417	12.6677
509.171	11.9635
510.923	11.5348
512.678	12.107
514.43	11.3493
516.182	11.1445
517.933	11.0533
519.684	10.4454
521.435	10.2001
523.186	9.44513
524.936	8.88718
526.686	8.84097
528.435	8.05491
530.184	7.19585
531.933	7.33441
533.682	7.07941
535.43	7.32872
537.18	6.49483
538.927	5.33399
540.674	5.32952
542.421	5.13349
544.167	5.25087
545.913	5.85758
547.659	5.38058
549.403	4.85193
551.148	5.29783
552.893	5.41822
554.637	5.95713
556.381	5.68976
558.125	5.58475
559.868	5.72009
561.611	5.11846
563.354	4.56314
565.097	4.66869
566.839	4.6908
568.581	3.80955
570.322	2.64468
572.063	2.63541
573.802	3.04059
575.542	3.87004
577.283	3.39604
579.022	3.40925
580.762	3.21344
582.501	3.81682
584.24	3.91576
585.976	3.36414
587.714	2.82332
589.452	1.79052
591.19	3.0654
592.927	3.29909
594.663	2.4744
596.398	2.37327
598.134	2.19586
599.87	2.27688
601.605	2.36741
603.338	2.52075
605.073	1.63382
606.808	1.08836
608.542	1.25452
610.274	1.11887
612.007	1.18771
613.74	1.25348
615.473	1.08463
617.204	1.22515
618.936	2.07179
620.668	2.25525
622.397	2.9096
624.128	2.75352
625.859	3.07189
627.588	4.1339
629.318	4.36485
631.048	4.87691
632.775	6.05712
634.505	6.3034
636.233	6.656
637.96	7.10418
639.688	7.90566
641.416	8.84898
643.142	8.48745
644.869	8.50937
646.594	8.83834
648.32	8.67842
650.045	9.1395
651.771	10.0042
653.496	10.4062
655.219	10.4415
656.944	11.2938
658.667	11.7223
660.391	12.224
662.113	12.4411
663.837	12.5251
665.558	12.3336
667.281	12.7364
669.002	12.986
670.724	13.117
672.444	13.4077
674.166	13.534
675.885	13.8283
677.606	14.7344
679.325	14.6806
681.045	14.4556
682.763	15.0614
684.483	15.8103
686.2	16.2081
687.917	16.897
689.636	17.1327
691.352	17.4619
693.07	18.272
694.786	18.9559
696.501	19.7621
698.219	20.7299
699.933	22.0492
701.65	22.5172
703.364	22.7881
705.078	23.1891
706.793	24.3382
708.506	25.4487
710.219	26.3329
711.934	27.3247
713.646	27.7299
715.358	29.0457
717.071	30.0504
718.782	31.1064
720.493	32.0029
722.204	33.9229
723.916	34.8182
725.626	35.9099
727.336	36.4087
729.045	37.2752
730.756	38.5336
732.464	39.7888
734.173	41.2831
735.881	42.6062
737.59	43.3169
739.297	43.5164
741.004	44.6139
742.711	45.1822
744.417	45.8186
746.125	46.7139
747.831	46.8832
749.537	47.8866
751.242	47.8394
752.946	49.038
754.651	50.1088
756.357	51.5151
758.061	52.3998
759.764	53.8987
761.467	55.2136
763.17	56.1948
764.872	57.2754
766.575	58.3631
768.276	59.5268
769.978	60.3013
771.679	61.1864
773.382	61.5285
775.083	61.7229
776.783	62.4498
778.483	63.0366
780.182	63.3858
781.882	64.7419
783.581	64.9609
785.279	65.2341
786.978	65.5051
788.676	65.4079
790.373	66.275
792.071	67.2559
793.768	68.154
795.464	69.0542
797.161	70.3426
798.857	71.5848
800.552	73.2321
802.248	73.7909
803.941	74.6933
805.636	76.4113
807.33	77.6536
809.024	77.5499
810.718	78.4675
812.412	78.4076
814.105	78.6554
815.798	78.3103
817.49	78.5204
819.183	78.6818
820.873	77.9098
822.564	76.7889
824.256	76.26
825.947	75.7616
827.637	74.0819
829.328	74.5502
831.016	74.3336
832.705	74.3771
834.395	74.2982
836.084	73.2373
837.772	72.5304
839.459	72.2206
841.147	71.2523
842.835	70.4603
844.522	69.9983
846.209	68.5567
847.894	67.0778
849.581	65.4115
851.267	64.4536
852.953	62.8735
854.637	61.3319
856.322	59.2452
858.007	58.022
859.689	57.4439
861.374	57.3664
863.058	56.2359
864.739	55.1142
866.423	54.7441
868.106	53.3781
869.787	52.7314
871.469	51.793
873.151	50.5229
874.831	51.9664
876.512	52.2432
878.193	52.6949
879.872	52.2828
881.553	51.953
883.231	51.6773
884.911	51.4513
886.591	51.1408
888.268	50.7622
889.947	50.7805
891.623	50.7444
893.302	49.5069
894.978	48.8988
896.656	47.9774
898.331	47.4245
900.008	46.7464
901.683	46.61
903.359	45.8694
905.033	44.3874
906.709	44.3412
908.383	43.8013
910.058	43.9763
911.731	44.5339
913.405	45.2129
915.078	43.9644
916.752	43.6561
918.423	42.0512
920.096	41.8037
921.768	42.2241
923.438	42.8732
925.111	42.248
926.781	41.5072
928.452	42.0419
930.122	41.5696
931.791	41.5729
933.462	40.6976
935.13	40.9699
936.799	41.0289
938.468	41.1353
940.136	40.8325
941.803	41.8924
943.472	41.703
945.139	41.668
946.805	41.3253
948.473	40.8795
950.139	40.1905
951.804	40.4923
953.471	40.0913
955.136	40.0377
956.801	39.7623
958.465	40.0042
960.131	39.135
961.794	38.7703
963.458	39.2005
965.12	38.7193
966.785	38.5693
968.447	38.1229
970.109	37.1467
971.771	36.9533
973.432	36.5865
975.095	36.5312
976.756	35.7019
978.417	35.8271
980.077	35.1935
981.737	34.5602
983.396	34.689
985.057	34.7776
986.716	33.3148
988.375	33.2617
990.033	33.4901
991.691	32.9278
993.349	34.145
995.006	33.586
996.663	32.6292
998.32	31.3884
999.976	30.7057
1001.63	30.5006
1003.29	31.0825
1004.95	29.9608
1006.6	29.657
1008.26	29.0814
1009.91	29.276
1011.56	29.301
1013.22	28.2854
1014.87	27.8145
1016.53	27.4402
1018.18	27.2094
1019.83	27.2408
1021.48	26.6976
1023.14	26.3111
1024.79	25.9714
1026.44	25.2462
1028.09	24.2276
1029.74	23.9432
1031.39	23.1216
1033.04	22.7158
1034.69	22.7123
1036.34	21.8456
1037.99	20.9545
1039.64	20.192
1041.29	20.031
1042.94	20.0603
1044.58	19.5321
1046.23	19.7274
1047.88	19.0025
1049.52	18.8184
1051.17	18.643
1052.82	18.8412
1054.46	19.8427
1056.11	20.5347
1057.75	20.1024
1059.4	19.7483
1061.04	19.9228
1062.69	19.554
1064.33	19.2809
1065.98	19.1224
1067.62	18.2587
1069.26	18.0106
1070.9	18.6845
1072.55	19.1576
1074.19	19.1929
1075.83	19.2939
1077.47	18.2431
1079.11	18.2886
1080.76	18.23
1082.4	19.3626
1084.04	20.2939
1085.68	20.216
1087.32	20.3331
1088.95	20.9363
1090.59	20.5311
1092.23	20.2143
1093.87	19.9623
1095.51	20.4085
1097.15	20.5157
1098.78	20.4375
1100.42	20.444
1102.06	21.3534
1103.69	21.1074
1105.33	21.1099
1106.97	20.6839
1108.6	20.6983
1110.24	20.2734
1111.87	19.8472
1113.51	18.9712
1115.14	18.4725
1116.77	18.09
1118.41	17.7342
1120.04	17.0475
1121.67	16.9595
1123.31	17.115
1124.94	17.5415
1126.57	17.5168
1128.2	18.0874
1129.83	18.1106
1131.47	18.9581
1133.1	18.7677
1134.72	18.8873
1136.36	18.4586
1137.98	17.9136
1139.62	15.9237
1141.24	15.9198
1142.87	16.1018
1144.5	14.662
1146.13	13.8999
1147.76	13.726
1149.38	13.8003
1151.01	14.7976
1152.64	14.6762
1154.27	15.2277
1155.89	14.187
1157.52	13.6623
1159.14	13.3888
1160.77	13.6151
1162.39	13.3157
1164.02	12.5774
1165.64	11.7438
1167.27	11.1203
1168.89	10.6462
1170.51	9.7418
1172.14	9.45877
1173.76	8.81127
1175.38	8.94801
1177	8.05299
1178.63	7.93755
1180.25	7.42589
1181.87	7.89905
1183.49	7.65567
1185.11	7.06406
1186.73	6.56873
1188.35	6.1579
1189.97	6.92302
1191.59	6.99701
1193.21	7.42946
1194.83	7.58473
1196.45	8.1761
1198.07	8.78435
1199.68	9.53587
1201.3	10.9421
1202.92	11.9653
1204.53	13.721
1206.15	14.9485
1207.77	15.9146
1209.38	16.7261
1211	18.0291
1212.62	18.6405
1214.23	19.0379
1215.84	20.9754
1217.46	21.5462
1219.07	22.8545
1220.69	23.0582
1222.3	24.7256
1223.91	25.5071
1225.53	26.4951
1227.14	28.8503
1228.75	30.4916
1230.36	31.2965
1231.97	31.9904
1233.59	31.4974
1235.2	32.0134
1236.81	31.8647
1238.42	32.7706
1240.03	33.3531
1241.64	34.7216
1243.25	34.7133
1244.85	35.1187
1246.46	35.7514
1248.07	36.5354
1249.68	37.1681
1251.29	37.4439
1252.9	38.1654
1254.5	38.6738
1256.11	39.9383
1257.72	39.7313
1259.32	40.2927
1260.93	40.6154
1262.54	41.4817
1264.14	42.1118
1265.75	42.5243
1267.35	42.2149
1268.96	42.5129
1270.56	43.394
1272.16	43.0143
1273.77	43.1091
1275.37	42.7697
1276.97	43.5536
1278.57	44.0526
1280.18	44.5343
1281.78	45.5387
1283.38	45.1338
1284.98	45.7829
1286.58	46.2893
1288.18	46.6257
1289.78	46.8106
1291.38	48.216
1292.99	48.3649
1294.58	48.8199
1296.18	48.676
1297.78	48.2553
1299.38	48.5978
1300.98	48.2686
1302.58	48.8735
1304.17	49.4345
1305.77	49.9613
1307.37	49.6592
1308.97	49.1803
1310.56	49.0961
1312.16	49.4309
1313.76	49.308
1315.35	49.059
1316.95	49.2592
1318.54	49.1532
1320.14	49.2469
1321.73	49.6708
1323.32	49.1246
1324.92	49.4437
1326.51	49.6414
1328.1	50.0466
1329.7	49.6831
1331.29	49.0984
1332.88	48.9247
1334.47	48.3369
1336.07	47.5877
1337.66	46.5205
1339.25	46.4405
1340.84	46.5023
1342.43	45.8367
1344.02	44.4206
1345.61	43.6293
1347.2	43.2762
1348.79	42.4574
1350.37	41.9225
1351.96	41.2165
1353.55	41.0086
1355.14	40.6398
1356.73	40.6242
1358.31	40.0281
1359.9	39.5715
1361.49	38.6721
1363.07	37.5926
1364.66	38.5773
1366.25	38.2006
1367.83	37.4864
1369.42	36.7087
1371	36.7696
1372.59	35.6668
1374.17	35.044
1375.75	34.5839
1377.34	33.5425
1378.92	33.1208
1380.5	32.1627
1382.09	31.8908
1383.67	30.9643
1385.25	30.4284
1386.83	30.1986
1388.42	29.7125
1390	28.048
1391.58	27.0698
1393.16	26.1198
1394.74	25.1827
1396.32	25.1059
1397.9	24.619
1399.48	24.0338
1401.06	23.4128
1402.64	23.6177
1404.21	23.0696
1405.79	22.4731
1407.37	22.4274
1408.95	22.3362
1410.53	23.0788
1412.1	23.7781
1413.68	23.8131
1415.26	24.7599
1416.83	24.9021
1418.41	25.6047
1419.98	26.1679
1421.56	27.1979
1423.13	28.6301
1424.71	30.1142
1426.28	30.8636
1427.86	31.3251
1429.43	33.8563
1431	35.7646
1432.58	37.5601
1434.15	39.1571
1435.72	40.2289
1437.29	41.7473
1438.87	42.823
1440.44	44.3262
1442.01	45.4841
1443.58	46.8895
1445.15	46.999
1446.72	47.8492
1448.29	48.9769
1449.86	49.5905
1451.43	49.6145
1453	49.353
1454.57	48.742
1456.14	48.5445
1457.71	48.694
1459.27	47.8619
1460.84	47.3546
1462.41	46.44
1463.98	45.2127
1465.54	43.5739
1467.11	41.7962
1468.67	39.9969
1470.24	39.1149
1471.81	37.1932
1473.37	35.4944
1474.94	33.6334
1476.5	32.079
1478.07	30.3018
1479.63	28.4976
1481.19	27.2339
1482.76	25.1491
1484.32	23.9171
1485.88	23.4218
1487.45	22.5331
1489.01	21.7511
1490.57	19.8717
1492.13	18.2939
1493.69	17.7305
1495.26	16.5344
1496.82	16.0614
1498.38	16.4952
1499.94	16.571
1501.5	15.6559
1503.06	14.8409
1504.62	15.5908
1506.17	15.298
1507.73	15.3515
1509.29	15.2013
1510.85	15.3078
1512.41	15.0041
1513.97	15.123
1515.52	15.4139
1517.08	14.9472
1518.64	15.0827
1520.19	15.4162
1521.75	16.6845
1523.31	17.0863
1524.86	17.4773
1526.42	17.8551
1527.97	17.9943
1529.52	18.4158
1531.08	18.3879
1532.63	18.5754
1534.19	19.4554
1535.74	19.1896
1537.29	19.5934
1538.85	19.599
1540.4	19.4765
1541.95	19.5062
1543.5	20.3643
1545.06	21.8747
1546.61	22.8425
1548.16	23.5246
1549.71	24.3729
1551.26	25.7624
1552.81	26.4931
1554.36	27.6804
1555.91	27.9739
1557.46	29.3691
1559.01	30.932
1560.56	31.9288
1562.11	33.1654
1563.65	33.963
1565.2	34.9372
1566.75	35.9717
1568.29	37.0603
1569.84	37.7274
1571.39	39.0385
1572.94	39.6921
1574.48	40.3326
1576.03	41.1382
1577.57	41.0902
1579.12	41.2871
1580.66	41.992
1582.21	42.8001
1583.75	42.1758
1585.3	43.1458
1586.84	43.537
1588.38	43.7488
1589.93	44.425
1591.47	44.7075
1593.01	44.748
1594.55	44.4174
1596.1	43.9184
1597.64	43.634
1599.18	42.5838
1600.72	41.7198
1602.26	41.3417
1603.8	40.8899
1605.34	40.3074
1606.88	39.3585
1608.42	38.5443
1609.96	38.3844
1611.5	37.1985
1613.04	35.7543
1614.58	35.3841
1616.12	34.801
1617.65	35.1371
1619.19	35.5729
1620.73	35.7996
1622.27	36.009
1623.8	35.5942
1625.34	35.5351
1626.87	35.6973
1628.41	35.3435
1629.95	35.1471
1631.48	35.5848
1633.02	36.1001
1634.55	37.6601
1636.09	37.547
1637.62	37.7629
1639.15	38.7091
1640.69	39.4683
1642.22	41.1355
1643.76	41.7685
1645.29	41.1919
1646.82	41.576
1648.35	42.1424
1649.88	42.0127
1651.42	42.1288
1652.95	42.4091
1654.48	43.0564
1656.01	43.7097
1657.54	44.1087
1659.07	44.0089
1660.6	44.1412
1662.13	43.7208
1663.66	43.4868
1665.19	43.4853
1666.72	42.9262
1668.24	41.4539
1669.77	41.0431
1671.3	39.6316
1672.83	38.1478
1674.35	36.9437
1675.88	35.3601
1677.41	34.6868
1678.93	33.8001
1680.46	32.3671
1681.99	30.6748
1683.51	29.0532
1685.04	27.5762
1686.56	25.942
1688.09	23.9646
1689.61	23.3335
1691.13	22.7541
1692.66	21.7587
1694.18	20.4874
1695.71	18.5771
1697.23	17.0894
1698.75	15.7611
1700.27	14.2663
1701.8	13.3169
1703.32	12.3971
1704.84	11.2874
1706.36	10.7003
1707.88	9.46781
1709.4	8.80866
1710.92	7.65961
1712.44	6.27219
1713.96	5.4554
1715.48	5.15024
1717	4.41728
1718.52	3.91961
1720.04	2.88263
1721.56	2.77437
1723.07	3.16584
1724.59	2.58064
1726.11	2.78968
1727.63	3.00715
1729.14	3.22532
1730.66	3.35221
1732.18	3.14727
1733.69	2.52263
1735.21	2.36678
1736.72	2.43071
1738.24	1.82668
1739.75	2.59091
1741.27	2.70689
1742.78	2.89071
1744.3	3.34833
1745.81	3.85951
1747.32	3.19146
1748.84	3.13697
1750.35	3.35908
1751.86	3.88209
1753.37	4.34028
1754.89	4.57769
1756.4	4.72387
1757.91	4.40484
1759.42	4.68721
1760.93	4.66285
1762.44	4.86363
1763.95	5.04125
1765.46	5.11629
1766.97	4.8667
1768.48	4.34749
1769.99	3.79197
1771.5	3.32343
1773.01	3.19708
1774.52	2.97725
1776.03	2.57324
1777.53	2.39773
1779.04	1.85757
1780.55	0.932264
1782.06	0.649888
1783.56	0.657108
1785.07	0.910508
1786.57	0.734569
1788.08	0.653637
1789.59	0.727404
1791.09	0.767535
1792.6	1.12825
1794.1	1.38742
1795.6	1.31649
1797.11	1.52897
1798.61	1.42878
1800.12	1.46315
1801.62	1.68693
1803.12	1.23312
1804.63	0.939017
1806.13	0.591284
1807.63	0.3614
1809.13	0.614937
1810.63	1.12103
1812.14	1.54096
1813.64	1.99745
1815.14	2.64049
1816.64	2.74991
1818.14	3.00382
1819.64	3.33561
1821.14	3.14546
1822.64	2.73009
1824.14	2.73012
1825.63	2.75402
1827.13	2.59906
1828.63	2.75653
1830.13	3.11774
1831.63	2.9982
1833.12	2.79617
1834.62	2.97671
1836.12	2.99625
1837.62	3.47589
1839.11	3.72658
1840.61	4.04537
1842.1	3.87968
1843.6	3.56277
1845.09	3.38238
1846.59	3.4283
1848.08	3.63288
1849.58	3.77166
1851.07	3.81316
1852.57	4.24851
1854.06	4.87999
1855.55	5.02235
1857.04	5.67343
1858.54	5.99012
1860.03	5.50881
1861.52	5.64951
1863.01	5.82767
1864.5	6.67246
1866	6.77009
1867.49	7.0618
1868.98	7.04671
1870.47	6.92886
1871.96	7.00978
1873.45	7.25069
1874.94	7.16106
1876.43	7.1485
1877.92	6.71758
1879.41	6.49547
1880.89	6.36269
1882.38	6.51829
1882.48	6.65155
1883.97	6.71274
1885.47	6.41614
1886.96	6.06102
1888.46	5.54526
1889.95	5.27463
1891.44	5.42734
1892.94	5.6824
1894.43	5.20572
1895.92	4.90271
1897.41	4.72665
1898.9	5.10599
1900.4	5.58665
1901.89	5.88928
1903.38	5.75633
1904.87	5.70308
1906.36	6.07036
1907.85	6.80596
1909.34	7.10491
1910.83	7.28418
1912.32	6.88279
1913.81	6.99002
1915.29	7.01226
1916.78	7.51198
1918.27	7.46531
1919.76	7.63062
1921.25	8.00228
1922.74	7.95562
1924.22	8.21739
1925.71	8.2969
1927.2	8.22538
1928.68	7.99591
1930.17	8.08754
1931.65	7.83577
1933.14	7.33207
1934.63	8.0664
1936.11	8.61239
1937.59	8.41917
1939.08	8.30917
1940.56	8.19551
1942.05	8.15954
1943.53	8.25779
1945.01	8.51482
1946.5	8.69502
1947.98	8.11048
1949.46	7.81755
1950.94	7.54664
1952.43	7.65547
1953.91	7.93627
1955.39	7.63593
1956.87	7.35941
1958.35	7.30511
1959.83	7.22984
1961.31	7.74953
1962.79	8.10313
1964.27	7.82029
1965.75	7.832
1967.23	7.2226
1968.71	6.86116
1970.19	6.75596
1971.67	7.07943
1973.14	7.50204
1974.62	7.63513
1976.1	7.45817
1977.58	7.53158
1979.05	8.25519
1980.53	8.92998
1982.01	8.98258
1983.48	8.41206
1984.96	8.03707
1986.43	8.11343
1987.91	8.05617
1989.38	7.7891
1990.86	7.82719
1992.33	7.19083
1993.81	6.85742
1995.28	6.62317
1996.76	6.36112
1998.23	6.62747
1999.7	6.4972
2001.18	6.5746
2002.65	6.93974
2004.12	7.13645
2005.59	6.97488
2007.06	7.12439
2008.54	7.34513
2010.01	7.01401
2011.48	6.68373
2012.95	7.3131
2014.42	7.32892
2015.89	7.44968
2017.36	7.78943
2018.83	7.79359
2020.3	7.44436
2021.77	7.30409
2023.24	8.09247
2024.71	8.20833
2026.17	8.54313
2027.64	8.78591
2029.11	8.81102
2030.58	9.43368
2032.04	10.1322
2033.51	10.142
2034.98	10.3329
2036.45	9.48538
2037.91	9.0629
2039.38	9.25072
2040.84	8.85448
2042.31	9.37927
2043.77	9.45945
2045.24	9.68655
2046.7	9.95332
2048.17	10.7277
2049.63	10.8933
2051.1	11.0189
2052.56	11.7523
2054.02	11.5892
2055.48	11.1098
2056.95	11.163
2058.41	11.5922
2059.87	11.6878
2061.33	11.3477
2062.8	11.592
2064.26	11.8334
2065.72	11.8605
2067.18	12.0026
2068.64	12.8558
2070.1	12.9363
2071.56	13.4871
2073.02	13.5983
2074.48	13.8689
2075.94	14.129
2077.4	14.2284
2078.86	14.1916
2080.31	14.3916
2081.77	14.464
2083.23	15.2029
2084.69	15.7594
2086.14	16.1449
2087.6	16.3418
2089.06	16.943
2090.52	17.0549
2091.97	17.4377
2093.43	17.6717
2094.88	18.2356
2096.34	18.6932
2097.79	18.8452
2099.25	19.0107
2100.7	19.2339
2102.16	19.0603
2103.61	19.7206
2105.07	20.0211
2106.52	19.8971
2107.97	19.9248
2109.43	19.32
2110.88	19.6302
2112.33	19.6821
2113.78	19.779
2115.24	20.5218
2116.69	20.486
2118.14	20.3427
2119.59	20.9681
2121.04	21.592
2122.49	21.7635
2123.94	22.2596
2125.39	22.7139
2126.84	22.9681
2128.29	23.6989
2129.74	24.1586
2131.19	24.7319
2132.64	25.1561
2134.09	26.0213
