#Acq. time (s)=	45
#Accumulations=	2
#Range (cm-¹)=	200...3150
#Windows=	2
#Auto scanning=	Off
#Autofocus=	Off
#Macrospot=	Off
#AutoExposure=	Off
#Spike filter=	Multiple accum.
#Delay time (s)=	0
#Binning=	1
#Readout mode=	Signal
#DeNoise=	Off
#ICS correction=	On
#Dark correction=	Off
#Inst. Process=	Off
#Detector Gain=	Best Dynamic Range
#Detector ADC=	20 kHz       
#Detector temperature (°C)=	-69.85
#Instrument=	LabRAM HR Evol
#Detector=	Synapse
#Objective=	x100
#Grating=	600 gr/mm
#ND Filter=	100%
#Laser (nm)=	532 
#Hole=	100.021
#Range=	Auto
#Laser Pol.=	No
#Raman. Pol.=	No
#Laser Pol. (°)=	-0.0007625
#Raman Pol. (°)=	89.9995
#Collection=	Microscope
#StageXY=	Marzhauser
#StageZ=	Marzhauser
#X (µm)=	-5895.6
#Y (µm)=	2860.4
#Z (µm)=	-223.3
#Full time(mm:ss)=	3:18
#Project=	
#Sample=	
#Site=	
#Title=	Thy_20_09_15_2x_45s_532 nm_x100_100%_600 gr_mm
#Remark=	
#Date=	29.06.2022 11:45
#Acquired=	29.06.2022 11:45:30
#Base:Fit=	10.08.2022 09:52:02
#Base:Fit=	10.08.2022 09:52:12
#Base:Sub=	10.08.2022 09:54:21
#Filter:Polynom=	16.08.2022 10:24:04
#AxisType[0]=Intens
#AxisUnit[0]=Cnt
#AxisType[1]=Spectr
#AxisUnit[1]=1/cm
200.523	6.32877
202.339	9.27122
204.154	10.4762
205.967	10.4984
207.781	10.4197
209.596	9.86755
211.409	9.10475
213.222	8.85654
215.034	8.11335
216.848	8.42062
218.659	7.38308
220.47	7.51111
222.281	7.36041
224.091	7.52358
225.903	6.90631
227.713	6.10865
229.522	6.61121
231.331	8.08773
233.14	8.49713
234.948	8.32194
236.756	9.03289
238.566	8.77526
240.373	9.23016
242.18	9.96095
243.986	10.0677
245.792	10.6001
247.598	10.5396
249.403	10.7467
251.208	10.4506
253.013	10.8785
254.818	11.2061
256.624	11.9908
258.427	12.3176
260.231	12.5806
262.034	11.9305
263.836	12.0372
265.638	12.1191
267.44	13.3129
269.242	13.5385
271.043	13.5902
272.844	13.9883
274.645	13.9285
276.445	13.9178
278.245	14.543
280.044	14.4674
281.843	15.2591
283.642	15.4348
285.44	15.9825
287.238	15.3112
289.036	14.9372
290.833	14.3945
292.63	14.5316
294.425	14.7633
296.221	15.0513
298.017	14.8416
299.813	14.6154
301.608	15.6189
303.403	15.5063
305.198	16.0196
306.992	16.3281
308.786	15.3734
310.579	15.7161
312.371	15.5378
314.163	16.2378
315.956	16.9089
317.748	17.8372
319.54	18.3936
321.331	19.2644
323.122	18.9964
324.911	18.9776
326.701	19.1486
328.491	18.7058
330.281	18.9013
332.071	19.1012
333.857	19.4914
335.646	19.8184
337.434	19.6145
339.222	19.5349
341.008	19.3137
342.795	20.0876
344.582	18.9583
346.369	18.5823
348.153	18.8507
349.939	18.4436
351.724	18.935
353.51	18.7078
355.292	18.8763
357.077	19.6015
358.861	18.1322
360.643	18.0955
362.426	17.2553
364.21	16.6665
365.99	16.0342
367.773	16.2996
369.555	16.181
371.335	14.7037
373.116	14.3791
374.897	14.1183
376.676	14.2055
378.456	13.882
380.236	13.9538
382.014	13.3011
383.793	12.2817
385.57	11.8587
387.349	10.9119
389.127	10.4174
390.903	9.83778
392.681	8.77299
394.456	8.24769
396.233	6.61833
398.007	6.54457
399.784	7.2382
401.56	6.61872
403.333	7.05873
405.108	6.35409
406.881	6.30266
408.656	6.34515
410.428	7.1967
412.202	6.99712
413.973	6.51704
415.746	7.09354
417.517	7.44235
419.29	7.47062
421.06	9.17112
422.831	9.51417
424.601	9.35242
426.37	9.07601
428.141	9.54502
429.909	9.98035
431.679	10.3876
433.447	9.66963
435.216	10.0307
436.983	10.6257
438.75	10.7486
440.519	11.175
442.285	10.7526
444.052	10.9075
445.818	10.7628
447.583	10.4242
449.349	11.6773
451.114	10.7538
452.878	10.0088
454.643	9.71765
456.407	10.5839
458.169	9.88182
459.934	9.40207
461.696	11.5224
463.458	12.0653
465.222	11.4116
466.983	10.8088
468.744	10.9913
470.507	10.4315
472.267	10.1604
474.027	10.5688
475.787	10.553
477.548	10.9124
479.307	10.7354
481.065	10.8909
482.823	10.5461
484.583	11.2289
486.341	11.8558
488.098	12.2755
489.855	12.4736
491.612	13.5491
493.37	13.6444
495.126	14.4686
496.881	14.8109
498.636	14.7211
500.391	14.7229
502.148	14.5332
503.902	15.1819
505.656	14.5042
507.409	14.5847
509.162	15.0679
510.915	13.4344
512.668	12.9921
514.42	12.2485
516.174	12.0693
517.925	12.1482
519.676	10.8761
521.427	10.7604
523.178	10.9659
524.928	10.7511
526.678	10.5802
528.427	9.84146
530.176	8.77993
531.925	7.65795
533.673	7.68367
535.422	7.36831
537.169	6.9479
538.917	5.24517
540.664	4.16488
542.411	4.10612
544.157	4.55351
545.903	4.72909
547.649	5.11014
549.395	5.40792
551.14	4.60353
552.884	3.59549
554.629	3.93198
556.373	4.17227
558.117	3.96188
559.86	4.69334
561.603	4.68683
563.346	3.54627
565.089	3.53174
566.831	3.07102
568.573	3.45748
570.314	3.8405
572.053	4.94604
573.794	5.10097
575.534	4.88372
577.274	4.15091
579.014	3.58987
580.754	3.50216
582.493	3.85559
584.23	4.1084
585.968	3.07678
587.706	3.12401
589.444	3.02439
591.181	3.49051
592.919	3.73727
594.653	3.58868
596.39	3.14093
598.126	2.13256
599.862	2.78257
601.595	2.40157
603.33	2.87382
605.065	2.66597
606.8	2.30831
608.532	3.25196
610.266	3.10771
611.999	2.50536
613.732	3.34924
615.463	2.90933
617.196	2.94073
618.928	3.43887
620.66	3.89922
622.389	4.00673
624.12	3.6298
625.851	3.53836
627.58	3.33434
629.31	4.54036
631.04	5.11689
632.767	4.94108
634.497	5.61221
636.223	6.30529
637.952	7.08622
639.68	7.11822
641.406	7.70204
643.134	8.51011
644.861	8.91163
646.586	9.29996
648.312	9.07476
650.037	9.66954
651.762	11.0398
653.486	11.8034
655.211	13.171
656.936	12.7968
658.659	12.8447
660.383	12.7286
662.105	12.8777
663.829	13.7543
665.55	15.3183
667.273	15.8155
668.994	16.4859
670.716	17.0345
672.436	17.3978
674.158	18.901
675.877	19.0024
677.598	19.6834
679.317	20.018
681.035	19.1481
682.755	19.4424
684.473	20.3708
686.192	22.0967
687.909	22.5943
689.628	23.4567
691.344	23.9257
693.06	24.3705
694.778	24.1544
696.493	24.8492
698.211	25.0492
699.925	25.1096
701.64	25.2285
703.356	25.6004
705.07	26.6042
706.783	26.4718
708.498	27.3349
710.211	27.8452
711.924	28.6318
713.638	29.1242
715.35	30.1999
717.061	30.4725
718.774	31.2605
720.485	32.6141
722.196	32.9549
723.906	32.9547
725.618	32.5542
727.328	33.5164
729.037	34.1473
730.746	34.9846
732.456	35.4806
734.165	35.989
735.873	36.6315
737.58	37.2847
739.289	38.182
740.997	38.3571
742.703	38.6473
744.41	40.024
746.116	41.479
747.823	42.2809
749.529	43.9765
751.234	45.1263
752.938	45.6288
754.643	46.334
756.347	47.5918
758.051	48.7283
759.756	50.6071
761.459	51.6561
763.162	54.0319
764.865	55.5555
766.567	56.1274
768.269	58.1591
769.97	59.3176
771.671	60.5066
773.372	61.1154
775.073	61.5463
776.773	62.2084
778.473	62.553
780.174	63.1682
781.874	65.1558
783.573	66.1538
785.271	65.8369
786.97	67.1868
788.668	67.515
790.365	68.0911
792.063	68.2982
793.76	69.0539
795.456	68.9019
797.153	69.1883
798.847	69.7011
800.543	69.1355
802.238	68.8394
803.933	68.1967
805.628	67.7886
807.322	67.4611
809.017	66.382
810.71	65.913
812.404	65.6749
814.097	65.4069
815.79	65.7446
817.483	64.2788
819.173	63.8918
820.865	63.1825
822.556	62.5715
824.248	61.5107
825.939	60.6446
827.629	59.9719
829.318	59.7283
831.008	59.5919
832.697	58.694
834.387	59.15
836.076	58.2703
837.765	58.4147
839.451	57.9064
841.139	57.57
842.827	57.2556
844.514	56.865
846.2	55.1541
847.886	53.887
849.573	52.5223
851.259	51.1107
852.943	50.3643
854.629	49.1661
856.314	48.1548
857.997	46.9723
859.682	46.2801
861.366	45.1236
863.05	43.4697
864.732	42.5354
866.415	42.9317
868.098	42.7028
869.779	42.1547
871.461	42.3187
873.141	41.6498
874.823	41.2486
876.505	40.5205
878.184	40.4773
879.865	40.2674
881.545	39.0301
883.223	38.7278
884.903	38.1145
886.581	37.8623
888.26	37.8577
889.937	38.2071
891.616	38.3811
893.294	38.1836
894.97	38.3658
896.648	37.9851
898.323	38.4461
900	38.335
901.675	37.06
903.351	37.3685
905.026	37.3156
906.701	36.9968
908.375	36.8399
910.05	37.0481
911.723	37.209
913.398	37.6856
915.07	37.8241
916.742	38.2012
918.415	37.9708
920.087	36.5722
921.76	36.3496
923.43	35.0209
925.103	34.1195
926.773	34.2225
928.443	33.4955
930.114	32.4741
931.783	32.1692
933.454	31.9804
935.123	31.0946
936.791	30.5626
938.461	30.1707
940.128	29.687
941.796	30.143
943.464	29.3806
945.131	28.7636
946.797	28.9784
948.465	29.2965
950.131	30.1533
951.797	30.3442
953.462	29.3012
955.128	27.7311
956.793	26.717
958.457	26.3306
960.121	25.7557
961.786	25.9678
963.45	25.5004
965.113	24.4466
966.775	24.8825
968.44	24.3492
970.102	24.1798
971.763	23.7844
973.425	23.5818
975.086	21.942
976.748	21.1487
978.409	20.6693
980.069	19.8436
981.729	19.6522
983.388	18.746
985.048	17.8997
986.708	16.8245
988.367	15.67
990.025	13.9071
991.683	12.9962
993.341	12.5505
994.998	12.258
996.655	12.0004
998.312	11.0782
999.969	10.5687
1001.62	9.39943
1003.28	9.25558
1004.94	9.29253
1006.59	8.7808
1008.25	8.21927
1009.9	7.72653
1011.56	7.2233
1013.21	6.58214
1014.86	5.89954
1016.52	5.65533
1018.17	5.17741
1019.82	4.99817
1021.48	4.57245
1023.13	4.75977
1024.78	5.391
1026.43	5.09595
1028.08	5.25216
1029.73	5.39916
1031.38	5.21332
1033.03	6.57965
1034.68	6.05104
1036.33	6.0397
1037.98	5.79697
1039.63	6.35609
1041.28	7.67533
1042.93	6.81097
1044.57	7.77707
1046.22	8.52224
1047.87	8.06724
1049.52	8.65022
1051.16	9.23435
1052.81	9.48003
1054.45	9.3496
1056.1	10.1102
1057.75	10.1069
1059.39	10.7701
1061.04	10.0543
1062.68	10.1138
1064.32	9.32281
1065.97	9.06082
1067.61	7.957
1069.25	7.54329
1070.9	8.10709
1072.54	8.65232
1074.18	9.44654
1075.82	9.93701
1077.47	9.0775
1079.11	8.56975
1080.75	7.63158
1082.39	7.76891
1084.03	7.69435
1085.67	7.59251
1087.31	6.64758
1088.95	6.13538
1090.59	5.47674
1092.22	5.56953
1093.86	5.73077
1095.5	5.09
1097.14	5.33271
1098.78	5.82811
1100.41	5.75987
1102.05	6.00525
1103.69	6.11684
1105.32	6.44857
1106.96	7.09353
1108.59	7.49537
1110.23	7.63156
1111.86	8.89443
1113.5	9.37884
1115.13	8.93018
1116.77	8.19657
1118.4	8.30755
1120.03	8.7074
1121.67	8.83584
1123.3	9.25691
1124.93	8.4948
1126.56	9.34546
1128.19	8.92905
1129.83	8.18151
1131.46	8.71753
1133.09	8.64904
1134.72	8.02459
1136.35	7.60628
1137.98	7.77277
1139.61	7.59559
1141.24	6.85326
1142.86	6.43169
1144.49	6.21177
1146.12	5.46255
1147.75	6.23538
1149.38	5.44433
1151	5.52935
1152.63	5.06764
1154.26	4.83074
1155.88	3.79091
1157.51	3.80455
1159.14	3.2427
1160.76	3.47483
1162.39	3.60308
1164.01	3.37007
1165.63	3.62161
1167.26	3.3294
1168.88	3.7254
1170.51	4.2156
1172.13	4.73882
1173.75	4.82023
1175.38	5.18104
1177	5.32843
1178.62	6.45233
1180.24	6.60083
1181.86	6.66175
1183.48	7.70751
1185.1	8.32758
1186.72	8.96716
1188.34	10.0371
1189.96	10.3954
1191.58	10.1715
1193.2	10.9956
1194.82	11.2306
1196.44	10.9021
1198.06	12.2669
1199.68	12.9622
1201.29	13.5533
1202.91	13.3745
1204.53	14.1609
1206.14	14.5286
1207.76	15.707
1209.38	16.5417
1210.99	17.3026
1212.61	18.6628
1214.22	19.7206
1215.84	20.5559
1217.45	22.9028
1219.07	24.4129
1220.68	25.8061
1222.29	26.4585
1223.91	27.8463
1225.52	28.8605
1227.13	30.6681
1228.74	32.4629
1230.36	33.3849
1231.97	34.6097
1233.58	35.6906
1235.19	36.7608
1236.8	36.9421
1238.41	38.5353
1240.02	38.4971
1241.63	39.2811
1243.24	39.6517
1244.85	39.4633
1246.46	40.1075
1248.07	40.2277
1249.67	40.7427
1251.28	40.7487
1252.89	40.8833
1254.5	41.5266
1256.1	41.9557
1257.71	41.9883
1259.32	42.5171
1260.92	41.9353
1262.53	42.6751
1264.13	42.6284
1265.74	42.4724
1267.34	41.3758
1268.95	41.2352
1270.55	41.1348
1272.15	41.4586
1273.76	42.0255
1275.36	41.7106
1276.97	41.1839
1278.57	42.3859
1280.17	42.8473
1281.77	42.8654
1283.37	43.6888
1284.97	44.8977
1286.58	46.1447
1288.18	46.5282
1289.78	46.7154
1291.38	47.4787
1292.98	48.4028
1294.58	49.1666
1296.18	50.1771
1297.78	51.4698
1299.37	51.6683
1300.97	53.3466
1302.57	54.0664
1304.17	55.5312
1305.77	56.6386
1307.36	58.0425
1308.96	59.7243
1310.55	60.0339
1312.15	60.721
1313.75	61.7046
1315.34	62.5019
1316.94	62.7438
1318.53	63.5785
1320.13	64.1227
1321.72	64.508
1323.32	64.8781
1324.91	64.3052
1326.5	65.0556
1328.1	65.3126
1329.69	65.4461
1331.28	65.9431
1332.87	65.5028
1334.47	64.9867
1336.06	64.7523
1337.65	65.1328
1339.24	65.2459
1340.83	64.3488
1342.42	64.9158
1344.01	63.8394
1345.6	63.9984
1347.19	63.2754
1348.78	63.4535
1350.37	62.5828
1351.96	62.7539
1353.54	62.2551
1355.13	61.9599
1356.72	61.7794
1358.31	61.5488
1359.89	60.4575
1361.48	59.6928
1363.07	59.2254
1364.65	58.3942
1366.24	57.6739
1367.82	56.1502
1369.41	55.4676
1370.99	55.5818
1372.58	55.011
1374.16	54.9312
1375.75	54.605
1377.33	53.5653
1378.91	53.1088
1380.5	52.7902
1382.08	52.1228
1383.66	52.1127
1385.25	51.5131
1386.83	51.0436
1388.41	50.8792
1389.99	49.1368
1391.57	48.7716
1393.15	48.1108
1394.73	46.3092
1396.31	44.5545
1397.89	43.9701
1399.47	42.8836
1401.05	41.6751
1402.63	41.5527
1404.21	39.8593
1405.78	39.791
1407.36	39.2369
1408.94	39.0832
1410.52	39.1789
1412.1	38.9773
1413.67	39.8402
1415.25	40.8384
1416.82	41.4347
1418.4	42.2136
1419.98	42.9044
1421.55	44.4958
1423.13	44.8009
1424.7	46.458
1426.28	47.5847
1427.85	48.6144
1429.42	49.6751
1431	51.962
1432.57	53.3039
1434.14	54.4702
1435.71	55.0894
1437.29	56.1634
1438.86	57.6078
1440.43	58.1961
1442	59.1819
1443.57	59.7271
1445.14	60.8498
1446.71	61.4327
1448.28	61.9168
1449.85	62.2419
1451.42	61.6839
1452.99	61.4061
1454.56	61.432
1456.13	60.445
1457.7	60.1204
1459.26	59.6184
1460.83	59.5769
1462.4	57.7814
1463.97	56.1859
1465.54	55.391
1467.1	54.0739
1468.67	53.164
1470.23	51.9515
1471.8	49.8658
1473.36	47.7958
1474.93	46.4746
1476.49	45.7574
1478.06	44.4695
1479.62	43.2103
1481.19	41.4027
1482.75	39.0043
1484.31	37.8912
1485.88	36.778
1487.44	35.2078
1489	33.5811
1490.56	33.3744
1492.13	32.6948
1493.69	31.7859
1495.25	31.9951
1496.81	30.95
1498.37	30.3728
1499.93	30.2925
1501.49	30.9679
1503.05	31.5303
1504.61	31.244
1506.17	31.7437
1507.73	32.2286
1509.28	33.2239
1510.84	33.4971
1512.4	33.2363
1513.96	33.0108
1515.52	33.67
1517.07	34.1599
1518.63	34.1341
1520.19	35.0764
1521.74	35.5048
1523.3	36.9307
1524.85	37.1747
1526.41	38.1631
1527.96	38.0563
1529.52	38.7184
1531.07	39.3481
1532.63	41.0568
1534.18	41.9304
1535.73	43.4497
1537.29	44.6048
1538.84	45.5172
1540.39	45.6972
1541.94	47.8835
1543.5	49.9297
1545.05	50.3857
1546.6	52.3441
1548.15	52.801
1549.7	53.9262
1551.25	56.2603
1552.8	57.3594
1554.35	58.4588
1555.9	59.3775
1557.45	60.1756
1559	61.5685
1560.55	63.3157
1562.1	64.663
1563.65	66.5083
1565.19	67.7762
1566.74	68.729
1568.29	71.3718
1569.83	72.3984
1571.38	73.0537
1572.93	74.7136
1574.47	75.5682
1576.02	77.7164
1577.56	79.0518
1579.11	80.0189
1580.66	81.0494
1582.2	82.1714
1583.74	83.5741
1585.29	83.6439
1586.83	83.5945
1588.38	83.2341
1589.92	82.5136
1591.46	82.1705
1593.01	81.606
1594.55	81.4551
1596.09	80.2908
1597.63	79.4938
1599.17	78.8575
1600.71	77.3997
1602.25	76.0276
1603.79	75.1157
1605.34	73.0086
1606.88	72.4368
1608.41	71.3332
1609.95	70.9626
1611.49	70.4462
1613.03	68.7342
1614.57	67.3859
1616.11	65.4261
1617.65	64.8642
1619.18	63.8309
1620.72	62.2008
1622.26	60.4022
1623.79	60.1973
1625.33	58.8535
1626.87	58.2404
1628.4	57.8159
1629.94	56.408
1631.48	56.1284
1633.01	55.5962
1634.55	55.2845
1636.08	55.3412
1637.61	54.7374
1639.15	53.9897
1640.68	54.0661
1642.21	53.499
1643.75	53.3503
1645.28	54.5254
1646.81	53.5975
1648.34	53.3982
1649.88	53.9462
1651.41	54.2008
1652.94	53.8602
1654.47	53.2201
1656	52.8489
1657.53	53.1401
1659.06	52.5537
1660.59	51.0135
1662.12	49.4339
1663.65	48.1424
1665.18	47.0688
1666.71	45.5218
1668.24	44.2146
1669.76	43.4612
1671.29	43.4514
1672.82	41.3566
1674.35	40.6678
1675.87	39.7048
1677.4	38.0725
1678.93	36.6425
1680.45	34.981
1681.98	33.4823
1683.5	32.7005
1685.03	31.0302
1686.55	30.235
1688.08	28.4155
1689.6	25.8414
1691.13	24.4934
1692.65	23.1546
1694.17	22.143
1695.7	20.0367
1697.22	18.2866
1698.74	16.8172
1700.27	15.4657
1701.79	14.112
1703.31	12.9644
1704.83	12.0193
1706.35	11.558
1707.87	10.0888
1709.39	9.53507
1710.91	9.73807
1712.43	8.92448
1713.95	8.38568
1715.47	8.88383
1716.99	9.26932
1718.51	9.00261
1720.03	8.97478
1721.55	8.80938
1723.07	8.19629
1724.58	8.48962
1726.1	8.15217
1727.62	7.7423
1729.13	6.95613
1730.65	6.6544
1732.17	6.3508
1733.68	6.7999
1735.2	6.38892
1736.72	6.38709
1738.23	7.09272
1739.74	7.58458
1741.26	8.07646
1742.77	8.05574
1744.29	8.30037
1745.8	8.88117
1747.32	8.80672
1748.83	8.10434
1750.34	7.82431
1751.85	7.66248
1753.37	7.32628
1754.88	6.70291
1756.39	6.50522
1757.9	6.4777
1759.41	6.10295
1760.92	5.90869
1762.44	6.30836
1763.95	6.12327
1765.46	5.46231
1766.96	5.01125
1768.47	4.64973
1769.98	3.81045
1771.49	3.41374
1773	2.91896
1774.51	2.5862
1776.02	2.42564
1777.53	2.43148
1779.03	2.31346
1780.54	2.88057
1782.05	2.73764
1783.55	2.57949
1785.06	2.99056
1786.57	2.57019
1788.07	2.27432
1789.58	2.9566
1791.08	3.38207
1792.59	3.07671
1794.09	2.64723
1795.6	2.50401
1797.1	2.1656
1798.61	2.19873
1800.11	1.9048
1801.61	1.63484
1803.12	1.93357
1804.62	2.30846
1806.12	2.3879
1807.62	2.61418
1809.12	3.29322
1810.63	3.47276
1812.13	3.87398
1813.63	4.03992
1815.13	4.55438
1816.63	4.25792
1818.13	4.30656
1819.63	4.92975
1821.13	5.22077
1822.63	5.34561
1824.13	5.13075
1825.63	5.00064
1827.13	5.39176
1828.62	4.33789
1830.12	4.31785
1831.62	4.73403
1833.12	4.74303
1834.61	5.10451
1836.11	5.53797
1837.61	5.1825
1839.1	5.12046
1840.6	4.83039
1842.09	4.89695
1843.59	5.1457
1845.09	4.977
1846.58	4.86719
1848.08	4.87447
1849.57	4.58553
1851.06	4.70173
1852.56	4.2706
1854.05	4.30468
1855.54	5.30428
1857.04	4.7751
1858.53	4.78499
1860.02	4.88224
1861.51	5.36002
1863.01	5.42366
1864.5	5.04021
1865.99	4.54139
1867.48	4.19428
1868.97	3.79786
1870.46	3.8528
1871.95	3.88524
1873.44	3.92622
1874.93	3.89407
1876.42	3.88689
1877.91	3.47851
1879.4	3.35225
1880.89	3.16577
1882.37	3.11927
1882.46	3.14639
1883.95	3.18053
1885.45	2.94844
1886.94	3.1592
1888.43	3.06395
1889.93	2.95375
1891.42	2.91444
1892.91	3.06893
1894.41	3.04303
1895.9	2.92222
1897.39	2.35338
1898.88	2.27705
1900.37	2.5433
1901.86	2.21904
1903.36	2.99849
1904.85	2.98513
1906.34	3.17142
1907.83	3.33485
1909.32	3.39508
1910.81	3.25595
1912.29	3.39566
1913.78	3.28159
1915.27	3.07082
1916.76	3.20213
1918.25	3.15892
1919.74	3.62689
1921.23	4.01269
1922.71	3.80791
1924.2	4.27404
1925.69	4.29669
1927.17	4.72219
1928.66	4.92131
1930.15	4.02185
1931.63	4.28734
1933.12	4.22334
1934.6	3.61353
1936.09	3.3132
1937.57	3.21485
1939.06	2.93873
1940.54	3.31266
1942.02	3.61185
1943.51	3.37046
1944.99	3.32609
1946.47	3.04186
1947.96	2.90194
1949.44	2.66118
1950.92	2.53076
1952.4	2.53081
1953.88	2.02881
1955.37	1.44131
1956.85	0.786545
1958.33	0.53964
1959.81	0.642546
1961.29	0.496096
1962.77	0.650724
1964.25	0.991426
1965.73	0.741335
1967.21	1.10643
1968.69	1.38358
1970.16	0.513865
1971.64	0.518001
1973.12	0.96633
1974.6	1.54597
1976.08	1.4972
1977.55	1.7773
1979.03	1.91273
1980.51	1.71598
1981.98	1.59235
1983.46	1.56583
1984.94	1.06655
1986.41	0.889529
1987.89	0.486171
1989.36	0.487013
1990.84	0.529242
1992.31	1.35106
1993.79	1.90964
1995.26	1.82887
1996.73	2.01382
1998.21	2.69157
1999.68	2.99259
2001.15	3.08932
2002.63	3.34306
2004.1	3.70955
2005.57	4.37352
2007.04	4.48424
2008.51	4.3569
2009.99	4.09705
2011.46	4.15044
2012.93	4.24574
2014.4	4.57941
2015.87	4.75294
2017.34	4.90406
2018.81	5.24781
2020.28	5.02131
2021.75	4.91636
2023.21	4.65077
2024.68	4.60705
2026.15	4.49738
2027.62	4.12092
2029.09	4.28126
2030.56	4.54737
2032.02	4.6768
2033.49	5.14795
2034.96	4.46941
2036.42	4.32076
2037.89	4.13006
2039.36	3.65253
2040.82	3.24157
2042.29	3.05946
2043.75	2.91488
2045.22	3.43748
2046.68	3.94299
2048.14	3.75508
2049.61	2.9041
2051.07	2.32833
2052.54	1.99894
2054	0.926921
2055.46	0.6135
2056.93	0.838571
2058.39	1.15458
2059.85	1.33833
2061.31	1.44822
2062.77	1.85193
2064.23	2.27664
2065.7	3.08995
2067.16	3.11663
2068.62	2.9755
2070.08	2.91504
2071.54	3.18695
2073	3.22342
2074.46	3.48885
2075.92	3.47883
2077.38	3.39602
2078.83	3.78305
2080.29	3.59049
2081.75	3.35272
2083.21	3.36395
2084.67	3.89868
2086.12	3.34387
2087.58	3.64189
2089.04	4.03563
2090.49	3.64528
2091.95	3.20326
2093.41	3.09883
2094.86	2.64083
2096.32	2.60838
2097.77	3.2126
2099.23	2.96333
2100.68	3.08272
2102.14	3.46982
2103.59	3.74664
2105.05	3.14688
2106.5	3.06279
2107.95	2.8877
2109.41	3.44839
2110.86	4.16957
2112.31	3.87215
2113.76	4.18175
2115.21	4.64191
2116.67	4.96045
2118.12	5.27224
2119.57	6.03053
2121.02	5.82
2122.47	6.09666
2123.92	6.72476
2125.37	7.16994
2126.82	7.64259
2128.27	8.53055
2129.72	9.13823
2131.17	9.1176
2132.62	8.87512
