#Acq. time (s)=	45
#Accumulations=	2
#Range (cm-¹)=	200...3150
#Windows=	2
#Auto scanning=	Off
#Autofocus=	Off
#Macrospot=	Off
#AutoExposure=	Off
#Spike filter=	Multiple accum.
#Delay time (s)=	0
#Binning=	1
#Readout mode=	Signal
#DeNoise=	Off
#ICS correction=	On
#Dark correction=	Off
#Inst. Process=	Off
#Detector Gain=	Best Dynamic Range
#Detector ADC=	20 kHz       
#Detector temperature (°C)=	-69.85
#Instrument=	LabRAM HR Evol
#Detector=	Synapse
#Objective=	x100
#Grating=	600 gr/mm
#ND Filter=	100%
#Laser (nm)=	532 
#Hole=	100.021
#Range=	Auto
#Laser Pol.=	No
#Raman. Pol.=	No
#Laser Pol. (°)=	-0.0007625
#Raman Pol. (°)=	89.9995
#Collection=	Microscope
#StageXY=	Marzhauser
#StageZ=	Marzhauser
#X (µm)=	253.4
#Y (µm)=	1679.1
#Z (µm)=	426.8
#Full time(mm:ss)=	3:18
#Project=	
#Sample=	
#Site=	
#Title=	Thy_40_11_33_2x_45s_532 nm_x100_100%_600 gr_mm
#Remark=	
#Date=	05.07.2022 12:22
#Acquired=	05.07.2022 12:22:09
#Base:Fit=	10.08.2022 10:01:35
#Base:Sub=	10.08.2022 10:01:52
#Filter:Polynom=	16.08.2022 10:21:53
#AxisType[0]=Intens
#AxisUnit[0]=Cnt
#AxisType[1]=Spectr
#AxisUnit[1]=1/cm
200.43	29.0306
202.244	28.3844
204.059	26.749
205.873	25.1494
207.688	23.4545
209.501	21.6505
211.314	19.7193
213.127	18.5429
214.941	16.6403
216.753	15.6561
218.564	14.6826
220.375	12.5912
222.186	11.5577
223.999	11.0486
225.809	10.4549
227.618	9.44126
229.428	8.61819
231.236	7.92176
233.045	7.69881
234.855	6.43764
236.663	5.49337
238.471	4.92968
240.278	4.83741
242.085	3.99348
243.891	4.36607
245.698	4.16568
247.503	3.31316
249.309	3.93536
251.116	3.58984
252.921	3.46653
254.725	3.5734
256.529	3.89013
258.333	5.08293
260.136	5.59283
261.939	6.81539
263.742	6.38976
265.544	6.91215
267.346	7.63491
269.148	8.26507
270.949	7.88745
272.75	7.66229
274.55	7.39897
276.351	6.98111
278.15	6.91482
279.95	5.84458
281.749	6.0757
283.548	5.96328
285.346	6.56138
287.144	6.25529
288.942	6.41307
290.739	5.34359
292.536	5.60392
294.333	5.78473
296.129	5.26335
297.925	5.61532
299.721	5.99793
301.514	5.90835
303.309	6.5191
305.104	6.52172
306.898	6.94951
308.692	7.16047
310.486	7.62453
312.279	8.33343
314.072	8.49978
315.862	8.34932
317.654	8.23841
319.446	8.23002
321.238	8.20518
323.029	8.72357
324.819	8.92162
326.608	9.50288
328.398	10.0914
330.188	10.5129
331.977	10.3454
333.766	11.6503
335.553	12.4548
337.341	12.9265
339.129	12.948
340.917	12.003
342.704	11.8187
344.489	11.6611
346.275	11.4487
348.062	12.4343
349.845	12.6245
351.631	12.0417
353.416	11.6397
355.201	11.5671
356.984	10.5138
358.768	9.59823
360.552	9.22937
362.333	9.03971
364.116	9.21085
365.899	9.56071
367.68	9.70001
369.462	9.48927
371.243	10.3443
373.023	11.0171
374.804	9.86804
376.585	9.43846
378.363	10.0965
380.143	9.64233
381.923	10.5064
383.7	10.9537
385.479	11.0561
387.256	11.2756
389.034	11.5046
390.812	11.1471
392.588	11.9585
394.365	12.3888
396.14	12.389
397.916	12.8757
399.691	12.9159
401.467	12.4042
403.24	12.3514
405.015	12.3468
406.788	12.7684
408.563	13.3833
410.335	13.6304
412.109	14.5058
413.88	13.7019
415.654	13.629
417.424	13.6401
419.197	13.1797
420.967	13.2316
422.739	13.8248
424.508	12.8452
426.279	11.2535
428.048	10.6153
429.819	10.3945
431.587	9.53224
433.356	8.74537
435.124	8.32494
436.891	7.54862
438.66	6.40538
440.426	5.45333
442.194	5.70346
443.96	5.14804
445.725	5.09103
447.492	5.21308
449.257	6.13223
451.021	6.13561
452.787	6.12565
454.551	6.41044
456.314	6.88434
458.079	8.32805
459.842	8.55251
461.604	8.43377
463.368	7.71354
465.13	8.43081
466.891	8.28426
468.654	8.91955
470.415	9.62695
472.175	9.97946
473.935	10.3047
475.696	10.9636
477.456	12.0575
479.215	12.9967
480.973	15.0695
482.733	15.4567
484.491	16.3239
486.249	17.6063
488.006	19.4563
489.765	20.3606
491.522	21.496
493.278	22.9502
495.034	24.0383
496.789	24.3947
498.544	24.6183
500.301	24.9656
502.056	24.614
503.81	26.386
505.564	26.4655
507.317	26.1993
509.071	26.8769
510.825	26.1194
512.578	25.4335
514.33	26.0007
516.082	25.5285
517.833	24.5167
519.585	23.7184
521.335	23.9259
523.086	24.4079
524.836	24.7725
526.586	25.1884
528.335	25.151
530.085	25.2253
531.835	24.6264
533.584	23.9929
535.332	24.0621
537.08	24.2243
538.827	23.3963
540.574	23.0148
542.321	23.0321
544.068	22.755
545.814	21.6011
547.56	20.9191
549.305	20.3793
551.05	20.4718
552.795	19.7735
554.54	19.9095
556.282	20.0766
558.025	19.0361
559.769	18.9281
561.512	18.037
563.255	17.2295
564.997	16.723
566.739	16.4717
568.481	15.976
570.223	14.9089
571.964	14.3617
573.705	13.5533
575.443	12.9496
577.183	11.7275
578.923	11.5103
580.663	11.0744
582.402	10.2867
584.141	9.82362
585.879	9.54673
587.615	9.8581
589.353	10.0144
591.09	10.8597
592.828	9.49272
594.564	7.97937
596.299	8.15588
598.035	6.96898
599.771	7.01135
601.506	7.76258
603.242	7.42128
604.974	7.8041
606.709	8.64531
608.443	9.29281
610.177	9.71084
611.908	9.15582
613.642	9.5136
615.374	9.55794
617.105	10.4942
618.837	10.7893
620.569	11.7998
622.3	13.0225
624.03	13.499
625.761	14.6879
627.491	15.3635
629.219	16.8901
630.949	17.4262
632.677	19.1314
634.406	20.437
636.135	21.5515
637.861	21.8329
639.59	21.8061
641.318	22.8557
643.043	23.2403
644.77	23.7317
646.495	24.8034
648.222	24.3935
649.948	24.2696
651.672	24.8479
653.398	24.9799
655.121	25.3231
656.846	26.1133
658.569	27.229
660.293	28.3045
662.015	29.4595
663.738	29.3246
665.46	29.2696
667.183	28.5136
668.903	28.778
670.626	29.2035
672.346	29.6997
674.067	30.1256
675.787	29.1072
677.508	30.0415
679.226	29.1953
680.947	30.4307
682.665	31.0825
684.385	31.1507
686.102	32.9738
687.821	34.2096
689.538	34.8575
691.254	35.0166
692.972	35.4324
694.688	35.7073
696.406	36.7018
698.121	37.187
699.835	39.2442
701.552	40.7096
703.266	41.5782
704.98	43.3675
706.695	44.5456
708.409	45.5036
710.121	46.9029
711.836	48.1421
713.548	48.6593
715.26	49.788
716.973	51.0492
718.685	52.9163
720.396	53.15
722.108	55.5616
723.818	54.7418
725.528	55.6582
727.238	56.5014
728.949	56.8803
730.658	57.2902
732.367	57.4422
734.075	57.5071
735.785	57.5055
737.493	58.3345
739.2	59.8784
740.907	61.1152
742.614	62.2539
744.322	62.6794
746.028	62.9537
747.734	63.269
749.439	63.8946
751.144	65.7511
752.849	66.9309
754.555	69.4287
756.26	70.1575
757.963	71.0775
759.667	71.618
761.37	73.1567
763.073	75.0707
764.775	75.8089
766.477	76.8792
768.179	77.1491
769.883	78.829
771.584	80.2092
773.285	80.5477
774.986	81.7826
776.686	81.9697
778.386	83.7088
780.085	84.5903
781.785	86.1463
783.484	87.3969
785.182	89.0956
786.881	89.3123
788.579	90.0604
790.276	91.9509
791.974	92.4182
793.671	93.9578
795.367	94.2757
797.064	95.5702
798.76	97.281
800.456	97.7693
802.151	98.8122
803.846	98.663
805.541	98.4315
807.234	98.6125
808.928	97.2332
810.622	98.1122
812.315	98.1471
814.008	97.934
815.701	98.2492
817.394	99.0269
819.086	98.264
820.778	99.3279
822.468	100.315
824.159	101.708
825.85	100.717
827.541	100.745
829.231	100.006
830.921	99.5548
832.609	99.2712
834.298	99.5864
835.987	98.5487
837.676	96.9481
839.364	95.7017
841.051	93.9692
842.738	92.9471
844.426	90.6976
846.113	89.5406
847.798	87.7442
849.484	85.7279
851.171	84.0064
852.857	82.348
854.54	80.0377
856.226	78.0579
857.911	76.6491
859.593	74.9591
861.278	73.8455
862.961	73.1976
864.645	71.4246
866.327	70.5179
868.01	69.0157
869.692	68.7296
871.373	67.3602
873.055	66.8774
874.735	66.2553
876.416	65.2019
878.097	64.8203
879.776	64.057
881.457	63.8405
883.135	62.6567
884.815	62.1398
886.495	62.2659
888.172	61.355
889.851	60.686
891.528	60.6096
893.206	60.9739
894.882	61.0565
896.56	60.8969
898.237	61.758
899.912	61.3105
901.589	61.6398
903.263	62.1331
904.94	62.6745
906.614	62.184
908.289	61.3103
909.962	60.0603
911.635	60.2978
913.31	60.6249
914.982	60.7708
916.656	60.7425
918.328	60.8973
920.001	60.4955
921.672	60.8243
923.345	60.3597
925.015	59.9286
926.685	58.4004
928.357	56.981
930.026	57.7587
931.698	57.0047
933.366	56.4941
935.035	55.7458
936.705	54.7301
938.373	54.282
940.041	54.2435
941.71	53.8792
943.377	52.4696
945.044	51.9928
946.712	51.1544
948.378	51.4589
950.044	51.9634
951.709	52.3332
953.376	52.4939
955.041	52.0711
956.706	52.6428
958.372	52.31
960.036	52.5223
961.699	53.4219
963.362	54.1376
965.027	53.6995
966.69	55.09
968.352	56.327
970.014	56.6377
971.676	57.0572
973.339	58.0644
975	58.6471
976.661	59.6531
978.322	60.2743
979.982	61.1618
981.642	61.9137
983.303	62.581
984.962	63.762
986.621	64.2983
988.28	63.7918
989.938	64.8794
991.596	64.401
993.254	65.1567
994.911	66.1202
996.57	66.4592
998.227	66.3351
999.884	66.1851
1001.54	66.6888
1003.2	67.3389
1004.85	66.5514
1006.51	65.6688
1008.16	65.1913
1009.82	64.9196
1011.47	65.601
1013.12	65.588
1014.78	64.8304
1016.43	64.8629
1018.08	63.2082
1019.74	62.8608
1021.39	62.5748
1023.04	62.063
1024.69	61.1315
1026.34	61.09
1028	60.9876
1029.65	61.6146
1031.3	61.6405
1032.95	59.7138
1034.6	58.0969
1036.25	56.9937
1037.9	56.8617
1039.54	56.4375
1041.19	55.7879
1042.84	56.0408
1044.49	55.5141
1046.14	55.4358
1047.78	54.804
1049.43	54.7666
1051.08	53.6515
1052.72	52.6401
1054.37	51.5597
1056.02	50.2469
1057.66	49.2745
1059.31	49.2215
1060.95	48.2059
1062.6	47.5389
1064.24	46.653
1065.88	45.5211
1067.53	45.1532
1069.17	44.7449
1070.81	45.0045
1072.45	44.9588
1074.1	43.825
1075.74	44.6015
1077.38	44.8751
1079.02	44.6174
1080.66	43.9085
1082.3	43.9411
1083.94	44.6931
1085.58	45.2428
1087.22	44.9548
1088.86	44.1215
1090.5	43.985
1092.14	43.3908
1093.78	43.119
1095.42	43.0799
1097.05	42.7869
1098.69	42.6109
1100.33	42.0985
1101.96	42.211
1103.6	43.1203
1105.24	43.6351
1106.87	42.5481
1108.51	42.5046
1110.14	41.211
1111.78	41.1415
1113.41	40.2116
1115.05	39.0603
1116.68	38.8576
1118.31	39.0537
1119.95	38.7275
1121.58	38.2562
1123.21	37.4989
1124.85	36.0745
1126.48	34.8425
1128.11	34.0975
1129.74	32.4885
1131.37	31.3969
1133	30.9248
1134.63	28.9713
1136.26	27.8835
1137.89	27.0901
1139.52	27.1275
1141.15	26.744
1142.78	25.8837
1144.41	25.8845
1146.04	25.489
1147.66	24.8857
1149.29	24.1009
1150.92	22.7475
1152.55	21.7429
1154.17	19.6195
1155.8	18.2101
1157.43	17.7525
1159.05	16.7524
1160.68	15.4893
1162.3	14.5937
1163.93	14.1074
1165.55	13.4546
1167.17	12.4048
1168.8	10.8849
1170.42	10.3304
1172.05	10.8025
1173.67	11.1408
1175.29	11.879
1176.91	12.7579
1178.54	12.3772
1180.16	13.5288
1181.78	14.8567
1183.4	15.269
1185.02	16.3166
1186.64	16.7069
1188.26	15.834
1189.88	16.9983
1191.5	17.4624
1193.12	19.6789
1194.74	21.3989
1196.36	21.9728
1197.97	24.0249
1199.59	26.2456
1201.21	27.6406
1202.83	29.464
1204.44	32.4101
1206.06	34.2142
1207.68	36.6702
1209.29	39.2043
1210.91	40.959
1212.52	43.2456
1214.14	44.7696
1215.75	46.7823
1217.37	49.6941
1218.98	51.7295
1220.59	54.358
1222.21	56.4376
1223.82	57.5151
1225.43	59.0434
1227.05	59.8729
1228.66	61.3642
1230.27	62.8073
1231.88	64.259
1233.49	64.792
1235.1	66.5154
1236.72	69.1247
1238.33	70.281
1239.94	71.3981
1241.55	72.7474
1243.16	74.8989
1244.76	76.6986
1246.37	78.4271
1247.98	79.123
1249.59	80.9592
1251.2	82.3871
1252.8	83.9429
1254.41	84.8342
1256.02	85.2769
1257.62	86.6565
1259.23	87.8788
1260.84	89.4374
1262.44	90.5089
1264.05	90.6569
1265.66	90.6653
1267.26	91.1643
1268.86	92.0865
1270.47	93.0639
1272.07	93.9016
1273.67	94.5434
1275.28	94.6984
1276.88	94.2488
1278.48	95.3046
1280.09	96.6458
1281.69	97.8836
1283.29	99.6237
1284.89	101.37
1286.49	101.026
1288.09	102.053
1289.69	102.504
1291.29	102.522
1292.89	103.519
1294.49	104.114
1296.09	104.691
1297.69	104.408
1299.29	105.447
1300.89	106.439
1302.49	106.773
1304.08	106.707
1305.68	106.856
1307.28	107.057
1308.88	107.516
1310.47	106.882
1312.07	105.996
1313.66	106.277
1315.26	106.971
1316.85	107.072
1318.45	106.417
1320.04	106.455
1321.64	106.983
1323.23	107.12
1324.83	105.514
1326.42	103.365
1328.01	102.185
1329.61	101.047
1331.2	99.3584
1332.79	99.2761
1334.38	97.059
1335.97	96.1689
1337.56	95.3561
1339.16	93.7986
1340.75	91.4895
1342.34	89.1033
1343.93	86.9081
1345.52	83.7646
1347.11	81.7377
1348.7	79.2802
1350.29	76.5875
1351.87	74.0796
1353.46	72.9068
1355.05	71.353
1356.64	70.1883
1358.22	69.6811
1359.81	68.8452
1361.4	67.0117
1362.98	65.6082
1364.57	63.8081
1366.16	62.7126
1367.74	61.8276
1369.33	60.1944
1370.91	59.2182
1372.5	58.1308
1374.08	56.7828
1375.67	55.6814
1377.25	55.199
1378.83	55.1755
1380.41	53.7484
1382	52.5979
1383.58	52.1754
1385.16	50.835
1386.74	51.2039
1388.33	50.1267
1389.91	49.0069
1391.49	48.5345
1393.07	47.7375
1394.65	46.3675
1396.23	45.1472
1397.81	44.3141
1399.39	43.7966
1400.97	43.8725
1402.55	43.6861
1404.13	43.4294
1405.7	43.0396
1407.28	43.2895
1408.86	43.6475
1410.44	44.378
1412.01	45.4773
1413.59	45.2211
1415.17	46.6459
1416.74	47.3665
1418.32	48.7925
1419.89	50.3648
1421.47	51.6279
1423.04	53.58
1424.62	55.6591
1426.19	58.6834
1427.77	62.7
1429.34	66.4596
1430.91	69.9328
1432.49	73.8092
1434.06	76.5645
1435.63	80.2301
1437.2	82.1293
1438.78	83.6797
1440.35	85.2347
1441.92	87.4209
1443.49	88.7057
1445.06	90.0548
1446.63	91.357
1448.2	91.3441
1449.77	91.7316
1451.34	91.8859
1452.91	91.4705
1454.48	91.2095
1456.05	90.4997
1457.62	89.0617
1459.18	87.7571
1460.75	85.9392
1462.32	84.4565
1463.89	81.3402
1465.45	78.9693
1467.02	75.0698
1468.59	71.8971
1470.15	69.5528
1471.72	65.9582
1473.28	63.0295
1474.85	60.2602
1476.41	57.1716
1477.98	54.1395
1479.54	50.9511
1481.1	47.6873
1482.67	43.7235
1484.23	40.1456
1485.79	37.9693
1487.36	35.6338
1488.92	32.9228
1490.48	31.3512
1492.04	29.3342
1493.61	28.2926
1495.17	26.6353
1496.73	25.9407
1498.29	25.2758
1499.85	24.9462
1501.41	25.8422
1502.97	26.1913
1504.53	26.608
1506.09	26.3482
1507.65	25.939
1509.2	25.7009
1510.76	24.8827
1512.32	24.399
1513.88	24.2929
1515.43	23.147
1516.99	22.9807
1518.55	23.0851
1520.1	23.774
1521.66	24.4453
1523.22	25.1094
1524.77	25.0739
1526.33	25.2401
1527.88	26.1787
1529.44	26.6991
1530.99	26.7494
1532.54	28.0656
1534.1	27.9224
1535.65	28.9659
1537.21	29.6409
1538.76	30.301
1540.31	31.4409
1541.86	32.0038
1543.42	32.9255
1544.97	34.1986
1546.52	35.6379
1548.07	37.136
1549.62	38.0874
1551.17	39.599
1552.72	40.9208
1554.27	42.6891
1555.82	45.1293
1557.37	47.623
1558.92	49.6219
1560.47	51.6991
1562.02	54.1417
1563.56	55.4285
1565.11	57.43
1566.66	59.849
1568.21	62.354
1569.75	64.1408
1571.3	67.0624
1572.85	69.0607
1574.39	70.7922
1575.94	71.9674
1577.49	73.9586
1579.03	74.6667
1580.57	75.6468
1582.12	76.6581
1583.66	77.0375
1585.21	77.8682
1586.75	78.0824
1588.3	78.9308
1589.84	79.4603
1591.38	79.9354
1592.92	79.6328
1594.47	79.9498
1596.01	80.6643
1597.55	81.013
1599.09	80.2434
1600.63	79.5418
1602.17	78.711
1603.71	78.319
1605.25	77.7534
1606.79	77.6896
1608.33	77.5442
1609.87	77.1309
1611.41	76.9187
1612.95	77.0634
1614.49	77.6491
1616.03	78.2529
1617.57	78.6626
1619.1	79.5922
1620.64	80.4563
1622.18	82.0049
1623.72	82.9992
1625.25	84.0452
1626.79	86.4077
1628.32	88.2556
1629.86	91.0467
1631.39	93.6774
1632.93	95.8538
1634.46	97.7473
1636	99.2146
1637.53	101.936
1639.07	104.391
1640.6	107.202
1642.13	110.551
1643.67	112.204
1645.2	114.703
1646.73	117.441
1648.26	119.115
1649.8	119.776
1651.33	120.01
1652.86	120.797
1654.39	121.629
1655.92	120.949
1657.45	121.154
1658.98	120.432
1660.51	119.643
1662.04	118.514
1663.57	117.306
1665.1	115.494
1666.63	113.718
1668.16	111.818
1669.68	109.491
1671.21	107.138
1672.74	104.454
1674.27	100.952
1675.79	97.5178
1677.32	94.4218
1678.85	90.826
1680.37	87.8752
1681.9	84.5378
1683.42	80.5381
1684.95	76.8217
1686.47	73.031
1688	69.926
1689.52	66.3593
1691.05	63.6034
1692.57	59.8646
1694.09	56.3451
1695.62	52.6178
1697.14	49.1336
1698.66	46.238
1700.18	43.7929
1701.71	41.2134
1703.23	39.3853
1704.75	37.046
1706.27	35.2561
1707.79	32.9235
1709.31	31.0368
1710.83	29.8479
1712.35	28.5807
1713.87	28.0551
1715.39	26.716
1716.91	25.3255
1718.43	24.0138
1719.95	23.1971
1721.47	22.752
1722.99	21.2342
1724.5	19.3565
1726.02	18.8675
1727.54	18.192
1729.06	17.4936
1730.57	16.2217
1732.09	15.5079
1733.61	14.7095
1735.12	14.0553
1736.64	13.0723
1738.15	12.2401
1739.67	11.5913
1741.18	11.3743
1742.7	10.6763
1744.21	9.85543
1745.72	8.86849
1747.24	8.33875
1748.75	7.76935
1750.26	7.20426
1751.77	6.57623
1753.29	5.05839
1754.8	4.47357
1756.31	3.86219
1757.82	2.12298
1759.33	2.24804
1760.84	1.90191
1762.36	1.41454
1763.87	1.49806
1765.38	0.783921
1766.89	0.529542
1768.4	-0.123817
1769.91	-0.23274
1771.41	0.016479
1772.92	0.177433
1774.43	0.474382
1775.94	0.600569
1777.45	0.415298
1778.95	0.904682
1780.46	0.870822
1781.97	1.20044
1783.48	1.55927
1784.98	1.88378
1786.49	1.83159
1787.99	1.80906
1789.5	2.0468
1791.01	2.29863
1792.51	2.49042
1794.01	2.97121
1795.52	3.19203
1797.02	2.87724
1798.53	3.31005
1800.03	3.89095
1801.53	4.52472
1803.04	4.62261
1804.54	4.75657
1806.04	4.89868
1807.54	5.02249
1809.05	5.52128
1810.55	5.72891
1812.05	5.55863
1813.55	5.68521
1815.05	5.96205
1816.55	6.09397
1818.05	6.05101
1819.55	6.62516
1821.05	6.40058
1822.55	6.35944
1824.05	6.63365
1825.55	6.50281
1827.05	6.65201
1828.55	6.43611
1830.04	6.91656
1831.54	6.72382
1833.04	7.1069
1834.54	7.97479
1836.03	7.95114
1837.53	8.2378
1839.03	7.91799
1840.52	7.4777
1842.02	7.97545
1843.51	7.83304
1845.01	7.49396
1846.5	6.72963
1848	6.39356
1849.49	6.63238
1850.99	6.43365
1852.48	6.06117
1853.97	6.38234
1855.47	6.14309
1856.96	6.36316
1858.45	6.22098
1859.94	6.13485
1861.44	5.75024
1862.93	6.07055
1864.42	6.0458
1865.91	5.97999
1867.4	6.15891
1868.89	5.96892
1870.38	5.8585
1871.87	5.82209
1873.36	6.43243
1874.85	6.20244
1876.34	6.21881
1877.83	6.40147
1879.32	5.99204
1880.81	5.7109
1882.3	5.70108
1882.57	6.15122
1884.07	6.04316
1885.56	6.95601
1887.06	7.27746
1888.55	7.98608
1890.04	8.33453
1891.54	8.35837
1893.03	8.59597
1894.52	8.60758
1896.02	9.22938
1897.51	9.6951
1899	10.2355
1900.49	10.5208
1901.98	10.3036
1903.47	10.3994
1904.96	10.8391
1906.45	11.8688
1907.94	11.5417
1909.43	11.402
1910.92	11.0549
1912.41	10.9805
1913.9	11.6924
1915.39	11.5748
1916.88	11.4897
1918.37	10.9324
1919.85	11.1451
1921.34	11.859
1922.83	12.7288
1924.32	12.8003
1925.8	13.0466
1927.29	13.3349
1928.78	12.9793
1930.26	12.4995
1931.75	11.7844
1933.23	12.0466
1934.72	12.2543
1936.2	12.6374
1937.69	12.4539
1939.17	12.5489
1940.66	12.2846
1942.14	11.9463
1943.63	11.791
1945.11	11.4254
1946.59	11.4075
1948.07	10.5024
1949.56	10.715
1951.04	10.9192
1952.52	10.7294
1954	11.5989
1955.48	11.3995
1956.96	11.3045
1958.45	11.3848
1959.93	11.4988
1961.41	10.5456
1962.89	10.3596
1964.37	9.545
1965.85	9.05229
1967.32	9.4208
1968.8	9.322
1970.28	9.32315
1971.76	9.52378
1973.24	10.2808
1974.72	10.2636
1976.19	10.0203
1977.67	10.2719
1979.15	10.9723
1980.63	11.001
1982.1	10.6891
1983.58	11.0558
1985.05	11.2101
1986.53	11.8417
1988	12.1163
1989.48	12.1496
1990.95	12.6525
1992.43	12.6627
1993.9	13.0463
1995.38	13.2096
1996.85	13.3392
1998.32	12.5395
1999.8	12.263
2001.27	12.3439
2002.74	12.3613
2004.22	13.0768
2005.69	13.6708
2007.16	14.7804
2008.63	14.3902
2010.1	14.4253
2011.57	14.2541
2013.04	13.9005
2014.51	13.8709
2015.98	14.0971
2017.45	14.13
2018.92	14.224
2020.39	14.2835
2021.86	13.8431
2023.33	14.1455
2024.8	13.7184
2026.27	12.7714
2027.74	13.0759
2029.2	12.5366
2030.67	12.8541
2032.14	13.2171
2033.61	12.657
2035.07	12.3285
2036.54	12.2152
2038.01	12.0882
2039.47	12.5566
2040.94	12.7814
2042.4	13.3833
2043.87	13.3466
2045.33	14.1489
2046.8	14.7658
2048.26	15.3974
2049.72	15.2321
2051.19	15.8906
2052.65	16.2419
2054.12	16.6394
2055.58	17.2694
2057.04	17.651
2058.5	17.9231
2059.97	18.5205
2061.43	18.5329
2062.89	18.9994
2064.35	19.4504
2065.81	20.0539
2067.27	20.4284
2068.73	20.7192
2070.19	22.0975
2071.65	23.2068
2073.11	23.8891
2074.57	24.671
2076.03	25.1655
2077.49	26.5292
2078.95	26.5276
2080.41	27.2098
2081.87	27.6914
2083.32	28.8666
2084.78	29.4216
2086.24	29.9724
2087.7	31.3074
2089.15	31.9523
2090.61	33.3591
2092.07	34.4294
2093.52	34.934
2094.98	36.637
2096.43	37.4149
2097.89	38.2354
2099.34	39.6205
2100.8	41.6724
2102.25	43.4791
2103.71	44.496
2105.16	45.918
2106.61	46.7942
2108.07	48.4979
2109.52	50.1921
2110.97	52.1811
2112.43	54.2773
2113.88	56.047
2115.33	58.3131
2116.78	59.8478
2118.23	62.5286
2119.68	64.5212
2121.13	66.8566
2122.59	68.8829
2124.04	71.8792
2125.49	73.9853
2126.94	76.5563
2128.39	78.4478
2129.83	80.5961
2131.28	82.606
2132.73	85.6445
2134.18	87.9032
2135.63	90.4342
2137.08	92.8646
