#Acq. time (s)=	45
#Accumulations=	2
#Range (cm-¹)=	200...3150
#Windows=	2
#Auto scanning=	Off
#Autofocus=	Off
#Macrospot=	Off
#AutoExposure=	Off
#Spike filter=	Multiple accum.
#Delay time (s)=	0
#Binning=	1
#Readout mode=	Signal
#DeNoise=	Off
#ICS correction=	On
#Dark correction=	Off
#Inst. Process=	Off
#Detector Gain=	Best Dynamic Range
#Detector ADC=	20 kHz       
#Detector temperature (°C)=	-69.85
#Instrument=	LabRAM HR Evol
#Detector=	Synapse
#Objective=	x100
#Grating=	600 gr/mm
#ND Filter=	100%
#Laser (nm)=	532 
#Hole=	100.021
#Range=	Auto
#Laser Pol.=	No
#Raman. Pol.=	No
#Laser Pol. (°)=	-0.0007625
#Raman Pol. (°)=	89.9995
#Collection=	Microscope
#StageXY=	Marzhauser
#StageZ=	Marzhauser
#X (µm)=	-5912.3
#Y (µm)=	2863.7
#Z (µm)=	-223.6
#Full time(mm:ss)=	3:19
#Project=	
#Sample=	
#Site=	
#Title=	Thy_20_09_38_2x_45s_532 nm_x100_100%_600 gr_mm
#Remark=	
#Date=	29.06.2022 13:20
#Acquired=	29.06.2022 13:20:02
#Base:Fit=	10.08.2022 09:52:02
#Base:Fit=	10.08.2022 09:52:12
#Base:Sub=	10.08.2022 09:54:21
#Filter:Polynom=	16.08.2022 10:24:04
#AxisType[0]=Intens
#AxisUnit[0]=Cnt
#AxisType[1]=Spectr
#AxisUnit[1]=1/cm
200.523	5.03945
202.339	4.647
204.154	3.58414
205.967	4.04602
207.781	4.51486
209.596	4.9801
211.409	5.53998
213.222	6.36429
215.034	7.03231
216.848	7.94136
218.659	8.04093
220.47	8.12854
222.281	8.14527
224.091	7.85681
225.903	7.64057
227.713	7.68023
229.522	7.34629
231.331	8.02744
233.14	8.91295
234.948	9.76684
236.756	10.0048
238.566	9.88856
240.373	10.4382
242.18	10.4721
243.986	10.3187
245.792	9.58399
247.598	8.95872
249.403	9.07719
251.208	8.84487
253.013	9.16064
254.818	9.712
256.624	10.0835
258.427	10.434
260.231	11.0205
262.034	11.0425
263.836	9.66063
265.638	10.1175
267.44	9.69618
269.242	10.6321
271.043	9.41799
272.844	8.41946
274.645	8.3836
276.445	8.03239
278.245	8.53839
280.044	9.23572
281.843	8.64248
283.642	8.53527
285.44	9.37346
287.238	9.86366
289.036	9.64454
290.833	10.6318
292.63	11.2984
294.425	11.5162
296.221	12.0339
298.017	13.1503
299.813	13.8851
301.608	14.3438
303.403	14.6606
305.198	15.1877
306.992	15.4965
308.786	15.6996
310.579	16.4976
312.371	17.2522
314.163	18.0163
315.956	17.5473
317.748	18.2333
319.54	18.7663
321.331	19.3955
323.122	20.0773
324.911	19.8653
326.701	19.7459
328.491	19.1672
330.281	19.4201
332.071	19.3812
333.857	18.8622
335.646	18.4503
337.434	19.3123
339.222	19.3463
341.008	19.1101
342.795	19.374
344.582	19.0277
346.369	18.2124
348.153	17.1127
349.939	17.2948
351.724	16.0544
353.51	15.5102
355.292	15.3687
357.077	14.3851
358.861	14.5668
360.643	13.6313
362.426	13.7422
364.21	13.0509
365.99	12.6827
367.773	12.1926
369.555	12.464
371.335	11.7967
373.116	11.4571
374.897	11.4848
376.676	11.1158
378.456	10.958
380.236	11.0015
382.014	10.7538
383.793	10.4905
385.57	11.0043
387.349	11.0088
389.127	11.5524
390.903	11.3571
392.681	10.7254
394.456	10.54
396.233	9.65991
398.007	9.10425
399.784	8.42175
401.56	7.79207
403.333	6.59859
405.108	5.74571
406.881	6.01052
408.656	5.52857
410.428	5.42842
412.202	5.46809
413.973	5.63169
415.746	5.57962
417.517	5.46986
419.29	4.95149
421.06	5.82266
422.831	5.59355
424.601	5.45263
426.37	5.66738
428.141	5.59531
429.909	6.38977
431.679	6.84779
433.447	6.33867
435.216	6.24013
436.983	6.74865
438.75	7.23725
440.519	6.23515
442.285	6.94213
444.052	7.36773
445.818	7.80124
447.583	8.42957
449.349	8.88583
451.114	9.95263
452.878	10.705
454.643	11.0405
456.407	11.2841
458.169	12.0408
459.934	12.134
461.696	12.4032
463.458	13.2923
465.222	13.8194
466.983	13.8691
468.744	14.0393
470.507	14.7595
472.267	15.2208
474.027	15.7663
475.787	16.4169
477.548	17.2706
479.307	16.0561
481.065	14.7349
482.823	15.0906
484.583	15.5395
486.341	16.1432
488.098	16.8217
489.855	17.0627
491.612	16.6294
493.37	16.4577
495.126	16.9733
496.881	17.1479
498.636	18.8729
500.391	19.3509
502.148	19.7926
503.902	20.1597
505.656	19.579
507.409	18.6277
509.162	19.6429
510.915	18.3076
512.668	17.2804
514.42	17.8307
516.174	16.8916
517.925	16.8242
519.676	16.1036
521.427	15.5537
523.178	14.7965
524.928	14.9125
526.678	14.2893
528.427	13.4681
530.176	14.5331
531.925	14.1073
533.673	13.4239
535.422	13.542
537.169	13.5031
538.917	13.1529
540.664	12.8692
542.411	12.2758
544.157	12.3388
545.903	12.1899
547.649	12.0243
549.395	11.726
551.14	11.7794
552.884	11.9622
554.629	11.3556
556.373	11.6853
558.117	11.0671
559.86	11.0553
561.603	10.5875
563.346	10.3018
565.089	9.95737
566.831	8.96246
568.573	8.60059
570.314	8.72811
572.053	9.13645
573.794	8.8464
575.534	8.29868
577.274	8.25426
579.014	7.61967
580.754	7.74935
582.493	8.79849
584.23	8.20178
585.968	8.76191
587.706	7.1117
589.444	6.14144
591.181	5.36229
592.919	4.02542
594.653	3.06325
596.39	2.9945
598.126	2.80388
599.862	3.03762
601.595	2.9972
603.33	1.3865
605.065	2.07028
606.8	2.59562
608.532	3.20612
610.266	3.75258
611.999	4.46532
613.732	5.05718
615.463	5.52507
617.196	6.37824
618.928	6.23479
620.66	6.30111
622.389	6.58427
624.12	7.13385
625.851	7.75643
627.58	8.85395
629.31	9.1679
631.04	10.0599
632.767	9.99905
634.497	10.3329
636.223	10.8526
637.952	11.4725
639.68	12.5706
641.406	12.6645
643.134	13.8945
644.861	13.6307
646.586	14.3112
648.312	14.8107
650.037	14.9755
651.762	15.455
653.486	15.4536
655.211	14.9665
656.936	15.9762
658.659	16.8113
660.383	16.3679
662.105	16.114
663.829	16.649
665.55	16.1096
667.273	16.3769
668.994	16.8112
670.716	16.0194
672.436	15.5839
674.158	15.4959
675.877	16.0488
677.598	17.009
679.317	17.6495
681.035	18.0917
682.755	19.2747
684.473	19.9898
686.192	20.3803
687.909	20.6383
689.628	21.7554
691.344	23.0351
693.06	25.1029
694.778	25.1979
696.493	26.8989
698.211	28.0886
699.925	28.7583
701.64	28.8796
703.356	29.4685
705.07	29.6212
706.783	30.2503
708.498	31.1654
710.211	33.1875
711.924	34.0704
713.638	35.741
715.35	35.5756
717.061	36.4559
718.774	36.6505
720.485	38.3427
722.196	38.4585
723.906	39.157
725.618	40.1557
727.328	40.6396
729.037	41.9698
730.746	41.8447
732.456	42.5355
734.165	43.3272
735.873	43.4096
737.58	44.1939
739.289	44.3602
740.997	45.0532
742.703	46.5251
744.41	46.5375
746.116	47.0064
747.823	48.5037
749.529	49.7861
751.234	50.0026
752.938	50.5931
754.643	51.8686
756.347	51.5781
758.051	53.0123
759.756	54.7097
761.459	55.9441
763.162	56.7742
764.865	57.4261
766.567	58.609
768.269	58.8054
769.97	59.4227
771.671	59.5896
773.372	60.0426
775.073	61.3296
776.773	61.9535
778.473	63.0156
780.174	62.1815
781.874	63.1854
783.573	62.9533
785.271	62.5247
786.97	62.6872
788.668	62.7276
790.365	63.1902
792.063	64.0763
793.76	64.7375
795.456	65.8
797.153	65.6176
798.847	66.4142
800.543	65.417
802.238	65.764
803.933	65.2671
805.628	66.5464
807.322	66.5466
809.017	68.1871
810.71	69.0442
812.404	70.4432
814.097	70.3962
815.79	70.4644
817.483	71.6322
819.173	72.471
820.865	72.6722
822.556	72.7758
824.248	72.8926
825.939	72.1615
827.629	72.0501
829.318	71.7955
831.008	71.9906
832.697	71.6297
834.387	70.3011
836.076	69.8103
837.765	69.2471
839.451	68.1691
841.139	66.4708
842.827	65.6436
844.514	64.5051
846.2	63.1071
847.886	61.1774
849.573	59.1956
851.259	57.2054
852.943	55.8372
854.629	54.3814
856.314	52.8872
857.997	51.5257
859.682	49.9496
861.366	47.9468
863.05	46.108
864.732	45.0246
866.415	44.4052
868.098	43.3211
869.779	42.9477
871.461	41.8788
873.141	40.6712
874.823	41.0428
876.505	40.4938
878.184	40.0908
879.865	40.2552
881.545	39.5004
883.223	38.0714
884.903	37.2745
886.581	37.5015
888.26	38.2205
889.937	39.5772
891.616	39.9145
893.294	39.1832
894.97	39.3566
896.648	40.0082
898.323	38.4563
900	38.7636
901.675	38.7545
903.351	37.351
905.026	36.4588
906.701	35.5955
908.375	34.9429
910.05	34.1808
911.723	34.3539
913.398	34.688
915.07	34.8486
916.742	34.5344
918.415	33.8458
920.087	33.7687
921.76	33.108
923.43	32.6646
925.103	32.823
926.773	32.8381
928.443	32.8828
930.114	31.7953
931.783	30.8173
933.454	31.0068
935.123	30.5496
936.791	30.6193
938.461	29.5393
940.128	28.7388
941.796	27.3047
943.464	27.4036
945.131	27.5604
946.797	27.4928
948.465	27.7731
950.131	27.1037
951.797	27.2601
953.462	27.3799
955.128	26.4159
956.793	25.9171
958.457	25.3438
960.121	24.0287
961.786	23.1859
963.45	23.1111
965.113	22.5304
966.775	22.4788
968.44	23.7707
970.102	23.8764
971.763	23.9409
973.425	23.3848
975.086	22.973
976.748	22.0982
978.409	23.0423
980.069	22.5572
981.729	21.9381
983.388	22.3636
985.048	22.3878
986.708	22.2178
988.367	21.7712
990.025	21.6299
991.683	21.3334
993.341	20.6771
994.998	20.5602
996.655	20.2795
998.312	20.1804
999.969	19.8074
1001.62	19.5579
1003.28	18.7478
1004.94	18.1718
1006.59	17.6173
1008.25	17.4406
1009.9	16.4933
1011.56	16.0077
1013.21	14.9514
1014.86	15.2129
1016.52	15.3695
1018.17	13.6484
1019.82	13.0477
1021.48	12.6459
1023.13	11.6257
1024.78	10.8375
1026.43	10.6049
1028.08	10.1444
1029.73	9.70787
1031.38	8.41384
1033.03	7.76799
1034.68	7.71963
1036.33	6.04117
1037.98	5.04044
1039.63	3.79705
1041.28	3.01608
1042.93	3.399
1044.57	4.3291
1046.22	5.35631
1047.87	5.38201
1049.52	5.85749
1051.16	6.36046
1052.81	6.29222
1054.45	6.86441
1056.1	6.22674
1057.75	6.81365
1059.39	6.4575
1061.04	7.28535
1062.68	7.24992
1064.32	7.51492
1065.97	8.01864
1067.61	8.18629
1069.25	7.49616
1070.9	6.99788
1072.54	7.76933
1074.18	7.73017
1075.82	7.54433
1077.47	7.75105
1079.11	8.68541
1080.75	9.42812
1082.39	9.48481
1084.03	9.39473
1085.67	9.33128
1087.31	9.90424
1088.95	9.90872
1090.59	10.692
1092.22	10.8474
1093.86	11.8345
1095.5	11.004
1097.14	11.153
1098.78	10.1211
1100.41	9.75283
1102.05	9.54325
1103.69	9.41338
1105.32	8.36722
1106.96	7.75481
1108.59	7.95147
1110.23	8.23088
1111.86	8.05296
1113.5	7.30455
1115.13	6.57848
1116.77	5.68299
1118.4	5.05222
1120.03	5.3257
1121.67	5.40364
1123.3	5.10219
1124.93	5.17788
1126.56	5.17861
1128.19	4.07207
1129.83	3.39475
1131.46	3.06449
1133.09	3.1204
1134.72	2.54066
1136.35	2.42864
1137.98	1.49317
1139.61	1.34451
1141.24	2.05503
1142.86	3.40927
1144.49	3.5553
1146.12	4.02591
1147.75	3.51512
1149.38	3.10639
1151	3.40955
1152.63	4.57007
1154.26	4.43983
1155.88	4.47562
1157.51	4.93199
1159.14	5.63138
1160.76	6.45147
1162.39	6.05419
1164.01	5.61705
1165.63	5.03442
1167.26	4.75298
1168.88	4.72313
1170.51	4.27426
1172.13	4.63932
1173.75	4.67441
1175.38	4.8951
1177	4.04902
1178.62	4.32547
1180.24	4.14208
1181.86	5.30301
1183.48	5.37956
1185.1	6.23913
1186.72	6.65274
1188.34	6.03846
1189.96	6.6864
1191.58	7.37324
1193.2	7.8289
1194.82	8.21742
1196.44	9.07587
1198.06	10.8814
1199.68	11.3468
1201.29	12.3214
1202.91	13.0086
1204.53	13.0053
1206.14	13.7196
1207.76	14.7373
1209.38	15.3875
1210.99	16.4174
1212.61	17.8315
1214.22	19.9835
1215.84	21.4405
1217.45	22.549
1219.07	23.1044
1220.68	25.0152
1222.29	27.2809
1223.91	28.3939
1225.52	29.1562
1227.13	30.4585
1228.74	32.1429
1230.36	34.1517
1231.97	36.4125
1233.58	38.4216
1235.19	39.4365
1236.8	40.9546
1238.41	42.0803
1240.02	42.5443
1241.63	42.9019
1243.24	43.9067
1244.85	44.0484
1246.46	45.3851
1248.07	46.5055
1249.67	47.2128
1251.28	48.0868
1252.89	48.8232
1254.5	49.9784
1256.1	50.1766
1257.71	50.6037
1259.32	51.3693
1260.92	52.5159
1262.53	54.3434
1264.13	54.6229
1265.74	54.7705
1267.34	54.6839
1268.95	55.7528
1270.55	56.8687
1272.15	58.0842
1273.76	57.8799
1275.36	58.3049
1276.97	58.6463
1278.57	58.8433
1280.17	57.3964
1281.77	58.3786
1283.37	58.1118
1284.97	58.083
1286.58	58.078
1288.18	59.1095
1289.78	59.5803
1291.38	59.8736
1292.98	60.3752
1294.58	61.2365
1296.18	61.4836
1297.78	61.1396
1299.37	61.6587
1300.97	62.7555
1302.57	62.801
1304.17	63.3807
1305.77	63.8039
1307.36	65.6275
1308.96	66.2217
1310.55	66.9561
1312.15	67.3214
1313.75	67.261
1315.34	67.0419
1316.94	67.0894
1318.53	67.6117
1320.13	67.8188
1321.72	68.1174
1323.32	68.4736
1324.91	68.723
1326.5	68.4918
1328.1	67.9064
1329.69	67.4787
1331.28	68.8263
1332.87	67.9773
1334.47	68.6812
1336.06	67.8804
1337.65	67.2065
1339.24	67.2177
1340.83	66.8258
1342.42	67.0379
1344.01	65.782
1345.6	65.0611
1347.19	64.5643
1348.78	64.3908
1350.37	63.3948
1351.96	63.1404
1353.54	62.7373
1355.13	62.802
1356.72	62.1673
1358.31	60.9783
1359.89	59.8694
1361.48	60.4041
1363.07	60.0349
1364.65	59.6768
1366.24	59.3588
1367.82	58.7488
1369.41	57.7612
1370.99	56.051
1372.58	55.5903
1374.16	54.6189
1375.75	53.5178
1377.33	52.7598
1378.91	52.1807
1380.5	51.6461
1382.08	50.994
1383.66	50.8107
1385.25	50.1268
1386.83	49.3634
1388.41	47.8034
1389.99	47.1565
1391.57	45.0754
1393.15	44.765
1394.73	44.3664
1396.31	43.753
1397.89	43.197
1399.47	42.7683
1401.05	42.0334
1402.63	41.2611
1404.21	40.9888
1405.78	40.3429
1407.36	40.2554
1408.94	41.3793
1410.52	42.404
1412.1	42.2547
1413.67	43.3982
1415.25	43.8395
1416.82	44.881
1418.4	47.3959
1419.98	48.3242
1421.55	51.4238
1423.13	52.6144
1424.7	55.2283
1426.28	57.2125
1427.85	59.193
1429.42	61.0675
1431	63.3345
1432.57	65.2875
1434.14	66.6143
1435.71	67.3786
1437.29	69.2132
1438.86	71.2313
1440.43	73.0138
1442	73.9971
1443.57	75.0576
1445.14	75.8344
1446.71	76.1927
1448.28	76.6382
1449.85	77.0826
1451.42	78.1145
1452.99	77.7209
1454.56	78.3654
1456.13	78.5222
1457.7	77.1732
1459.26	76.3484
1460.83	74.2686
1462.4	72.4235
1463.97	69.8926
1465.54	68.2064
1467.1	65.7019
1468.67	63.8408
1470.23	61.3099
1471.8	59.4027
1473.36	56.8789
1474.93	53.5855
1476.49	50.4986
1478.06	47.5828
1479.62	44.2104
1481.19	41.4114
1482.75	38.36
1484.31	35.7651
1485.88	34.0009
1487.44	33.0958
1489	30.9593
1490.56	28.7153
1492.13	27.0551
1493.69	26.132
1495.25	24.5707
1496.81	23.8267
1498.37	22.7019
1499.93	22.5936
1501.49	21.5895
1503.05	21.374
1504.61	20.9723
1506.17	20.5665
1507.73	20.5326
1509.28	21.0834
1510.84	20.5209
1512.4	21.2032
1513.96	22.1957
1515.52	23.6377
1517.07	24.3893
1518.63	25.9101
1520.19	26.802
1521.74	28.4443
1523.3	29.5967
1524.85	31.177
1526.41	32.0619
1527.96	33.7568
1529.52	34.3696
1531.07	35.1016
1532.63	36.0339
1534.18	36.533
1535.73	37.8169
1537.29	39.3751
1538.84	40.7109
1540.39	42.687
1541.94	44.1056
1543.5	45.8694
1545.05	46.9624
1546.6	48.7565
1548.15	50.0373
1549.7	51.0496
1551.25	52.9484
1552.8	54.4782
1554.35	56.2897
1555.9	57.9782
1557.45	59.152
1559	60.8802
1560.55	62.3589
1562.1	64.2856
1563.65	65.9733
1565.19	67.6512
1566.74	68.8427
1568.29	70.3781
1569.83	72.9462
1571.38	73.8968
1572.93	74.9377
1574.47	76.1041
1576.02	78.3384
1577.56	79.56
1579.11	81.647
1580.66	82.6421
1582.2	83.8319
1583.74	84.0825
1585.29	85.086
1586.83	86.2701
1588.38	86.2878
1589.92	86.7297
1591.46	87.0973
1593.01	87.1126
1594.55	86.7314
1596.09	85.9363
1597.63	84.2512
1599.17	82.807
1600.71	80.7687
1602.25	79.1371
1603.79	77.4985
1605.34	75.6968
1606.88	74.2365
1608.41	73.5034
1609.95	72.2867
1611.49	71.7803
1613.03	71.0576
1614.57	69.0685
1616.11	67.8058
1617.65	66.8684
1619.18	65.7925
1620.72	65.1663
1622.26	65.0703
1623.79	64.7815
1625.33	65.2459
1626.87	65.111
1628.4	65.898
1629.94	65.8543
1631.48	65.4083
1633.01	64.9932
1634.55	64.6559
1636.08	65.8135
1637.61	65.928
1639.15	65.6607
1640.68	66.4284
1642.21	67.7462
1643.75	68.4755
1645.28	69.6238
1646.81	71.2731
1648.34	71.8124
1649.88	72.8049
1651.41	73.8248
1652.94	74.3514
1654.47	75.1409
1656	76.0229
1657.53	76.1301
1659.06	75.4642
1660.59	74.5523
1662.12	73.9076
1663.65	73.6268
1665.18	72.3468
1666.71	71.2329
1668.24	69.4397
1669.76	67.4312
1671.29	64.4865
1672.82	61.8819
1674.35	59.2413
1675.87	56.6112
1677.4	54.2588
1678.93	52.1706
1680.45	49.6786
1681.98	47.3783
1683.5	45.4543
1685.03	43.0549
1686.55	40.0793
1688.08	37.4165
1689.6	34.2474
1691.13	32.1809
1692.65	30.7434
1694.17	28.5877
1695.7	26.3385
1697.22	24.7921
1698.74	23.7737
1700.27	22
1701.79	20.2929
1703.31	17.8358
1704.83	16.0192
1706.35	13.8968
1707.87	12.2689
1709.39	11.1571
1710.91	10.5701
1712.43	10.5397
1713.95	8.71216
1715.47	7.68313
1716.99	8.4679
1718.51	8.72902
1720.03	8.5995
1721.55	8.12105
1723.07	7.9281
1724.58	6.93109
1726.1	7.07699
1727.62	7.64796
1729.13	7.46058
1730.65	8.58851
1732.17	7.81505
1733.68	7.80568
1735.2	6.83914
1736.72	7.35731
1738.23	7.58896
1739.74	8.0015
1741.26	7.46396
1742.77	7.0897
1744.29	7.13682
1745.8	7.33328
1747.32	6.79469
1748.83	6.80256
1750.34	6.54734
1751.85	6.53571
1753.37	6.50837
1754.88	5.90619
1756.39	6.28876
1757.9	6.28557
1759.41	5.53043
1760.92	5.50438
1762.44	4.73395
1763.95	4.61452
1765.46	5.11787
1766.96	5.22653
1768.47	4.56062
1769.98	3.64284
1771.49	3.5365
1773	3.09533
1774.51	2.50833
1776.02	1.48838
1777.53	0.842342
1779.03	0.329718
1780.54	0.219379
1782.05	0.357859
1783.55	0.484322
1785.06	0.584781
1786.57	1.18919
1788.07	1.48931
1789.58	0.981233
1791.08	1.4287
1792.59	2.45591
1794.09	2.26825
1795.6	1.9535
1797.1	1.86239
1798.61	2.55803
1800.11	3.34775
1801.61	3.77956
1803.12	4.01849
1804.62	4.59886
1806.12	4.78477
1807.62	4.79867
1809.12	5.30401
1810.63	5.40786
1812.13	6.35594
1813.63	6.71505
1815.13	7.23064
1816.63	7.79251
1818.13	7.93727
1819.63	8.52424
1821.13	8.02465
1822.63	7.912
1824.13	7.94072
1825.63	7.99535
1827.13	8.2881
1828.62	8.47134
1830.12	8.3919
1831.62	8.65748
1833.12	8.46063
1834.61	8.19974
1836.11	8.67478
1837.61	8.57991
1839.1	8.8945
1840.6	8.42971
1842.09	7.46995
1843.59	6.88961
1845.09	6.14588
1846.58	5.58668
1848.08	5.36359
1849.57	5.46217
1851.06	5.43732
1852.56	5.13408
1854.05	5.2888
1855.54	5.12373
1857.04	4.72798
1858.53	4.94446
1860.02	5.35257
1861.51	4.80643
1863.01	4.2414
1864.5	4.19395
1865.99	4.14066
1867.48	4.46413
1868.97	3.51405
1870.46	3.23655
1871.95	3.40017
1873.44	3.59325
1874.93	3.4583
1876.42	3.33209
1877.91	3.68385
1879.4	3.6143
1880.89	2.74184
1882.37	3.08609
1882.46	3.10879
1883.95	3.6227
1885.45	4.42719
1886.94	5.09029
1888.43	5.3211
1889.93	5.0609
1891.42	5.08736
1892.91	5.45257
1894.41	5.88923
1895.9	6.27452
1897.39	6.65111
1898.88	7.09885
1900.37	7.59768
1901.86	7.5777
1903.36	7.57777
1904.85	7.39587
1906.34	7.55243
1907.83	7.44242
1909.32	7.67487
1910.81	7.35873
1912.29	6.49323
1913.78	6.21195
1915.27	6.01745
1916.76	5.84187
1918.25	5.55407
1919.74	5.66431
1921.23	5.99523
1922.71	5.91707
1924.2	6.04156
1925.69	6.312
1927.17	6.34792
1928.66	6.23919
1930.15	5.99199
1931.63	6.92482
1933.12	7.4714
1934.6	7.2258
1936.09	8.48905
1937.57	9.01917
1939.06	9.22388
1940.54	9.35869
1942.02	9.02547
1943.51	9.44614
1944.99	9.68168
1946.47	9.5885
1947.96	9.08212
1949.44	9.23904
1950.92	9.30426
1952.4	9.30241
1953.88	9.66829
1955.37	10.6216
1956.85	10.8112
1958.33	11.2192
1959.81	11.4779
1961.29	11.094
1962.77	10.2611
1964.25	10.4622
1965.73	10.9517
1967.21	10.9353
1968.69	11.5667
1970.16	11.2026
1971.64	11.3337
1973.12	11.1803
1974.6	10.7939
1976.08	10.0902
1977.55	9.49934
1979.03	8.8458
1980.51	8.85119
1981.98	7.87146
1983.46	7.27595
1984.94	6.55067
1986.41	5.53521
1987.89	5.39874
1989.36	4.6229
1990.84	4.42062
1992.31	4.25381
1993.79	4.18653
1995.26	3.87127
1996.73	4.22802
1998.21	4.85618
1999.68	4.81579
2001.15	4.60519
2002.63	5.08678
2004.1	5.51286
2005.57	6.47004
2007.04	6.21712
2008.51	5.58752
2009.99	6.5049
2011.46	6.4543
2012.93	6.39549
2014.4	6.08636
2015.87	6.37157
2017.34	6.50487
2018.81	7.28676
2020.28	7.56269
2021.75	7.93696
2023.21	8.95526
2024.68	9.1533
2026.15	9.63355
2027.62	10.0919
2029.09	9.91128
2030.56	10.0727
2032.02	10.5767
2033.49	10.8061
2034.96	10.9204
2036.42	11.2273
2037.89	11.8232
2039.36	11.8026
2040.82	11.9217
2042.29	12.5036
2043.75	11.6646
2045.22	11.4831
2046.68	11.3457
2048.14	11.4251
2049.61	11.7166
2051.07	11.7578
2052.54	11.4344
2054	11.5132
2055.46	10.8378
2056.93	10.3765
2058.39	10.5867
2059.85	10.8438
2061.31	11.348
2062.77	11.3834
2064.23	11.2075
2065.7	11.4199
2067.16	11.6389
2068.62	11.4775
2070.08	11.6879
2071.54	11.7208
2073	11.718
2074.46	11.8327
2075.92	12.5491
2077.38	13.1838
2078.83	13.1099
2080.29	13.1975
2081.75	13.4165
2083.21	14.0959
2084.67	13.9802
2086.12	14.3122
2087.58	14.0817
2089.04	14.6425
2090.49	14.4154
2091.95	14.8655
2093.41	14.5217
2094.86	14.0563
2096.32	14.1003
2097.77	13.5601
2099.23	13.573
2100.68	13.4542
2102.14	13.3964
2103.59	13.3837
2105.05	13.3944
2106.5	13.4345
2107.95	13.7103
2109.41	13.9728
2110.86	13.9006
2112.31	14.3757
2113.76	15.211
2115.21	15.9535
2116.67	16.1713
2118.12	16.8183
2119.57	17.9282
2121.02	18.1764
2122.47	18.3963
2123.92	18.6356
2125.37	19.2281
2126.82	20.1016
2128.27	20.6092
2129.72	21.3049
2131.17	22.5504
2132.62	23.0143
2134.07	24.4345
