#Acq. time (s)=	45
#Accumulations=	2
#Range (cm-¹)=	200...3150
#Windows=	2
#Auto scanning=	Off
#Autofocus=	Off
#Macrospot=	Off
#AutoExposure=	Off
#Spike filter=	Multiple accum.
#Delay time (s)=	0
#Binning=	1
#Readout mode=	Signal
#DeNoise=	Off
#ICS correction=	On
#Dark correction=	Off
#Inst. Process=	Off
#Detector Gain=	Best Dynamic Range
#Detector ADC=	20 kHz       
#Detector temperature (°C)=	-69.85
#Instrument=	LabRAM HR Evol
#Detector=	Synapse
#Objective=	x100
#Grating=	600 gr/mm
#ND Filter=	100%
#Laser (nm)=	532 
#Hole=	100.021
#Range=	Auto
#Laser Pol.=	No
#Raman. Pol.=	No
#Laser Pol. (°)=	-0.0007625
#Raman Pol. (°)=	89.9995
#Collection=	Microscope
#StageXY=	Marzhauser
#StageZ=	Marzhauser
#X (µm)=	252.4
#Y (µm)=	1686.6
#Z (µm)=	427.5
#Full time(mm:ss)=	3:18
#Project=	
#Sample=	
#Site=	
#Title=	Thy_40_11_42_2x_45s_532 nm_x100_100%_600 gr_mm
#Remark=	
#Date=	05.07.2022 12:59
#Acquired=	05.07.2022 12:59:14
#Base:Fit=	10.08.2022 10:01:35
#Base:Sub=	10.08.2022 10:01:52
#Filter:Polynom=	16.08.2022 10:21:53
#AxisType[0]=Intens
#AxisUnit[0]=Cnt
#AxisType[1]=Spectr
#AxisUnit[1]=1/cm
200.43	11.0626
202.244	13.1604
204.059	15.5182
205.873	17.4128
207.688	18.2314
209.501	18.3149
211.314	17.8279
213.127	16.7651
214.941	16.6212
216.753	15.1963
218.564	14.9032
220.375	14.9021
222.186	14.9317
223.999	14.9219
225.809	14.2584
227.618	13.679
229.428	13.5293
231.236	12.8162
233.045	12.5449
234.855	12.743
236.663	12.5827
238.471	13.3459
240.278	13.1201
242.085	13.7753
243.891	13.773
245.698	13.3677
247.503	13.2307
249.309	13.5212
251.116	13.1772
252.921	13.8108
254.725	13.1591
256.529	12.8261
258.333	13.3337
260.136	13.4187
261.939	12.3002
263.742	12.8386
265.544	13.3275
267.346	14.1636
269.148	13.9648
270.949	14.4213
272.75	15.3229
274.55	15.5902
276.351	15.9146
278.15	15.9563
279.95	16.5727
281.749	16.7426
283.548	17.1899
285.346	17.2545
287.144	16.9225
288.942	17.0222
290.739	16.7986
292.536	15.9494
294.333	15.0603
296.129	14.3633
297.925	13.9146
299.721	12.8599
301.514	13.5285
303.309	14.2267
305.104	14.8388
306.898	14.5192
308.692	15.0518
310.486	14.6609
312.279	14.2156
314.072	13.8389
315.862	13.4582
317.654	13.4847
319.446	13.7889
321.238	14.0551
323.029	15.1744
324.819	15.7714
326.608	16.0729
328.398	16.2028
330.188	15.4898
331.977	16.2524
333.766	15.5679
335.553	15.6253
337.341	16.4328
339.129	16.7022
340.917	15.9561
342.704	16.2996
344.489	16.1426
346.275	17.0351
348.062	17.727
349.845	17.1398
351.631	16.9334
353.416	18.0214
355.201	18.5523
356.984	18.6998
358.768	17.4621
360.552	17.1376
362.333	17.1116
364.116	16.1961
365.899	15.3022
367.68	14.6367
369.462	14.8924
371.243	14.5037
373.023	13.8152
374.804	13.3569
376.585	12.6843
378.363	11.9673
380.143	11.7241
381.923	10.4231
383.7	10.4002
385.479	10.0092
387.256	9.8415
389.034	9.77921
390.812	10.056
392.588	9.13539
394.365	8.2696
396.14	7.70364
397.916	7.59007
399.691	7.16443
401.467	7.11788
403.24	7.57507
405.015	7.40628
406.788	7.27993
408.563	7.33193
410.335	6.96084
412.109	6.44164
413.88	5.72238
415.654	5.14492
417.424	4.91716
419.197	5.10086
420.967	4.7629
422.739	4.53351
424.508	5.28311
426.279	5.07781
428.048	4.79259
429.819	4.50984
431.587	5.21872
433.356	5.21854
435.124	4.77092
436.891	4.63311
438.66	3.91552
440.426	3.55381
442.194	3.54907
443.96	3.01202
445.725	2.66714
447.492	2.89924
449.257	3.24461
451.021	3.8164
452.787	3.70887
454.551	3.89395
456.314	4.5527
458.079	4.88319
459.842	4.80377
461.604	5.28302
463.368	6.23431
465.13	6.63094
466.891	7.21749
468.654	8.10089
470.415	8.87877
472.175	10.0335
473.935	10.4178
475.696	11.7113
477.456	12.1596
479.215	12.2335
480.973	12.8459
482.733	13.6389
484.491	14.3702
486.249	14.7347
488.006	14.18
489.765	14.8408
491.522	15.2487
493.278	14.8523
495.034	15.1768
496.789	15.541
498.544	15.8798
500.301	15.8387
502.056	16.0099
503.81	15.7557
505.564	15.9451
507.317	15.0994
509.071	14.7318
510.825	15.0563
512.578	14.7995
514.33	14.2725
516.082	13.9234
517.833	12.9594
519.585	12.5012
521.335	12.1436
523.086	11.938
524.836	11.8956
526.586	11.8507
528.335	11.4903
530.085	11.3635
531.835	11.2477
533.584	11.1585
535.332	10.9136
537.08	10.3896
538.827	9.54444
540.574	9.78163
542.321	8.84821
544.068	8.81784
545.814	8.242
547.56	7.60593
549.305	7.5851
551.05	6.82285
552.795	6.24005
554.54	5.44377
556.282	5.60071
558.025	5.48324
559.769	5.42921
561.512	4.9921
563.255	4.67754
564.997	3.36455
566.739	2.73173
568.481	2.51089
570.223	2.66055
571.964	3.18423
573.705	2.55236
575.443	2.29703
577.183	2.88528
578.923	3.48992
580.663	3.51203
582.402	3.72721
584.141	3.53703
585.879	3.07057
587.615	2.23259
589.353	1.90504
591.09	1.7074
592.828	1.3422
594.564	1.28431
596.299	1.91577
598.035	1.73228
599.771	1.86005
601.506	2.1252
603.242	2.06538
604.974	2.79838
606.709	3.96371
608.443	4.79073
610.177	5.21806
611.908	5.89107
613.642	6.08197
615.374	5.97261
617.105	6.56955
618.837	7.07832
620.569	7.89447
622.3	8.29142
624.03	8.41969
625.761	9.00924
627.491	9.97574
629.219	9.88171
630.949	10.4041
632.677	9.84358
634.406	9.67105
636.135	10.032
637.861	10.2072
639.59	10.8233
641.318	11.4393
643.043	12.1927
644.77	12.3103
646.495	13.1413
648.222	12.5092
649.948	12.7804
651.672	13.6163
653.398	14.3956
655.121	15.0649
656.846	16.6258
658.569	16.9288
660.293	17.1648
662.015	18.3331
663.738	19.1118
665.46	18.7602
667.183	18.9182
668.903	19.5096
670.626	20.3448
672.346	20.6641
674.067	21.254
675.787	22.4762
677.508	23.5467
679.226	24.3477
680.947	26.2469
682.665	27.0006
684.385	28.0773
686.102	29.1438
687.821	30.6218
689.538	31.7743
691.254	32.762
692.972	34.0707
694.688	35.0687
696.406	36.0584
698.121	36.7175
699.835	37.3602
701.552	37.6669
703.266	37.8538
704.98	38.5973
706.695	39.497
708.409	39.9359
710.121	41.2082
711.836	41.4402
713.548	41.7988
715.26	41.8685
716.973	41.4265
718.685	40.7863
720.396	41.2337
722.108	41.7463
723.818	41.5106
725.528	41.8901
727.238	42.0922
728.949	41.7663
730.658	42.1611
732.367	42.2777
734.075	41.8982
735.785	42.4688
737.493	42.3025
739.2	42.2795
740.907	43.0101
742.614	43.3327
744.322	42.4989
746.028	43.3863
747.734	44.1876
749.439	45.0242
751.144	46.0784
752.849	48.0848
754.555	48.9634
756.26	50.1555
757.963	51.4131
759.667	52.6484
761.37	54.6871
763.073	55.462
764.775	56.6529
766.477	58.4213
768.179	58.9922
769.883	59.875
771.584	61.3285
773.285	62.7797
774.986	64.1907
776.686	65.6086
778.386	66.6457
780.085	67.1473
781.785	68.283
783.484	69.4212
785.182	70.3228
786.881	71.1368
788.579	73.2114
790.276	74.6455
791.974	75.6073
793.671	76.6618
795.367	76.7688
797.064	77.7165
798.76	78.0093
800.456	78.3431
802.151	78.2783
803.846	78.4872
805.541	79.1879
807.234	78.8688
808.928	78.2923
810.622	79.0892
812.315	79.1826
814.008	78.5934
815.701	78.5048
817.394	77.5954
819.086	77.5043
820.778	77.393
822.468	77.1781
824.159	77.6001
825.85	76.964
827.541	77.0767
829.231	76.613
830.921	77.492
832.609	77.3669
834.298	76.6526
835.987	76.1929
837.676	75.3407
839.364	74.6751
841.051	74.6434
842.738	73.8846
844.426	72.9373
846.113	72.8469
847.798	71.33
849.484	70.6748
851.171	69.659
852.857	68.2266
854.54	67.049
856.226	66.8803
857.911	65.1788
859.593	64.7764
861.278	64.0205
862.961	62.5453
864.645	61.3206
866.327	60.5255
868.01	58.9883
869.692	57.8327
871.373	57.3255
873.055	56.7474
874.735	54.55
876.416	54.0634
878.097	53.1979
879.776	52.4291
881.457	52.543
883.135	50.912
884.815	50.5139
886.495	49.5541
888.172	49.097
889.851	48.5625
891.528	47.9154
893.206	47.7667
894.882	47.752
896.56	47.6333
898.237	46.7034
899.912	47.2774
901.589	47.1229
903.263	47.3072
904.94	47.1297
906.614	46.9311
908.289	46.6875
909.962	46.5795
911.635	47.3828
913.31	47.0388
914.982	47.124
916.656	46.2228
918.328	46.0788
920.001	45.6788
921.672	44.4148
923.345	44.6484
925.015	44.3929
926.685	43.7483
928.357	44.0888
930.026	43.7326
931.698	43.2578
933.366	42.6181
935.035	42.2482
936.705	41.3783
938.373	40.6171
940.041	40.4029
941.71	39.5545
943.377	39.6852
945.044	38.0576
946.712	36.844
948.378	35.6098
950.044	35.9031
951.709	35.8325
953.376	35.5508
955.041	35.2401
956.706	34.885
958.372	33.9978
960.036	34.3202
961.699	33.1911
963.362	33.5366
965.027	33.7716
966.69	33.8814
968.352	34.1906
970.014	33.3026
971.676	32.9123
973.339	32.8898
975	32.6461
976.661	32.1388
978.322	31.8662
979.982	31.9323
981.642	31.2695
983.303	31.2344
984.962	30.6878
986.621	30.3265
988.28	30.1206
989.938	29.5057
991.596	28.9044
993.254	28.5842
994.911	27.4479
996.57	26.6512
998.227	25.9294
999.884	24.8934
1001.54	24.1334
1003.2	23.623
1004.85	23.3355
1006.51	23.8314
1008.16	23.6759
1009.82	23.9193
1011.47	23.856
1013.12	23.4265
1014.78	23.5489
1016.43	23.6852
1018.08	23.975
1019.74	23.8013
1021.39	24.3624
1023.04	25.2098
1024.69	24.9267
1026.34	25.1283
1028	25.1633
1029.65	26.0603
1031.3	26.6219
1032.95	27.8393
1034.6	27.766
1036.25	27.4396
1037.9	27.4655
1039.54	27.3847
1041.19	27.8406
1042.84	28.4938
1044.49	28.8075
1046.14	30.0714
1047.78	29.9085
1049.43	29.3874
1051.08	28.2711
1052.72	27.2691
1054.37	26.6243
1056.02	26.1709
1057.66	25.6311
1059.31	25.211
1060.95	25.7517
1062.6	25.4109
1064.24	24.6793
1065.88	23.3828
1067.53	22.8282
1069.17	21.658
1070.81	20.935
1072.45	19.9006
1074.1	19.3159
1075.74	18.4327
1077.38	17.6888
1079.02	16.9671
1080.66	15.7873
1082.3	14.9587
1083.94	15.0181
1085.58	14.8579
1087.22	14.3914
1088.86	14.8332
1090.5	14.0722
1092.14	13.3596
1093.78	12.8615
1095.42	12.5758
1097.05	12.4965
1098.69	12.5571
1100.33	11.9666
1101.96	11.972
1103.6	11.9526
1105.24	12.4606
1106.87	11.7101
1108.51	12.2509
1110.14	12.7493
1111.78	12.3139
1113.41	12.0988
1115.05	11.6253
1116.68	11.6657
1118.31	12.0175
1119.95	11.6756
1121.58	11.3598
1123.21	11.6923
1124.85	11.3472
1126.48	11.6811
1128.11	10.7982
1129.74	10.4886
1131.37	10.6567
1133	10.8784
1134.63	11.0565
1136.26	10.6168
1137.89	11.5864
1139.52	12.4909
1141.15	13.3232
1142.78	12.5914
1144.41	11.7872
1146.04	11.1024
1147.66	10.9645
1149.29	10.6964
1150.92	10.6966
1152.55	10.7661
1154.17	10.1074
1155.8	10.3688
1157.43	9.77782
1159.05	9.62628
1160.68	9.61476
1162.3	9.30781
1163.93	9.22945
1165.55	8.51838
1167.17	6.98224
1168.8	6.16502
1170.42	5.75219
1172.05	4.38644
1173.67	4.43807
1175.29	4.09859
1176.91	4.36652
1178.54	4.13706
1180.16	4.35351
1181.78	4.33802
1183.4	4.82554
1185.02	4.56009
1186.64	4.86334
1188.26	5.012
1189.88	5.05801
1191.5	5.09385
1193.12	4.62597
1194.74	5.07398
1196.36	5.73279
1197.97	6.51175
1199.59	6.52186
1201.21	6.34681
1202.83	7.35952
1204.44	8.76599
1206.06	9.59429
1207.68	10.8817
1209.29	11.7617
1210.91	13.2776
1212.52	14.8345
1214.14	16.3277
1215.75	17.6049
1217.37	18.8807
1218.98	21.0364
1220.59	22.5957
1222.21	23.9105
1223.82	23.84
1225.43	26.4253
1227.05	27.5506
1228.66	28.8657
1230.27	29.8732
1231.88	31.3845
1233.49	32.1916
1235.1	33.277
1236.72	34.6988
1238.33	34.6479
1239.94	35.6363
1241.55	36.3677
1243.16	35.6762
1244.76	35.3486
1246.37	35.6158
1247.98	36.2726
1249.59	37.0626
1251.2	37.8987
1252.8	38.3794
1254.41	39.0331
1256.02	39.238
1257.62	39.9875
1259.23	40.543
1260.84	41.2137
1262.44	40.48
1264.05	40.2468
1265.66	40.4557
1267.26	41.189
1268.86	40.6922
1270.47	39.8424
1272.07	40.1854
1273.67	40.2958
1275.28	40.7953
1276.88	40.4753
1278.48	40.423
1280.09	39.7272
1281.69	39.278
1283.29	39.8704
1284.89	40.2333
1286.49	40.2687
1288.09	40.8878
1289.69	40.8815
1291.29	41.2848
1292.89	41.3013
1294.49	42.1866
1296.09	41.8481
1297.69	42.461
1299.29	43.1743
1300.89	43.3492
1302.49	43.8512
1304.08	43.8206
1305.68	44.4249
1307.28	44.3976
1308.88	44.7254
1310.47	45.0628
1312.07	45.5444
1313.66	45.8826
1315.26	46.002
1316.85	46.2591
1318.45	46.2451
1320.04	46.6302
1321.64	46.3888
1323.23	45.8461
1324.83	46.621
1326.42	47.5712
1328.01	48.3089
1329.61	47.8104
1331.2	48.0582
1332.79	47.9737
1334.38	48.1877
1335.97	48.6246
1337.56	49.0419
1339.16	48.4836
1340.75	47.323
1342.34	46.8352
1343.93	46.8846
1345.52	47.7296
1347.11	46.3447
1348.7	45.8773
1350.29	45.5231
1351.87	44.4303
1353.46	43.1873
1355.05	41.8671
1356.64	39.8524
1358.22	38.7128
1359.81	36.9285
1361.4	36.5782
1362.98	36.6887
1364.57	35.3001
1366.16	33.6009
1367.74	32.5278
1369.33	31.3878
1370.91	30.9648
1372.5	29.1129
1374.08	29.1762
1375.67	27.7537
1377.25	27.8823
1378.83	26.8952
1380.41	26.5069
1382	25.7588
1383.58	25.714
1385.16	25.4349
1386.74	25.6019
1388.33	25.0943
1389.91	24.8187
1391.49	24.7997
1393.07	23.8294
1394.65	23.5158
1396.23	24.1697
1397.81	23.934
1399.39	23.3026
1400.97	22.8686
1402.55	22.844
1404.13	23.1931
1405.7	23.3425
1407.28	23.8402
1408.86	23.4936
1410.44	24.6088
1412.01	25.4746
1413.59	26.4504
1415.17	27.4037
1416.74	27.7371
1418.32	27.9821
1419.89	29.6129
1421.47	31.1222
1423.04	32.3464
1424.62	33.907
1426.19	34.342
1427.77	36.7188
1429.34	37.6053
1430.91	38.4865
1432.49	40.3843
1434.06	41.6368
1435.63	42.4656
1437.2	43.7758
1438.78	44.8064
1440.35	46.4817
1441.92	47.0791
1443.49	47.3006
1445.06	48.2724
1446.63	48.9813
1448.2	49.1218
1449.77	49.6119
1451.34	48.6759
1452.91	48.7515
1454.48	48.8203
1456.05	48.7354
1457.62	48.0645
1459.18	47.5117
1460.75	46.6995
1462.32	46.3789
1463.89	44.6887
1465.45	44.1146
1467.02	42.9246
1468.59	42.3867
1470.15	41.0656
1471.72	38.8726
1473.28	37.841
1474.85	36.1284
1476.41	34.1685
1477.98	32.3011
1479.54	30.513
1481.1	29.4825
1482.67	28.2121
1484.23	26.4677
1485.79	24.8185
1487.36	23.4968
1488.92	22.8748
1490.48	22.1161
1492.04	21.0081
1493.61	20.535
1495.17	19.7196
1496.73	19.1124
1498.29	19.2686
1499.85	19.1403
1501.41	19.0785
1502.97	18.9361
1504.53	18.9195
1506.09	18.7615
1507.65	18.2787
1509.2	17.994
1510.76	17.6038
1512.32	17.1312
1513.88	17.0399
1515.43	17.3487
1516.99	17.2295
1518.55	17.8937
1520.1	18.9004
1521.66	19.6225
1523.22	20.1026
1524.77	20.1543
1526.33	20.05
1527.88	20.5637
1529.44	20.3759
1530.99	22.2571
1532.54	23.638
1534.1	23.466
1535.65	24.065
1537.21	24.3446
1538.76	24.6678
1540.31	25.2844
1541.86	26.173
1543.42	27.7045
1544.97	28.4082
1546.52	29.1737
1548.07	28.8637
1549.62	29.5508
1551.17	30.7078
1552.72	31.1603
1554.27	31.5585
1555.82	31.5083
1557.37	32.6967
1558.92	33.91
1560.47	33.5806
1562.02	33.7763
1563.56	34.8426
1565.11	35.791
1566.66	36.2113
1568.21	36.4708
1569.75	36.2625
1571.3	36.8804
1572.85	37.211
1574.39	37.8817
1575.94	38.9312
1577.49	39.8425
1579.03	40.3552
1580.57	41.5356
1582.12	42.2636
1583.66	43.1067
1585.21	43.9459
1586.75	44.7269
1588.3	44.7412
1589.84	46.0719
1591.38	47.063
1592.92	47.7131
1594.47	48.6586
1596.01	50.2104
1597.55	50.8646
1599.09	50.6444
1600.63	50.8594
1602.17	50.3267
1603.71	49.3146
1605.25	49.7896
1606.79	50.0543
1608.33	50.3508
1609.87	49.8009
1611.41	49.1275
1612.95	49.0317
1614.49	48.1153
1616.03	47.8589
1617.57	48.065
1619.1	48.2372
1620.64	48.4622
1622.18	48.8398
1623.72	48.5578
1625.25	47.963
1626.79	47.622
1628.32	46.8111
1629.86	46.4675
1631.39	45.9158
1632.93	46.7618
1634.46	47.4455
1636	46.8031
1637.53	47.1887
1639.07	47.8733
1640.6	48.2779
1642.13	48.0247
1643.67	47.6514
1645.2	47.9843
1646.73	49.2541
1648.26	50.1937
1649.8	50.5375
1651.33	51.0383
1652.86	51.6803
1654.39	52.4109
1655.92	53.41
1657.45	53.8124
1658.98	53.0563
1660.51	52.5571
1662.04	52.0655
1663.57	51.2612
1665.1	49.9477
1666.63	49.9481
1668.16	49.3242
1669.68	48.2643
1671.21	48.1021
1672.74	46.8565
1674.27	45.2353
1675.79	43.674
1677.32	41.9502
1678.85	39.983
1680.37	38.1053
1681.9	37.2528
1683.42	35.6747
1684.95	34.789
1686.47	33.2783
1688	31.0069
1689.52	29.1228
1691.05	27.357
1692.57	26.6097
1694.09	24.9727
1695.62	23.4802
1697.14	22.0925
1698.66	20.6928
1700.18	18.7262
1701.71	17.2686
1703.23	16.8878
1704.75	16.1431
1706.27	16.0597
1707.79	15.2712
1709.31	15.2512
1710.83	14.4091
1712.35	14.2412
1713.87	13.8461
1715.39	12.9175
1716.91	12.5557
1718.43	11.9641
1719.95	11.7679
1721.47	12.074
1722.99	11.831
1724.5	11.4589
1726.02	10.9004
1727.54	11.3646
1729.06	11.5331
1730.57	11.3388
1732.09	11.3961
1733.61	10.2645
1735.12	9.64268
1736.64	9.19944
1738.15	9.47098
1739.67	9.40686
1741.18	9.35514
1742.7	9.87662
1744.21	9.92976
1745.72	9.5617
1747.24	9.75384
1748.75	8.70671
1750.26	8.12375
1751.77	7.31193
1753.29	6.98733
1754.8	6.31372
1756.31	5.65238
1757.82	5.60499
1759.33	5.35413
1760.84	5.218
1762.36	4.28073
1763.87	3.78526
1765.38	3.98464
1766.89	3.35655
1768.4	3.26282
1769.91	2.55651
1771.41	2.63751
1772.92	2.84137
1774.43	3.27892
1775.94	3.17171
1777.45	3.09552
1778.95	3.14106
1780.46	2.97495
1781.97	3.05806
1783.48	2.88264
1784.98	3.18433
1786.49	3.51783
1787.99	3.73074
1789.5	3.37071
1791.01	3.51444
1792.51	3.14886
1794.01	2.87079
1795.52	2.49306
1797.02	2.43499
1798.53	2.66932
1800.03	2.99195
1801.53	2.61602
1803.04	2.97481
1804.54	3.24876
1806.04	3.28755
1807.54	3.78065
1809.05	3.8575
1810.55	4.43275
1812.05	4.7179
1813.55	5.0889
1815.05	4.71181
1816.55	4.57864
1818.05	4.75045
1819.55	4.79758
1821.05	4.53714
1822.55	4.66068
1824.05	4.18013
1825.55	3.75352
1827.05	3.34127
1828.55	3.4953
1830.04	3.42454
1831.54	3.592
1833.04	3.6377
1834.54	3.74365
1836.03	4.33357
1837.53	4.17277
1839.03	4.67714
1840.52	4.86062
1842.02	4.52843
1843.51	4.95392
1845.01	4.84342
1846.5	4.68265
1848	4.72851
1849.49	4.77575
1850.99	4.48213
1852.48	4.13748
1853.97	4.40693
1855.47	4.60246
1856.96	3.9776
1858.45	4.3412
1859.94	4.15212
1861.44	4.4209
1862.93	3.71407
1864.42	3.44695
1865.91	3.38014
1867.4	3.15924
1868.89	2.96236
1870.38	3.0444
1871.87	3.4998
1873.36	3.77327
1874.85	3.67221
1876.34	3.45119
1877.83	3.73044
1879.32	4.29014
1880.81	4.35781
1882.3	4.23277
1882.57	3.82008
1884.07	3.23522
1885.56	3.17218
1887.06	2.98343
1888.55	2.62756
1890.04	2.51225
1891.54	2.12063
1893.03	1.60187
1894.52	0.986482
1896.02	0.645605
1897.51	-0.161842
1899	-0.271014
1900.49	-0.285125
1901.98	-0.200468
1903.47	0.239873
1904.96	0.327678
1906.45	0.54418
1907.94	0.476107
1909.43	0.738657
1910.92	1.06332
1912.41	1.2378
1913.9	1.13221
1915.39	1.11116
1916.88	1.3118
1918.37	1.3556
1919.85	1.40172
1921.34	1.62942
1922.83	1.68793
1924.32	1.12114
1925.8	1.15409
1927.29	1.9604
1928.78	1.67398
1930.26	1.70618
1931.75	2.02281
1933.23	2.58874
1934.72	3.02786
1936.2	2.98556
1937.69	3.62925
1939.17	4.02373
1940.66	4.48796
1942.14	4.54596
1943.63	4.81206
1945.11	5.36098
1946.59	5.06417
1948.07	4.97304
1949.56	5.17305
1951.04	5.63507
1952.52	6.03305
1954	5.47841
1955.48	4.79276
1956.96	4.43767
1958.45	4.92894
1959.93	5.36476
1961.41	4.9607
1962.89	4.34616
1964.37	4.06939
1965.85	3.73839
1967.32	3.45087
1968.8	3.28756
1970.28	3.16904
1971.76	3.12551
1973.24	3.66734
1974.72	3.74806
1976.19	4.07613
1977.67	4.08774
1979.15	3.79459
1980.63	3.72911
1982.1	3.85151
1983.58	4.04416
1985.05	4.10534
1986.53	3.36649
1988	3.10595
1989.48	2.72122
1990.95	2.95308
1992.43	2.67183
1993.9	2.68914
1995.38	2.49089
1996.85	2.7851
1998.32	2.86747
1999.8	2.64647
2001.27	2.71803
2002.74	2.25937
2004.22	2.38619
2005.69	2.58655
2007.16	3.15554
2008.63	2.9838
2010.1	3.21514
2011.57	3.3509
2013.04	3.22661
2014.51	3.0893
2015.98	2.90728
2017.45	3.38278
2018.92	3.6848
2020.39	3.2686
2021.86	3.67819
2023.33	3.69406
2024.8	3.60924
2026.27	3.84655
2027.74	3.572
2029.2	4.09436
2030.67	4.57951
2032.14	4.95521
2033.61	4.82759
2035.07	4.74883
2036.54	5.04745
2038.01	5.49356
2039.47	5.51648
2040.94	5.38679
2042.4	5.82169
2043.87	6.22199
2045.33	6.4715
2046.8	6.74013
2048.26	6.95016
2049.72	7.3479
2051.19	7.39684
2052.65	8.35055
2054.12	8.71123
2055.58	8.99094
2057.04	9.30458
2058.5	9.45253
2059.97	9.61069
2061.43	10.1808
2062.89	11.0399
2064.35	11.2017
2065.81	11.0736
2067.27	11.3819
2068.73	11.1177
2070.19	11.4058
2071.65	11.0736
2073.11	10.7216
2074.57	11.4631
2076.03	11.8487
2077.49	12.3186
2078.95	12.6396
2080.41	12.4704
2081.87	12.2811
2083.32	12.1018
2084.78	11.8287
2086.24	11.9662
2087.7	12.0191
2089.15	12.4347
2090.61	12.8466
2092.07	12.6088
2093.52	12.473
2094.98	12.7188
2096.43	12.6597
2097.89	13.0534
2099.34	13.5621
2100.8	13.8482
2102.25	14.8841
2103.71	15.3037
2105.16	15.0174
2106.61	15.8745
2108.07	16.0821
2109.52	16.9709
2110.97	16.9829
2112.43	17.0898
2113.88	17.3933
2115.33	18.2467
2116.78	18.0953
2118.23	18.3797
2119.68	19.1621
2121.13	19.9488
2122.59	20.9752
2124.04	21.6129
2125.49	23.1785
2126.94	23.8345
2128.39	24.1896
2129.83	25.0303
2131.28	25.2949
2132.73	26.1929
2134.18	27.0108
2135.63	27.7095
