#Acq. time (s)=	45
#Accumulations=	2
#Range (cm-¹)=	200...3150
#Windows=	2
#Auto scanning=	Off
#Autofocus=	Off
#Macrospot=	Off
#AutoExposure=	Off
#Spike filter=	Multiple accum.
#Delay time (s)=	0
#Binning=	1
#Readout mode=	Signal
#DeNoise=	Off
#ICS correction=	On
#Dark correction=	Off
#Inst. Process=	Off
#Detector Gain=	Best Dynamic Range
#Detector ADC=	20 kHz       
#Detector temperature (°C)=	-69.85
#Instrument=	LabRAM HR Evol
#Detector=	Synapse
#Objective=	x100
#Grating=	600 gr/mm
#ND Filter=	100%
#Laser (nm)=	532 
#Hole=	100.021
#Range=	Auto
#Laser Pol.=	No
#Raman. Pol.=	No
#Laser Pol. (°)=	-0.0007625
#Raman Pol. (°)=	89.9995
#Collection=	Microscope
#StageXY=	Marzhauser
#StageZ=	Marzhauser
#X (µm)=	8967.2
#Y (µm)=	-3068.2
#Z (µm)=	-54.85
#Full time(mm:ss)=	3:19
#Project=	
#Sample=	
#Site=	
#Title=	Thy_00_07_35_2x_45s_532 nm_x100_100%_600 gr_mm
#Remark=	
#Date=	28.06.2022 12:41
#Acquired=	28.06.2022 12:41:49
#Base:Fit=	10.08.2022 10:07:56
#Base:Sub=	10.08.2022 10:08:40
#Filter:Polynom=	16.08.2022 10:26:06
#AxisType[0]=Intens
#AxisUnit[0]=Cnt
#AxisType[1]=Spectr
#AxisUnit[1]=1/cm
200.407	28.7429
202.221	31.2687
204.035	30.6846
205.849	29.8022
207.665	27.6668
209.478	25.626
211.291	23.577
213.104	21.8579
214.916	21.0015
216.73	18.9675
218.541	18.1826
220.352	17.4272
222.163	16.8299
223.973	14.8265
225.785	13.7114
227.595	13.4834
229.404	12.8903
231.213	12.4188
233.022	11.2731
234.83	10.2624
236.638	8.70965
238.448	7.63441
240.255	7.28756
242.062	7.65949
243.868	7.13398
245.675	6.04949
247.48	5.70517
249.286	6.07799
251.091	5.91252
252.896	6.27173
254.702	6.60247
256.506	6.16169
258.31	5.44035
260.113	4.96054
261.916	4.70452
263.719	4.48804
265.521	4.33321
267.323	4.28375
269.125	4.17394
270.926	4.78262
272.727	3.94567
274.527	4.69842
276.328	4.52104
278.127	5.00619
279.927	5.18212
281.726	5.26358
283.525	5.63059
285.323	5.94284
287.121	5.89769
288.919	5.74956
290.716	5.44425
292.513	3.48859
294.31	3.7302
296.104	3.53325
297.9	4.96886
299.696	4.70261
301.491	4.87136
303.286	5.73159
305.081	6.21975
306.875	5.76878
308.669	6.73305
310.463	7.23621
312.256	6.97993
314.047	6.69686
315.839	7.60065
317.631	7.91706
319.423	7.78232
321.215	7.74997
323.006	7.24745
324.794	7.28223
326.585	7.34058
328.375	8.12751
330.165	8.35188
331.954	8.56416
333.741	7.09852
335.53	7.62655
337.318	7.97133
339.106	7.96411
340.894	7.02642
342.679	6.89741
344.466	6.48696
346.253	6.47864
348.039	5.93356
349.823	5.2304
351.608	4.78162
353.393	3.85035
355.176	4.32369
356.961	4.84328
358.745	4.47687
360.529	3.81946
362.31	3.65448
364.093	3.51213
365.876	2.1716
367.657	2.15383
369.439	1.73068
371.221	1.31951
373	1.57991
374.781	1.50177
376.56	1.5892
378.34	2.01444
380.12	1.90222
381.898	1.23678
383.677	1.93696
385.456	2.02984
387.233	1.9365
389.011	1.42207
390.787	1.29305
392.565	2.03816
394.34	2.33334
396.117	2.831
397.894	3.61266
399.668	3.65836
401.444	3.01911
403.217	3.20141
404.993	3.432
406.766	3.53152
408.54	3.54873
410.312	3.19421
412.086	3.0558
413.858	3.00078
415.631	2.64709
417.402	2.94702
419.174	2.75691
420.944	3.14839
422.716	3.34471
424.486	4.60583
426.257	4.04149
428.025	4.52727
429.794	3.66428
431.564	3.86653
433.332	3.7922
435.101	3.47024
436.868	2.91004
438.637	1.90455
440.403	2.70883
442.169	2.44187
443.937	2.72279
445.703	2.16492
447.468	2.66282
449.234	2.5245
450.999	3.51816
452.765	3.11623
454.528	4.06736
456.292	4.33362
458.057	4.76191
459.819	4.92775
461.582	5.23664
463.344	5.70354
465.107	6.74432
466.868	7.96162
468.629	8.88809
470.392	9.39323
472.152	9.85966
473.912	10.1596
475.672	11.1169
477.433	11.7377
479.192	12.5504
480.951	13.3749
482.709	14.0994
484.469	14.1522
486.226	14.9004
487.984	14.6007
489.74	14.4285
491.499	14.9015
493.255	15.4357
495.011	15.2666
496.767	15.988
498.522	15.8894
500.277	17.0268
502.033	17.0854
503.788	16.9456
505.541	18.2066
507.295	18.3205
509.048	17.8068
510.801	17.5495
512.553	16.8595
514.308	17.2774
516.06	16.1789
517.811	15.2611
519.562	15.5469
521.313	15.7262
523.063	15.5979
524.814	15.3659
526.563	14.6669
528.313	15.1109
530.062	14.3272
531.811	14.5125
533.559	13.9196
535.308	14.1288
537.055	13.7154
538.803	12.7367
540.55	11.429
542.297	10.8739
544.043	9.94317
545.789	9.7567
547.535	9.67902
549.281	10.7391
551.026	11.5161
552.771	12.0432
554.515	11.9314
556.259	11.6897
558.003	11.6474
559.747	11.4241
561.49	11.275
563.233	10.9689
564.975	10.004
566.717	9.7592
568.459	9.48386
570.2	10.1304
571.942	9.0024
573.68	8.98458
575.421	7.85023
577.161	8.1519
578.901	8.36722
580.64	7.75144
582.379	7.10775
584.118	6.3537
585.855	5.48075
587.593	5.99167
589.331	4.98355
591.068	5.09902
592.805	5.60392
594.54	4.71615
596.277	3.84328
598.013	3.47809
599.749	3.61453
601.484	3.5606
603.217	3.12189
604.952	3.10006
606.687	2.79151
608.421	3.84354
610.153	3.56511
611.886	4.00964
613.619	4.27739
615.35	5.54633
617.083	5.3807
618.815	5.34219
620.547	5.71957
622.276	6.95722
624.008	8.15008
625.738	8.15287
627.467	9.05206
629.197	10.4411
630.927	12.1381
632.655	13.273
634.384	14.3506
636.113	15.9863
637.839	16.9985
639.568	17.8951
641.293	19.25
643.021	20.3804
644.748	21.1737
646.473	22.0044
648.2	23.0011
649.924	24.4497
651.65	24.7524
653.376	25.5587
655.099	27.0506
656.824	27.4928
658.546	27.3506
660.271	29.0124
661.993	29.1879
663.716	30.0113
665.438	29.5129
667.161	28.9846
668.881	29.542
670.604	29.9707
672.324	30.8395
674.045	31.8744
675.765	32.0745
677.486	33.0413
679.204	32.2131
680.925	30.9293
682.643	29.9317
684.361	29.9041
686.08	30.4879
687.797	31.179
689.516	31.2718
691.232	30.4838
692.95	30.9254
694.666	31.6833
696.382	30.9611
698.099	31.8928
699.813	31.5295
701.528	31.6519
703.244	30.8078
704.958	31.6461
706.673	32.4283
708.387	32.7152
710.099	34.3107
711.814	33.634
713.526	34.4568
715.238	34.7516
716.949	35.508
718.663	36.0965
720.374	37.3759
722.084	38.2969
723.796	39.354
725.506	40.639
727.216	41.8938
728.925	43.0597
730.636	44.4692
732.345	45.9512
734.053	47.4077
735.761	48.6224
737.471	49.041
739.178	50.6728
740.885	51.6182
742.592	52.7765
744.298	53.7808
746.006	54.6323
747.712	56.0682
749.417	58.1269
751.122	58.6599
752.827	59.59
754.532	61.2969
756.236	62.9011
757.942	64.4082
759.645	65.84
761.348	66.8427
763.051	67.3199
764.753	66.4818
766.456	68.2103
768.158	69.0189
769.859	70.667
771.56	71.2686
773.261	72.2763
774.964	71.7822
776.664	72.6252
778.364	72.7064
780.064	73.3803
781.763	74.3472
783.462	74.2128
785.16	74.2101
786.859	74.8175
788.557	75.5338
790.255	77.3834
791.952	77.6403
793.649	79.3352
795.346	80.7317
797.042	80.4247
798.738	80.6564
800.434	80.7194
802.127	81.4651
803.823	82.4776
805.517	83.803
807.212	84.6973
808.906	84.947
810.6	85.8721
812.293	85.8536
813.987	86.3481
815.68	86.4608
817.372	87.0459
819.064	87.3151
820.754	86.584
822.446	86.6423
824.137	86.8973
825.828	87.0068
827.519	87.365
829.209	87.002
830.897	87.0974
832.587	86.9112
834.276	85.2663
835.966	84.0626
837.654	83.8284
839.341	83.5377
841.029	83.3149
842.717	82.5996
844.404	81.3128
846.091	81.3266
847.776	78.8017
849.463	77.8788
851.149	76.933
852.833	75.0796
854.519	73.9193
856.204	72.3168
857.889	71.0539
859.572	68.8099
861.256	67.7644
862.94	66.3782
864.622	64.9953
866.305	63.283
867.988	61.8119
869.669	62.0535
871.351	60.8667
873.033	59.9539
874.713	58.7079
876.395	57.0672
878.074	56.3062
879.755	54.4246
881.435	52.3794
883.114	50.7535
884.794	49.6541
886.471	49.2341
888.15	50.1289
889.829	49.582
891.506	48.9377
893.184	48.0713
894.861	48.9311
896.538	48.3821
898.214	48.8985
899.891	48.6842
901.566	48.8872
903.242	48.3134
904.916	47.8979
906.592	48.95
908.266	49.4168
909.941	49.4188
911.614	49.6584
913.288	49.3815
914.961	48.6226
916.635	48.3912
918.306	47.689
919.979	47.6497
921.651	47.5121
923.321	48.1148
924.994	48.125
926.664	47.825
928.336	47.9855
930.005	47.3762
931.674	46.1171
933.345	47.0612
935.014	46.9646
936.682	47.517
938.352	47.0901
940.019	47.0411
941.687	47.1305
943.356	47.8719
945.022	48.7339
946.689	49.2565
948.357	49.4687
950.022	51.2274
951.688	52.0867
953.355	50.9733
955.02	50.0878
956.684	48.9679
958.348	47.8607
960.014	46.8122
961.678	45.3071
963.341	44.7899
965.004	44.6412
966.669	45.8326
968.331	47.0121
969.993	49.3693
971.655	51.3664
973.316	52.9263
974.979	54.3671
976.64	55.2828
978.3	56.8081
979.961	58.1536
981.62	59.2894
983.28	59.9316
984.941	60.0988
986.6	58.9228
988.259	58.7123
989.917	58.9494
991.575	57.8714
993.233	57.0427
994.89	56.3348
996.547	55.3121
998.204	54.8577
999.86	54.8625
1001.52	53.4618
1003.17	53.6594
1004.83	54.0947
1006.49	53.2902
1008.14	52.3657
1009.79	51.1113
1011.45	50.5887
1013.1	49.1441
1014.76	48.7404
1016.41	47.9883
1018.06	47.5155
1019.72	46.191
1021.37	45.0022
1023.02	43.733
1024.67	43.8519
1026.32	43.2685
1027.97	42.0635
1029.62	40.5342
1031.27	39.4256
1032.92	38.634
1034.57	35.6061
1036.22	33.1987
1037.87	31.7553
1039.52	30.6149
1041.17	29.427
1042.82	28.7294
1044.47	28.7389
1046.11	29.1895
1047.76	29.5043
1049.41	30.3471
1051.06	30.1622
1052.7	29.8721
1054.35	28.9257
1055.99	28.3028
1057.64	27.4348
1059.28	26.95
1060.93	26.7093
1062.57	26.3066
1064.22	25.2284
1065.86	23.7051
1067.5	22.4973
1069.15	21.2999
1070.79	22.2227
1072.43	23.3168
1074.08	22.899
1075.72	23.6183
1077.36	23.6531
1079	23.9083
1080.64	22.809
1082.28	21.9073
1083.92	21.1475
1085.56	20.9037
1087.2	19.8995
1088.84	19.139
1090.48	19.8695
1092.12	19.9315
1093.76	21.2064
1095.39	21.8716
1097.03	22.5902
1098.67	23.4861
1100.31	24.3526
1101.94	24.8968
1103.58	25.4581
1105.22	25.8818
1106.85	26.7233
1108.49	26.7085
1110.12	27.1635
1111.76	26.0805
1113.39	26.4139
1115.03	25.895
1116.66	24.393
1118.29	23.7122
1119.93	23.4986
1121.56	23.0664
1123.19	20.9278
1124.82	19.2631
1126.46	18.3681
1128.09	17.414
1129.72	16.3934
1131.35	15.6011
1132.98	14.6684
1134.61	14.5417
1136.24	13.9739
1137.87	14.1388
1139.5	14.0681
1141.13	13.0649
1142.76	12.8326
1144.39	13.0668
1146.01	13.1742
1147.64	13.0526
1149.27	13.8304
1150.9	13.8323
1152.53	13.6935
1154.15	13.1826
1155.78	12.1293
1157.4	11.7238
1159.03	11.091
1160.65	10.3039
1162.28	8.98701
1163.9	9.71092
1165.53	9.93231
1167.15	10.361
1168.78	11.9479
1170.4	12.8447
1172.02	14.481
1173.65	15.366
1175.27	16.4616
1176.89	18.2906
1178.51	18.7585
1180.14	19.1175
1181.76	19.3339
1183.38	19.7337
1185	19.5271
1186.62	20.5826
1188.24	21.0317
1189.86	21.0647
1191.48	21.8049
1193.1	21.7703
1194.71	23.4096
1196.33	23.9864
1197.95	25.3344
1199.57	26.445
1201.19	27.5247
1202.8	28.8196
1204.42	30.2029
1206.04	32.0512
1207.65	34.7418
1209.27	36.5114
1210.88	38.1109
1212.5	39.8663
1214.12	41.6324
1215.73	42.9815
1217.35	44.0045
1218.96	45.9269
1220.57	47.4818
1222.19	49.1317
1223.8	50.6609
1225.41	52.1176
1227.03	53.6259
1228.64	54.8849
1230.25	56.2306
1231.86	57.2948
1233.47	58.0599
1235.08	59.3962
1236.69	59.7762
1238.31	59.9635
1239.92	59.8079
1241.52	60.6448
1243.13	61.0621
1244.74	62.0512
1246.35	62.5986
1247.96	62.9344
1249.57	62.6891
1251.18	61.3932
1252.78	62.1277
1254.39	61.8818
1256	61.7016
1257.6	61.5273
1259.21	59.943
1260.82	59.906
1262.42	59.7823
1264.03	59.6737
1265.63	59.7813
1267.24	60.2734
1268.84	59.1811
1270.45	58.9655
1272.05	59.5469
1273.65	59.4914
1275.26	60.0429
1276.86	60.8804
1278.46	62.0488
1280.06	63.0857
1281.67	63.9753
1283.27	65.74
1284.87	66.2131
1286.47	68.1118
1288.07	69.6147
1289.67	70.4222
1291.27	71.0169
1292.87	71.757
1294.47	73.1682
1296.07	74.0034
1297.67	75.4509
1299.27	76.3761
1300.87	77.1251
1302.47	78.4779
1304.06	79.6152
1305.66	82.3642
1307.26	84.3082
1308.85	86.4614
1310.45	88.3307
1312.05	88.9944
1313.64	90.5479
1315.24	91.1547
1316.83	91.3162
1318.43	92.8685
1320.02	93.6411
1321.62	95.3114
1323.21	95.3345
1324.8	95.7527
1326.4	95.2104
1327.99	93.637
1329.59	92.8495
1331.18	92.4573
1332.77	92.1134
1334.36	90.9428
1335.95	89.7727
1337.54	89.1659
1339.14	88.0395
1340.73	87.2868
1342.32	85.783
1343.91	84.1049
1345.5	82.3512
1347.09	81.7631
1348.67	79.8704
1350.26	79.5102
1351.85	79.0964
1353.44	78.4569
1355.03	77.2967
1356.62	76.8828
1358.2	76.5032
1359.79	76.4323
1361.38	75.113
1362.96	75.0893
1364.55	74.1936
1366.14	73.437
1367.72	71.6905
1369.31	69.5888
1370.89	68.4347
1372.48	67.465
1374.06	66.5578
1375.64	66.1964
1377.23	65.7616
1378.81	64.9179
1380.39	64.1129
1381.98	64.0868
1383.56	63.9711
1385.14	63.5786
1386.72	62.8916
1388.3	62.9633
1389.89	61.9406
1391.47	60.3858
1393.05	60.895
1394.63	59.5233
1396.21	58.0892
1397.79	57.383
1399.37	55.4404
1400.95	53.9957
1402.52	51.556
1404.1	49.9897
1405.68	48.8634
1407.26	49.1593
1408.84	49.4665
1410.42	50.2399
1411.99	50.981
1413.57	51.9713
1415.15	53.3361
1416.72	54.8836
1418.3	57.0718
1419.87	58.6959
1421.45	60.0015
1423.02	62.0442
1424.6	65.6667
1426.17	68.6611
1427.75	70.7761
1429.32	74.359
1430.89	76.9403
1432.47	79.6979
1434.04	82.237
1435.61	85.7329
1437.18	88.3009
1438.76	90.72
1440.33	91.3456
1441.9	93.7713
1443.47	95.8605
1445.04	97.1944
1446.61	98.4831
1448.18	98.9879
1449.75	99.8664
1451.32	100.243
1452.89	100.698
1454.46	100.491
1456.03	99.2467
1457.6	97.9673
1459.16	97.1755
1460.73	96.3611
1462.3	94.4856
1463.87	91.9314
1465.43	89.246
1467	85.767
1468.56	81.9657
1470.13	78.6545
1471.7	76.1435
1473.26	71.7689
1474.83	68.0013
1476.39	65.3192
1477.96	61.1014
1479.52	58.7702
1481.08	54.9811
1482.65	53.3645
1484.21	51.7177
1485.77	49.2673
1487.34	46.4196
1488.9	44.3312
1490.46	41.3244
1492.02	40.1409
1493.58	38.5303
1495.15	36.7822
1496.71	35.3185
1498.27	33.5455
1499.83	32.6762
1501.39	32.5413
1502.95	32.3104
1504.51	30.3181
1506.07	29.879
1507.63	29.6874
1509.18	29.216
1510.74	28.5112
1512.3	27.7347
1513.86	27.9108
1515.41	28.0875
1516.97	28.2874
1518.53	29.0811
1520.08	30.5276
1521.64	30.4861
1523.2	30.9347
1524.75	30.9057
1526.31	31.0178
1527.86	30.94
1529.42	31.7513
1530.97	32.7616
1532.52	33.9555
1534.08	34.9901
1535.63	36.4364
1537.19	37.7301
1538.74	38.4655
1540.29	39.1867
1541.84	40.156
1543.4	40.9117
1544.95	42.7187
1546.5	44.8716
1548.05	47.5276
1549.6	49.2974
1551.15	50.6966
1552.7	52.6544
1554.25	53.7312
1555.8	54.8392
1557.35	56.1406
1558.9	56.4187
1560.45	58.3306
1562	59.9561
1563.54	60.4935
1565.09	62.0305
1566.64	63.7526
1568.19	65.8344
1569.73	68.4228
1571.28	69.0053
1572.83	69.9438
1574.37	70.8643
1575.92	72.1868
1577.47	73.8608
1579.01	74.7579
1580.56	75.4688
1582.1	76.0218
1583.64	77.698
1585.19	79.1805
1586.73	80.7219
1588.28	82.3361
1589.82	83.7512
1591.36	85.3804
1592.9	86.2765
1594.45	86.2666
1595.99	87.4147
1597.53	86.3651
1599.07	86.3833
1600.61	86.723
1602.15	85.0165
1603.69	84.7315
1605.23	84.9495
1606.77	85.649
1608.31	85.7721
1609.85	85.9686
1611.39	85.5343
1612.93	85.4201
1614.47	84.5425
1616.01	84.5719
1617.55	83.5159
1619.08	82.6701
1620.62	82.6338
1622.16	82.2045
1623.7	82.4988
1625.23	81.973
1626.77	81.415
1628.3	81.3141
1629.84	81.1141
1631.37	81.536
1632.91	82.2585
1634.44	81.4802
1635.98	82.5657
1637.51	83.3657
1639.05	84.3797
1640.58	84.5492
1642.11	85.5091
1643.65	87.0862
1645.18	88.0184
1646.71	88.2575
1648.24	88.737
1649.78	89.3188
1651.31	89.872
1652.84	91.2706
1654.37	92.9072
1655.9	93.5411
1657.43	94.7688
1658.96	95.8201
1660.49	96.353
1662.02	96.9548
1663.55	96.5494
1665.08	95.2265
1666.61	93.7333
1668.14	92.2138
1669.66	90.1568
1671.19	88.3022
1672.72	86.8646
1674.25	84.7195
1675.77	83.4345
1677.3	81.5431
1678.83	79.3936
1680.35	78.1913
1681.88	76.3303
1683.4	74.0367
1684.93	71.6826
1686.45	69.8951
1687.98	66.9915
1689.5	63.0757
1691.03	59.5667
1692.55	56.7459
1694.07	52.9422
1695.6	50.6423
1697.12	48.886
1698.64	46.3958
1700.17	44.7902
1701.69	42.1393
1703.21	40.2905
1704.73	38.3738
1706.25	36.3247
1707.77	34.5104
1709.29	31.5384
1710.81	29.0488
1712.33	27.6163
1713.85	25.772
1715.37	23.9541
1716.89	22.2416
1718.41	21.5954
1719.93	20.7147
1721.45	19.6374
1722.97	18.7298
1724.49	18.1362
1726	17.4888
1727.52	16.8508
1729.04	16.8289
1730.55	16.4518
1732.07	16.1454
1733.59	15.3135
1735.1	14.3423
1736.62	13.4917
1738.13	12.7177
1739.65	11.6009
1741.16	11.5515
1742.68	11.5971
1744.19	10.7818
1745.7	10.393
1747.22	10.5649
1748.73	10.8623
1750.24	11.2652
1751.76	11.1853
1753.27	10.9467
1754.78	10.9778
1756.29	11.1218
1757.8	10.872
1759.31	10.9189
1760.83	10.7
1762.34	10.4128
1763.85	9.46324
1765.36	9.00175
1766.87	9.39978
1768.38	9.79554
1769.89	9.45735
1771.39	9.84069
1772.9	10.1255
1774.41	9.68615
1775.92	9.29438
1777.43	9.23969
1778.94	8.58497
1780.44	7.90204
1781.95	7.29791
1783.46	7.10186
1784.96	6.50998
1786.47	6.69035
1787.97	6.28001
1789.48	6.37436
1790.99	6.17792
1792.49	5.84752
1794	6.13697
1795.5	5.77973
1797	5.92558
1798.51	5.47395
1800.01	5.48855
1801.51	4.68856
1803.02	4.14484
1804.52	3.91707
1806.02	4.21577
1807.53	4.35366
1809.03	3.59397
1810.53	3.3594
1812.03	3.53501
1813.53	3.60708
1815.03	3.59385
1816.53	3.15569
1818.03	2.79919
1819.53	2.47788
1821.03	2.28652
1822.53	2.71473
1824.03	2.79611
1825.53	2.62248
1827.03	2.16752
1828.53	1.99247
1830.02	2.34577
1831.52	2.46889
1833.02	2.29427
1834.52	2.33482
1836.01	2.31818
1837.51	2.01019
1839.01	2.0887
1840.5	2.44884
1842	2.17364
1843.49	2.59547
1844.99	3.27087
1846.48	4.22649
1847.98	4.4113
1849.47	4.33449
1850.97	4.28818
1852.46	4.60629
1853.95	4.50329
1855.45	4.40084
1856.94	4.98765
1858.43	5.25484
1859.93	5.77884
1861.42	5.85541
1862.91	5.29441
1864.4	5.3027
1865.89	4.95092
1867.38	4.92444
1868.87	5.42938
1870.36	5.4527
1871.85	6.2621
1873.34	6.5586
1874.83	7.07187
1876.32	7.23353
1877.81	7.28966
1879.3	8.59973
1880.79	9.66115
1882.28	9.15346
1882.52	9.29279
1884.02	9.23073
1885.51	9.55617
1887.01	9.23432
1888.5	8.40043
1889.99	7.89905
1891.49	7.84031
1892.98	7.36576
1894.47	7.32065
1895.97	7.33584
1897.46	6.87086
1898.95	5.89698
1900.44	5.50106
1901.93	5.39483
1903.42	5.38825
1904.91	5.06782
1906.4	5.23458
1907.89	5.49123
1909.38	5.78987
1910.87	5.5634
1912.36	6.14533
1913.85	6.18113
1915.34	6.75044
1916.83	7.40174
1918.32	8.03365
1919.8	7.51798
1921.29	7.11144
1922.78	6.78033
1924.27	6.53173
1925.75	6.78808
1927.24	6.676
1928.73	6.62323
1930.21	7.57403
1931.7	7.21267
1933.18	6.67863
1934.67	5.84446
1936.15	5.62135
1937.64	4.73215
1939.12	4.70998
1940.61	4.7623
1942.09	5.07097
1943.57	5.18042
1945.06	5.90712
1946.54	5.83265
1948.02	5.73088
1949.51	5.6796
1950.99	5.37659
1952.47	5.96445
1953.95	5.5801
1955.43	4.28287
1956.91	4.67039
1958.4	3.77758
1959.88	3.79012
1961.36	3.46979
1962.84	2.91796
1964.32	2.63337
1965.8	2.34617
1967.27	1.8969
1968.75	1.3847
1970.23	0.740403
1971.71	0.180433
1973.19	-0.0968496
1974.67	0.402168
1976.14	0.448411
1977.62	1.11419
1979.1	1.4865
1980.58	1.19222
1982.05	0.864389
1983.53	0.890608
1985	1.1811
1986.48	1.60233
1987.95	1.50255
1989.43	2.0634
1990.9	2.13386
1992.38	2.07517
1993.85	1.20403
1995.33	1.31418
1996.8	1.9531
1998.27	2.30025
1999.75	2.9946
2001.22	3.7661
2002.69	3.87004
2004.16	3.65481
2005.64	3.36361
2007.11	3.2369
2008.58	3.47493
2010.05	3.16622
2011.52	2.85759
2012.99	3.89513
2014.46	4.46275
2015.93	4.81303
2017.4	5.26345
2018.87	5.71393
2020.34	5.69174
2021.81	5.6664
2023.28	6.30927
2024.75	6.69572
2026.22	6.45288
2027.69	6.23453
2029.15	6.14864
2030.62	6.85687
2032.09	6.33165
2033.56	6.68402
2035.02	6.83898
2036.49	6.39836
2037.96	6.80306
2039.42	6.70241
2040.89	7.22634
2042.35	7.57302
2043.82	7.64746
2045.28	7.85103
2046.75	7.90875
2048.21	7.85769
2049.67	7.79391
2051.14	7.59587
2052.6	7.67999
2054.07	6.9025
2055.53	6.64625
2056.99	7.11032
2058.45	7.37267
2059.92	6.44092
2061.38	6.5718
2062.84	6.97975
2064.3	6.61885
2065.76	5.94863
2067.22	6.07209
2068.68	6.14032
2070.14	6.56214
2071.6	6.13343
2073.06	6.56628
2074.52	6.21038
2075.98	5.08026
2077.44	4.17409
2078.9	4.34922
2080.36	3.78167
2081.82	3.77812
2083.27	3.49407
2084.73	3.33846
2086.19	3.207
2087.65	2.51622
2089.1	1.94309
2090.56	1.40609
2092.02	1.35229
2093.47	1.72095
2094.93	1.78109
2096.38	1.74583
2097.84	1.02742
2099.29	0.62852
2100.75	1.14888
2102.2	1.42692
2103.66	1.07353
2105.11	1.29818
2106.56	1.90565
2108.02	3.13527
2109.47	3.02879
2110.92	3.28885
2112.38	2.9685
2113.83	3.84582
2115.28	3.61947
2116.73	3.12797
2118.18	3.25394
2119.63	2.96558
2121.09	3.46501
2122.54	3.76019
2123.99	3.71614
2125.44	3.7844
2126.89	3.00026
2128.34	3.09827
2129.79	3.73493
2131.23	4.06965
2132.68	4.06784
2134.13	4.63893
2135.58	4.45821
2137.03	4.36554
