#Acq. time (s)=	45
#Accumulations=	2
#Range (cm-¹)=	200...3150
#Windows=	2
#Auto scanning=	Off
#Autofocus=	Off
#Macrospot=	Off
#AutoExposure=	Off
#Spike filter=	Multiple accum.
#Delay time (s)=	0
#Binning=	1
#Readout mode=	Signal
#DeNoise=	Off
#ICS correction=	On
#Dark correction=	Off
#Inst. Process=	Off
#Detector Gain=	Best Dynamic Range
#Detector ADC=	20 kHz       
#Detector temperature (°C)=	-69.85
#Instrument=	LabRAM HR Evol
#Detector=	Synapse
#Objective=	x100
#Grating=	600 gr/mm
#ND Filter=	100%
#Laser (nm)=	532 
#Hole=	100.021
#Range=	Auto
#Laser Pol.=	No
#Raman. Pol.=	No
#Laser Pol. (°)=	-0.0007625
#Raman Pol. (°)=	89.9995
#Collection=	Microscope
#StageXY=	Marzhauser
#StageZ=	Marzhauser
#X (µm)=	8986.5
#Y (µm)=	-3066.7
#Z (µm)=	-55.15
#Full time(mm:ss)=	3:18
#Project=	
#Sample=	
#Site=	
#Title=	Thy_00_07_28_2x_45s_532 nm_x100_100%_600 gr_mm
#Remark=	
#Date=	28.06.2022 12:10
#Acquired=	28.06.2022 12:10:34
#Base:Fit=	10.08.2022 10:07:56
#Base:Sub=	10.08.2022 10:08:40
#Filter:Polynom=	16.08.2022 10:26:06
#AxisType[0]=Intens
#AxisUnit[0]=Cnt
#AxisType[1]=Spectr
#AxisUnit[1]=1/cm
200.407	47.8247
202.221	48.7238
204.035	47.272
205.849	46.2868
207.665	45.3144
209.478	44.6323
211.291	43.7233
213.104	42.6111
214.916	40.5624
216.73	39.8577
218.541	38.5013
220.352	36.9734
222.163	35.2229
223.973	33.7432
225.785	32.2992
227.595	31.4237
229.404	30.6616
231.213	29.401
233.022	28.6117
234.83	27.5933
236.638	26.8167
238.448	25.6044
240.255	24.904
242.062	23.912
243.868	23.5015
245.675	21.6274
247.48	19.8302
249.286	17.7491
251.091	15.1214
252.896	15.1135
254.702	13.8871
256.506	12.8018
258.31	12.398
260.113	12.0075
261.916	11.0089
263.719	10.7319
265.521	9.7198
267.323	9.02225
269.125	8.14696
270.926	9.05362
272.727	10.1678
274.527	9.14696
276.328	8.99374
278.127	8.99928
279.927	9.40366
281.726	9.44635
283.525	9.81616
285.323	10.2372
287.121	10.8764
288.919	10.6584
290.716	11.1058
292.513	11.8877
294.31	13.7328
296.104	14.2399
297.9	14.3092
299.696	12.9713
301.491	12.8183
303.286	13.6501
305.081	14.2682
306.875	14.9311
308.669	14.6373
310.463	15.49
312.256	15.7191
314.047	16.6401
315.839	17.534
317.631	18.5549
319.423	18.8285
321.215	18.2555
323.006	18.4031
324.794	19.3411
326.585	19.1677
328.375	19.5086
330.165	20.0412
331.954	19.4027
333.741	18.7876
335.53	17.2873
337.318	17.8386
339.106	15.9173
340.894	15.521
342.679	15.3282
344.466	13.925
346.253	13.6815
348.039	13.2317
349.823	13.1247
351.608	12.2558
353.393	11.6445
355.176	12.2529
356.961	12.0598
358.745	11.3128
360.529	11.4781
362.31	10.0561
364.093	8.87673
365.876	8.79052
367.657	9.5313
369.439	8.67996
371.221	7.79083
373	7.18173
374.781	6.40136
376.56	7.11446
378.34	5.69484
380.12	6.4079
381.898	6.1139
383.677	5.08037
385.456	3.613
387.233	3.70179
389.011	3.20946
390.787	4.09004
392.565	5.04895
394.34	3.55923
396.117	2.87115
397.894	3.22561
399.668	4.46003
401.444	4.1074
403.217	5.02609
404.993	4.93135
406.766	5.14885
408.54	4.92248
410.312	4.90284
412.086	5.43419
413.858	6.65585
415.631	5.90738
417.402	6.03272
419.174	5.52762
420.944	5.7065
422.716	5.20418
424.486	5.19443
426.257	4.84613
428.025	2.99259
429.794	3.09896
431.564	2.17572
433.332	1.53359
435.101	2.01464
436.868	1.92131
438.637	1.88141
440.403	2.17724
442.169	2.32972
443.937	4.30496
445.703	4.81821
447.468	6.47913
449.234	8.68422
450.999	10.6638
452.765	13.0068
454.528	15.1606
456.292	16.7368
458.057	18.2011
459.819	20.4326
461.582	22.5077
463.344	24.8905
465.107	27.7575
466.868	27.527
468.629	29.2708
470.392	30.2466
472.152	31.776
473.912	33.1928
475.672	34.5307
477.433	34.7942
479.192	36.8617
480.951	37.8454
482.709	38.2322
484.469	40.2275
486.226	42.0596
487.984	43.2341
489.74	43.453
491.499	43.8653
493.255	43.9785
495.011	44.605
496.767	45.0219
498.522	44.5889
500.277	43.8056
502.033	43.0625
503.788	42.4171
505.541	40.381
507.295	39.5294
509.048	38.0736
510.801	35.5092
512.553	33.3331
514.308	30.9845
516.06	28.831
517.811	27.209
519.562	25.8658
521.313	24.5841
523.063	23.6302
524.814	21.5028
526.563	20.5571
528.313	20.1712
530.062	19.8025
531.811	19.8824
533.559	18.353
535.308	18.4572
537.055	17.4708
538.803	16.7597
540.55	16.2741
542.297	15.8777
544.043	14.2267
545.789	13.9727
547.535	12.944
549.281	11.3486
551.026	10.8362
552.771	10.1876
554.515	9.41149
556.259	9.37604
558.003	9.27837
559.747	8.39788
561.49	8.14332
563.233	8.53314
564.975	9.92684
566.717	10.6387
568.459	11.276
570.2	11.7283
571.942	12.6383
573.68	13.1176
575.421	13.1423
577.161	13.4765
578.901	13.1917
580.64	13.4388
582.379	13.1666
584.118	12.9618
585.855	12.0925
587.593	11.7589
589.331	11.9855
591.068	12.2728
592.805	11.4465
594.54	11.22
596.277	10.3837
598.013	10.3888
599.749	10.0964
601.484	10.0197
603.217	9.58896
604.952	9.38699
606.687	8.17149
608.421	8.04476
610.153	7.39599
611.886	7.32362
613.619	7.78649
615.35	7.08006
617.083	6.90885
618.815	7.15432
620.547	6.03163
622.276	5.98404
624.008	5.38439
625.738	5.42192
627.467	5.64061
629.197	5.40667
630.927	4.40526
632.655	4.21016
634.384	4.88851
636.113	4.41031
637.839	5.19773
639.568	5.77465
641.293	6.28281
643.021	6.13492
644.748	7.19142
646.473	7.05814
648.2	8.41797
649.924	9.47245
651.65	10.2478
653.376	10.4533
655.099	11.5268
656.824	11.402
658.546	11.6928
660.271	11.3771
661.993	11.3326
663.716	10.6873
665.438	10.5099
667.161	11.0091
668.881	10.6807
670.604	11.5971
672.324	13.1419
674.045	14.4079
675.765	15.5925
677.486	15.8214
679.204	16.0536
680.925	16.9186
682.643	19.0822
684.361	20.9151
686.08	22.0973
687.797	22.0857
689.516	23.0095
691.232	23.8557
692.95	24.0139
694.666	26.3387
696.382	26.8519
698.099	26.7631
699.813	26.3732
701.528	26.7355
703.244	27.9342
704.958	27.9263
706.673	28.2385
708.387	28.9499
710.099	29.7136
711.814	30.2983
713.526	31.6692
715.238	31.6683
716.949	31.7299
718.663	32.4942
720.374	34.0207
722.084	35.2516
723.796	36.8472
725.506	38.7539
727.216	40.1545
728.925	40.9235
730.636	42.0374
732.345	42.4087
734.053	43.9142
735.761	44.1792
737.471	43.7172
739.178	44.5746
740.885	45.6186
742.592	45.3331
744.298	46.7643
746.006	47.9532
747.712	49.1258
749.417	50.0057
751.122	51.4334
752.827	53.4129
754.532	54.9414
756.236	58.4754
757.942	60.7815
759.645	62.1378
761.348	63.3755
763.051	64.7177
764.753	66.7287
766.456	69.8612
768.158	71.0575
769.859	72.0303
771.56	72.3039
773.261	73.1028
774.964	75.0075
776.664	75.5329
778.364	76.1017
780.064	77.293
781.763	77.3808
783.462	76.9272
785.16	78.4547
786.859	79.0136
788.557	79.8138
790.255	80.2106
791.952	80.9984
793.649	80.2802
795.346	80.6601
797.042	81.2013
798.738	81.9317
800.434	81.3679
802.127	81.9116
803.823	83.0701
805.517	83.2467
807.212	83.531
808.906	83.1483
810.6	83.9697
812.293	84.1375
813.987	84.4618
815.68	84.4273
817.372	84.8322
819.064	85.1607
820.754	86.0315
822.446	86.9828
824.137	88.5119
825.828	90.1008
827.519	91.134
829.209	93.4159
830.897	94.5857
832.587	96.1742
834.276	97.2691
835.966	99.0153
837.654	100.481
839.341	101.222
841.029	102.014
842.717	102.064
844.404	102.182
846.091	101.935
847.776	101.484
849.463	101.208
851.149	100.657
852.833	99.7028
854.519	98.2807
856.204	97.9847
857.889	96.788
859.572	94.357
861.256	93.1122
862.94	91.8934
864.622	90.1915
866.305	87.815
867.988	85.5556
869.669	84.2555
871.351	81.5993
873.033	80.2701
874.713	77.6049
876.395	74.1851
878.074	71.1284
879.755	68.5329
881.435	65.4297
883.114	62.7916
884.794	60.1939
886.471	58.6124
888.15	56.5809
889.829	54.5149
891.506	53.4547
893.184	53.8266
894.861	54.3149
896.538	53.6259
898.214	52.9796
899.891	53.4259
901.566	54.3245
903.242	55.107
904.916	56.4188
906.592	57.8147
908.266	59.4282
909.941	61.9344
911.614	64.0204
913.288	65.6218
914.961	67.3044
916.635	68.9094
918.306	68.636
919.979	70.2219
921.651	71.136
923.321	71.3654
924.994	71.8689
926.664	72.5854
928.336	72.8993
930.005	72.8447
931.674	72.5125
933.345	72.5787
935.014	72.5752
936.682	72.6778
938.352	72.0242
940.019	72.4483
941.687	70.7257
943.356	69.423
945.022	69.0638
946.689	66.9924
948.357	65.3265
950.022	63.7328
951.688	63.0013
953.355	61.6412
955.02	59.4627
956.684	56.9128
958.348	52.9496
960.014	49.52
961.678	47.2959
963.341	45.8342
965.004	44.9284
966.669	45.235
968.331	45.3678
969.993	45.3927
971.655	45.9506
973.316	46.895
974.979	47.1497
976.64	48.6091
978.3	48.2173
979.961	48.1941
981.62	49.8663
983.28	51.5829
984.941	51.5978
986.6	52.2942
988.259	53.0434
989.917	53.4449
991.575	53.3483
993.233	54.2727
994.89	54.1742
996.547	54.0681
998.204	54.6983
999.86	54.0949
1001.52	54.5835
1003.17	55.6316
1004.83	54.7775
1006.49	54.7274
1008.14	56.0062
1009.79	56.381
1011.45	56.2077
1013.1	55.6903
1014.76	55.8463
1016.41	56.2911
1018.06	55.5319
1019.72	54.5245
1021.37	54.0544
1023.02	53.3188
1024.67	52.3
1026.32	51.7556
1027.97	51.1555
1029.62	49.8805
1031.27	49.4839
1032.92	49.2493
1034.57	48.9757
1036.22	47.3768
1037.87	45.9116
1039.52	44.2502
1041.17	43.9926
1042.82	44.145
1044.47	45.1873
1046.11	46.2759
1047.76	47.6656
1049.41	49.7269
1051.06	50.8424
1052.7	51.4842
1054.35	52.4847
1055.99	52.5389
1057.64	52.8654
1059.28	53.9841
1060.93	53.7617
1062.57	54.671
1064.22	55.2722
1065.86	54.6393
1067.5	54.5714
1069.15	54.5022
1070.79	55.0195
1072.43	55.2385
1074.08	55.7905
1075.72	56.5694
1077.36	56.9043
1079	58.0348
1080.64	58.3221
1082.28	58.1924
1083.92	59.3604
1085.56	59.1346
1087.2	59.7829
1088.84	61.1486
1090.48	60.9106
1092.12	60.9655
1093.76	61.6949
1095.39	61.3992
1097.03	62.1163
1098.67	62.8426
1100.31	62.8581
1101.94	63.8525
1103.58	65.7562
1105.22	66.3001
1106.85	66.3574
1108.49	66.1161
1110.12	66.1533
1111.76	66.7057
1113.39	66.9598
1115.03	65.9153
1116.66	64.7581
1118.29	63.8957
1119.93	63.7545
1121.56	63.0977
1123.19	63.5013
1124.82	62.2365
1126.46	61.6337
1128.09	60.8743
1129.72	60.6436
1131.35	59.1474
1132.98	56.926
1134.61	55.5902
1136.24	53.8358
1137.87	53.1575
1139.5	52.1003
1141.13	51.384
1142.76	49.5978
1144.39	47.8793
1146.01	46.1989
1147.64	45.6436
1149.27	44.42
1150.9	42.406
1152.53	41.1384
1154.15	38.3588
1155.78	35.9985
1157.4	33.9344
1159.03	32.1689
1160.65	29.6491
1162.28	26.5507
1163.9	23.8841
1165.53	22.1721
1167.15	19.9873
1168.78	18.8652
1170.4	17.4777
1172.02	16.59
1173.65	16.1086
1175.27	15.5791
1176.89	14.4659
1178.51	14.6758
1180.14	14.4381
1181.76	13.8115
1183.38	12.8966
1185	13.4166
1186.62	12.33
1188.24	11.9315
1189.86	11.8022
1191.48	12.6684
1193.1	12.8421
1194.71	12.8906
1196.33	13.8309
1197.95	14.8151
1199.57	15.7229
1201.19	16.8325
1202.8	17.4735
1204.42	18.6233
1206.04	19.8279
1207.65	21.4093
1209.27	22.6857
1210.88	25.1114
1212.5	27.6625
1214.12	30.9268
1215.73	33.91
1217.35	36.4929
1218.96	39.8195
1220.57	42.7744
1222.19	45.6404
1223.8	48.1222
1225.41	50.523
1227.03	53.5551
1228.64	56.2572
1230.25	56.82
1231.86	57.6797
1233.47	58.6751
1235.08	59.129
1236.69	60.7766
1238.31	61.9509
1239.92	62.8498
1241.52	63.0575
1243.13	63.2655
1244.74	63.7843
1246.35	65.1376
1247.96	65.6741
1249.57	66.1238
1251.18	65.3059
1252.78	64.5994
1254.39	63.889
1256	63.306
1257.6	61.8018
1259.21	61.5636
1260.82	61.0336
1262.42	61.0724
1264.03	60.3195
1265.63	60.3014
1267.24	58.492
1268.84	58.1343
1270.45	58.3293
1272.05	58.5157
1273.65	58.5058
1275.26	58.7492
1276.86	59.709
1278.46	59.5199
1280.06	59.7909
1281.67	60.6366
1283.27	61.2255
1284.87	62.1904
1286.47	63.1157
1288.07	63.288
1289.67	64.3756
1291.27	66.7903
1292.87	68.8411
1294.47	70.4038
1296.07	72.4792
1297.67	74.6951
1299.27	77.2076
1300.87	79.711
1302.47	81.5278
1304.06	84.009
1305.66	86.1197
1307.26	88.7475
1308.85	91.8388
1310.45	93.7031
1312.05	96.1306
1313.64	98.261
1315.24	101.51
1316.83	104.862
1318.43	107.062
1320.02	108.352
1321.62	109.442
1323.21	110.239
1324.8	111.607
1326.4	112.769
1327.99	112.552
1329.59	111.892
1331.18	111.47
1332.77	112.106
1334.36	112.523
1335.95	112.179
1337.54	112.45
1339.14	112.741
1340.73	111.788
1342.32	110.637
1343.91	108.894
1345.5	105.431
1347.09	104.337
1348.67	102.837
1350.26	100.646
1351.85	98.6896
1353.44	97.3689
1355.03	95.1496
1356.62	92.8578
1358.2	89.9673
1359.79	88.3372
1361.38	87.2613
1362.96	85.498
1364.55	83.1737
1366.14	82.0158
1367.72	80.5983
1369.31	79.6405
1370.89	78.2823
1372.48	77.0608
1374.06	76.4014
1375.64	75.8075
1377.23	74.4791
1378.81	73.7149
1380.39	73.0842
1381.98	73.3303
1383.56	73.2823
1385.14	73.545
1386.72	73.2854
1388.3	73.4011
1389.89	72.5773
1391.47	72.2556
1393.05	71.8142
1394.63	71.7873
1396.21	70.687
1397.79	69.1514
1399.37	67.2569
1400.95	66.7145
1402.52	65.8092
1404.1	65.6587
1405.68	64.3518
1407.26	63.0324
1408.84	62.7706
1410.42	63.2885
1411.99	64.1257
1413.57	64.4527
1415.15	65.3377
1416.72	66.1821
1418.3	67.0065
1419.87	68.9109
1421.45	69.8361
1423.02	71.2939
1424.6	73.2281
1426.17	77.3439
1427.75	79.5404
1429.32	83.1198
1430.89	87.2704
1432.47	91.4057
1434.04	94.5146
1435.61	97.2165
1437.18	100.322
1438.76	103.484
1440.33	106.314
1441.9	108.473
1443.47	110.936
1445.04	112.36
1446.61	112.899
1448.18	113.157
1449.75	114.483
1451.32	115.367
1452.89	116.143
1454.46	114.698
1456.03	112.56
1457.6	111.807
1459.16	110.453
1460.73	109.2
1462.3	106.43
1463.87	102.919
1465.43	99.3922
1467	94.6145
1468.56	90.2424
1470.13	85.5149
1471.7	81.0339
1473.26	77.1832
1474.83	71.9945
1476.39	67.2056
1477.96	61.938
1479.52	58.1694
1481.08	54.0405
1482.65	49.0957
1484.21	43.4781
1485.77	39.5271
1487.34	35.8609
1488.9	32.4677
1490.46	29.1817
1492.02	26.4987
1493.58	24.0992
1495.15	22.1365
1496.71	20.6341
1498.27	19.8391
1499.83	17.0838
1501.39	15.9416
1502.95	15.8648
1504.51	14.6288
1506.07	13.9595
1507.63	13.9178
1509.18	12.8771
1510.74	12.5857
1512.3	11.2301
1513.86	10.9748
1515.41	11.8345
1516.97	11.9667
1518.53	13.111
1520.08	14.0369
1521.64	14.291
1523.2	14.0131
1524.75	15.5969
1526.31	17.3957
1527.86	18.7241
1529.42	19.8253
1530.97	21.0402
1532.52	21.6393
1534.08	23.3714
1535.63	25.6548
1537.19	26.9283
1538.74	28.1319
1540.29	28.7485
1541.84	29.103
1543.4	30.1093
1544.95	30.4384
1546.5	32.4017
1548.05	34.138
1549.6	35.8762
1551.15	37.4579
1552.7	39.3467
1554.25	41.714
1555.8	43.8056
1557.35	46.9103
1558.9	47.7584
1560.45	47.9062
1562	49.3407
1563.54	51.3259
1565.09	52.4246
1566.64	54.3621
1568.19	56.1668
1569.73	57.1967
1571.28	58.2083
1572.83	59.2756
1574.37	60.8527
1575.92	62.3829
1577.47	62.4821
1579.01	63.364
1580.56	65.0897
1582.1	65.6972
1583.64	67.5885
1585.19	68.592
1586.73	69.0344
1588.28	69.8882
1589.82	70.6767
1591.36	72.1092
1592.9	73.2735
1594.45	73.9315
1595.99	75.7981
1597.53	75.8815
1599.07	75.1395
1600.61	75.1051
1602.15	75.5957
1603.69	75.7128
1605.23	75.4246
1606.77	76.0328
1608.31	74.5666
1609.85	74.8062
1611.39	74.459
1612.93	73.9126
1614.47	73.3178
1616.01	72.5205
1617.55	71.6437
1619.08	70.9801
1620.62	70.2472
1622.16	71.0728
1623.7	72.2287
1625.23	73.0663
1626.77	74.6858
1628.3	75.3745
1629.84	76.5073
1631.37	75.9035
1632.91	77.1349
1634.44	77.5722
1635.98	77.3821
1637.51	77.8741
1639.05	78.8217
1640.58	79.7529
1642.11	80.491
1643.65	82.0697
1645.18	82.8591
1646.71	83.9261
1648.24	85.1271
1649.78	86.4893
1651.31	87.8724
1652.84	88.1177
1654.37	88.1632
1655.9	89.0247
1657.43	89.9357
1658.96	89.6536
1660.49	89.6009
1662.02	88.6146
1663.55	87.9254
1665.08	86.9343
1666.61	85.9231
1668.14	84.2047
1669.66	82.5049
1671.19	80.2513
1672.72	77.4995
1674.25	74.7747
1675.77	72.6869
1677.3	70.5333
1678.83	69.1736
1680.35	67.4844
1681.88	65.3104
1683.4	62.8848
1684.93	60.3949
1686.45	58.1333
1687.98	54.9808
1689.5	52.587
1691.03	49.8828
1692.55	47.6226
1694.07	45.5167
1695.6	43.5118
1697.12	41.3972
1698.64	40.2056
1700.17	37.3656
1701.69	35.1888
1703.21	33.7112
1704.73	30.9701
1706.25	29.6183
1707.77	28.2207
1709.29	28.2418
1710.81	27.0143
1712.33	26.1785
1713.85	25.5248
1715.37	24.6994
1716.89	24.9637
1718.41	23.7376
1719.93	23.6464
1721.45	23.4824
1722.97	23.2903
1724.49	22.8973
1726	22.6605
1727.52	21.8103
1729.04	21.1698
1730.55	20.6409
1732.07	19.9123
1733.59	18.9693
1735.1	18.0921
1736.62	17.3922
1738.13	16.5881
1739.65	15.9006
1741.16	14.7313
1742.68	13.7651
1744.19	12.3825
1745.7	11.6022
1747.22	10.8937
1748.73	10.1379
1750.24	10.4062
1751.76	9.87136
1753.27	9.51762
1754.78	9.37648
1756.29	8.26066
1757.8	7.39596
1759.31	6.92441
1760.83	5.98421
1762.34	5.48064
1763.85	5.71022
1765.36	5.10787
1766.87	4.4057
1768.38	4.26652
1769.89	3.82369
1771.39	3.01759
1772.9	2.64867
1774.41	2.18035
1775.92	1.42441
1777.43	1.6907
1778.94	1.38524
1780.44	1.32889
1781.95	1.13555
1783.46	0.957939
1784.96	1.44839
1786.47	1.20159
1787.97	1.17219
1789.48	1.39363
1790.99	1.26449
1792.49	1.50741
1794	1.17059
1795.5	2.07715
1797	2.16752
1798.51	2.21857
1800.01	2.38241
1801.51	1.86175
1803.02	1.90999
1804.52	2.38313
1806.02	2.70103
1807.53	2.34977
1809.03	2.71004
1810.53	2.50862
1812.03	2.73079
1813.53	2.66898
1815.03	2.718
1816.53	2.66686
1818.03	2.97068
1819.53	2.5071
1821.03	3.48109
1822.53	3.94846
1824.03	4.23587
1825.53	4.61928
1827.03	4.90886
1828.53	5.0438
1830.02	4.92659
1831.52	5.39366
1833.02	6.26632
1834.52	6.647
1836.01	6.74474
1837.51	6.94199
1839.01	6.52696
1840.5	6.38275
1842	7.11927
1843.49	7.40187
1844.99	7.50404
1846.48	7.41159
1847.98	7.8507
1849.47	8.08971
1850.97	7.70622
1852.46	8.33394
1853.95	8.38039
1855.45	8.55618
1856.94	8.10932
1858.43	8.4864
1859.93	8.35077
1861.42	7.94166
1862.91	7.95847
1864.4	7.96161
1865.89	8.18899
1867.38	8.70485
1868.87	9.21075
1870.36	8.81435
1871.85	8.99132
1873.34	8.9766
1874.83	8.28569
1876.32	8.34018
1877.81	8.70388
1879.3	8.42608
1880.79	8.47697
1882.28	7.82124
1882.52	8.23538
1884.02	7.94404
1885.51	8.55663
1887.01	8.39369
1888.5	7.78246
1889.99	7.63465
1891.49	7.22602
1892.98	6.74409
1894.47	6.65074
1895.97	5.98727
1897.46	5.56419
1898.95	5.57227
1900.44	5.61212
1901.93	5.28567
1903.42	5.2371
1904.91	5.15252
1906.4	5.61072
1907.89	5.00471
1909.38	4.59024
1910.87	4.16849
1912.36	3.96613
1913.85	3.86463
1915.34	4.02623
1916.83	3.88107
1918.32	4.24116
1919.8	4.31847
1921.29	4.39992
1922.78	4.36616
1924.27	3.71505
1925.75	4.02097
1927.24	3.48712
1928.73	3.51889
1930.21	3.23426
1931.7	3.58691
1933.18	2.92283
1934.67	2.97266
1936.15	3.27322
1937.64	3.44153
1939.12	4.44369
1940.61	4.20565
1942.09	4.34341
1943.57	3.83961
1945.06	4.54122
1946.54	4.74081
1948.02	5.07524
1949.51	5.90656
1950.99	6.2934
1952.47	6.69333
1953.95	7.43468
1955.43	7.41462
1956.91	7.53427
1958.4	7.24578
1959.88	7.28003
1961.36	6.46516
1962.84	6.08533
1964.32	6.83904
1965.8	6.85267
1967.27	6.67735
1968.75	6.71803
1970.23	6.61027
1971.71	6.70952
1973.19	6.87871
1974.67	6.9711
1976.14	6.41999
1977.62	6.63935
1979.1	7.00222
1980.58	7.13591
1982.05	6.79735
1983.53	7.02443
1985	7.35038
1986.48	7.30409
1987.95	7.64893
1989.43	8.07868
1990.9	8.11869
1992.38	7.91838
1993.85	8.33199
1995.33	8.2864
1996.8	7.98925
1998.27	8.10701
1999.75	8.1145
2001.22	7.81176
2002.69	7.68232
2004.16	6.59083
2005.64	5.99967
2007.11	5.87853
2008.58	6.22724
2010.05	6.47311
2011.52	6.70244
2012.99	7.37552
2014.46	6.38028
2015.93	6.10752
2017.4	5.28734
2018.87	5.22345
2020.34	4.89201
2021.81	5.15899
2023.28	4.88257
2024.75	4.81847
2026.22	4.06137
2027.69	3.38115
2029.15	3.18552
2030.62	2.8071
2032.09	2.61719
2033.56	2.45933
2035.02	2.75745
2036.49	3.11249
2037.96	3.23218
2039.42	2.75088
2040.89	2.48311
2042.35	2.12725
2043.82	1.53371
2045.28	1.62368
2046.75	1.55841
2048.21	2.32531
2049.67	2.39492
2051.14	3.13277
2052.6	3.73028
2054.07	3.80799
2055.53	4.49039
2056.99	4.59677
2058.45	4.90565
2059.92	4.83146
2061.38	4.92506
2062.84	4.70793
2064.3	5.09969
2065.76	5.34118
2067.22	6.45145
2068.68	5.99645
2070.14	5.97463
2071.6	6.03578
2073.06	5.11624
2074.52	4.83138
2075.98	4.48186
2077.44	4.77673
2078.9	5.3301
2080.36	5.77497
2081.82	5.18817
2083.27	5.09878
2084.73	5.55005
2086.19	5.17908
2087.65	4.1623
2089.1	3.50896
2090.56	3.69407
2092.02	3.91175
2093.47	4.15
2094.93	4.5967
2096.38	3.94382
2097.84	4.49275
2099.29	4.77479
2100.75	4.97526
2102.2	5.70084
2103.66	4.98055
2105.11	4.77103
2106.56	5.2794
2108.02	5.33602
2109.47	5.55254
2110.92	4.93402
2112.38	4.64984
2113.83	4.70577
2115.28	4.82034
2116.73	5.23148
2118.18	5.63651
2119.63	5.37107
2121.09	5.77245
2122.54	5.64022
2123.99	5.84874
2125.44	6.04678
2126.89	5.15599
2128.34	5.0549
2129.79	4.62196
2131.23	4.24963
2132.68	3.84448
2134.13	3.20074
2135.58	3.49843
2137.03	3.17713
