#Acq. time (s)=	45
#Accumulations=	2
#Range (cm-¹)=	200...3150
#Windows=	2
#Auto scanning=	Off
#Autofocus=	Off
#Macrospot=	Off
#AutoExposure=	Off
#Spike filter=	Multiple accum.
#Delay time (s)=	0
#Binning=	1
#Readout mode=	Signal
#DeNoise=	Off
#ICS correction=	On
#Dark correction=	Off
#Inst. Process=	Off
#Detector Gain=	Best Dynamic Range
#Detector ADC=	20 kHz       
#Detector temperature (°C)=	-69.85
#Instrument=	LabRAM HR Evol
#Detector=	Synapse
#Objective=	x100
#Grating=	600 gr/mm
#ND Filter=	100%
#Laser (nm)=	532 
#Hole=	100.021
#Range=	Auto
#Laser Pol.=	No
#Raman. Pol.=	No
#Laser Pol. (°)=	-0.0007625
#Raman Pol. (°)=	89.9995
#Collection=	Microscope
#StageXY=	Marzhauser
#StageZ=	Marzhauser
#X (µm)=	4748.5
#Y (µm)=	-7738.5
#Z (µm)=	584.6
#Full time(mm:ss)=	3:18
#Project=	
#Sample=	
#Site=	
#Title=	Thy_30_10_08_2x_45s_532 nm_x100_100%_600 gr_mm
#Remark=	
#Date=	30.06.2022 11:56
#Acquired=	30.06.2022 11:56:10
#Base:Fit=	10.08.2022 09:56:48
#Base:Fit=	10.08.2022 09:57:06
#Base:Fit=	10.08.2022 09:57:43
#Base:Fit=	10.08.2022 09:57:50
#Base:Fit=	10.08.2022 09:58:11
#Base:Sub=	10.08.2022 09:58:44
#Filter:Polynom=	16.08.2022 10:22:53
#AxisType[0]=Intens
#AxisUnit[0]=Cnt
#AxisType[1]=Spectr
#AxisUnit[1]=1/cm
200.533	-1.0653
202.348	4.33616
204.162	7.74252
205.976	10.9338
207.792	13.9863
209.605	16.2382
211.418	18.3695
213.23	19.758
215.044	20.4224
216.856	21.5825
218.667	21.7859
220.478	21.5321
222.289	22.2015
224.102	21.9531
225.912	21.7205
227.721	22.5938
229.531	21.7373
231.34	20.7932
233.148	19.2248
234.956	19.9674
236.766	20.1353
238.574	20.2258
240.381	20.4885
242.188	21.045
243.994	20.913
245.801	20.9744
247.606	19.4378
249.412	18.3539
251.217	17.2489
253.024	16.473
254.828	16.2915
256.632	15.7919
258.436	15.41
260.239	13.8358
262.042	13.2757
263.845	13.7471
265.647	14.6378
267.449	13.958
269.25	13.631
271.052	12.9142
272.852	13.832
274.653	12.8313
276.453	13.3948
278.253	13.7453
280.052	13.3999
281.852	13.4812
283.65	13.708
285.449	13.6135
287.247	13.8065
289.044	13.8498
290.842	13.4645
292.639	12.525
294.436	13.0724
296.232	12.6582
298.028	11.8118
299.821	11.7617
301.617	12.2379
303.412	11.7473
305.206	11.5209
307	12.8161
308.794	12.6814
310.588	12.4492
312.381	13.5069
314.172	13.7308
315.964	13.6432
317.756	13.4908
319.548	12.7363
321.34	13.1922
323.131	13.5048
324.921	15.0693
326.71	14.5179
328.5	14.0983
330.29	13.6692
332.079	13.7548
333.868	13.1617
335.654	12.7557
337.443	11.6518
339.231	11.8818
341.018	11.3939
342.804	11.4835
344.591	10.1484
346.377	9.29065
348.163	8.18941
349.947	7.64809
351.733	7.28606
353.518	7.24491
355.303	7.22872
357.085	6.08082
358.869	5.94666
360.653	5.34848
362.435	5.12363
364.218	3.55087
366.001	3.95466
367.781	3.77515
369.563	3.53285
371.345	3.05842
373.124	2.66437
374.905	1.45605
376.686	1.46248
378.464	0.64024
380.244	0.649605
382.022	1.06532
383.801	2.46627
385.58	2.30469
387.357	2.1565
389.135	2.80008
390.911	2.80173
392.689	2.71978
394.466	2.67603
396.241	3.71458
398.018	3.50016
399.792	3.21448
401.568	4.0486
403.341	3.94182
405.117	3.43327
406.889	3.48302
408.664	3.53471
410.436	3.65574
412.21	3.77213
413.981	3.97217
415.755	3.14902
417.525	3.05409
419.298	3.0698
421.068	3.37434
422.84	3.30137
424.609	3.74948
426.38	3.97421
428.149	4.78655
429.919	4.35204
431.688	3.66751
433.455	2.38885
435.225	2.92147
436.992	2.46635
438.76	2.86977
440.527	2.77342
442.293	3.12207
444.06	3.16327
445.826	2.27989
447.593	2.44354
449.357	2.83134
451.122	3.02233
452.888	2.58452
454.651	2.68563
456.415	2.72635
458.18	3.94923
459.942	4.11025
461.705	4.70078
463.469	4.96311
465.23	5.75421
466.991	5.75781
468.752	7.18973
470.515	7.52942
472.275	7.53668
474.035	7.05208
475.797	6.92217
477.556	7.48804
479.315	7.75265
481.073	8.66333
482.834	9.14669
484.592	9.81975
486.349	10.2422
488.106	10.7763
489.863	11.3468
491.622	11.6562
493.378	11.7024
495.134	12.0673
496.889	12.586
498.645	13.5078
500.401	13.9009
502.156	14.3475
503.91	14.0553
505.664	14.6978
507.417	15.489
509.171	15.795
510.923	15.806
512.678	15.5213
514.43	13.984
516.182	13.02
517.933	12.191
519.684	12.2106
521.435	12.2355
523.186	12.4037
524.936	11.617
526.686	11.4082
528.435	11.6354
530.184	11.3439
531.933	10.9267
533.682	10.7559
535.43	10.8307
537.18	10.3897
538.927	9.4953
540.674	8.85268
542.421	9.45858
544.167	10.0417
545.913	10.1446
547.659	9.57194
549.403	9.19778
551.148	8.14031
552.893	7.67272
554.637	6.90836
556.381	6.66341
558.125	5.4458
559.868	5.2237
561.611	5.30182
563.354	4.46272
565.097	4.37129
566.839	4.30147
568.581	3.89744
570.322	2.89269
572.063	2.80159
573.802	3.16998
575.542	2.64412
577.283	2.37535
579.022	2.52052
580.762	2.20937
582.501	1.75056
584.24	2.00862
585.976	1.51823
587.714	1.61293
589.452	1.03777
591.19	-0.254033
592.927	-0.717243
594.663	-0.99664
596.398	-2.05956
598.134	-1.97329
599.87	-1.908
601.605	-2.14042
603.338	-1.09674
605.073	-0.0343153
606.808	0.410092
608.542	0.181414
610.274	1.19026
612.007	1.44875
613.74	2.48141
615.473	3.1885
617.204	3.70057
618.936	4.26194
620.668	4.67188
622.397	5.57346
624.128	6.1977
625.859	6.57101
627.588	6.37516
629.318	7.45192
631.048	7.83552
632.775	8.20969
634.505	8.93649
636.233	9.09187
637.96	9.50051
639.688	10.3333
641.416	10.3029
643.142	10.9799
644.869	11.2864
646.594	12.0882
648.32	12.0487
650.045	11.904
651.771	12.8933
653.496	13.5072
655.219	13.5711
656.944	13.6308
658.667	14.6194
660.391	15.4576
662.113	16.012
663.837	16.2326
665.558	16.2588
667.281	17.1421
669.002	18.4607
670.724	19.6442
672.444	19.4589
674.166	20.3522
675.885	21.1002
677.606	21.9197
679.325	22.6659
681.045	23.6745
682.763	23.8098
684.483	24.9133
686.2	24.9753
687.917	25.854
689.636	26.6715
691.352	27.5486
693.07	29.2118
694.786	30.2724
696.501	30.9323
698.219	31.5432
699.933	33.3984
701.65	34.6732
703.364	35.5253
705.078	36.1136
706.793	36.5152
708.506	37.8021
710.219	38.794
711.934	38.685
713.646	38.93
715.358	40.4086
717.071	40.2027
718.782	41.3542
720.493	41.7281
722.204	42.3253
723.916	42.7119
725.626	42.7519
727.336	43.1269
729.045	44.9129
730.756	45.3693
732.464	45.5889
734.173	47.0096
735.881	48.2429
737.59	49.3706
739.297	50.1129
741.004	50.4065
742.711	51.7404
744.417	52.8536
746.125	54.6399
747.831	55.5334
749.537	56.5913
751.242	58.8228
752.946	61.0872
754.651	61.5965
756.357	62.5145
758.061	63.9308
759.764	65.3467
761.467	66.9243
763.17	66.4174
764.872	67.3762
766.575	68.3969
768.276	69.6507
769.978	71.6021
771.679	72.7949
773.382	73.9945
775.083	75.2943
776.783	77.4598
778.483	79.1865
780.182	80.5427
781.882	81.4012
783.581	83.4831
785.279	84.9874
786.978	84.8074
788.676	85.084
790.373	86.0427
792.071	87.3528
793.768	87.9306
795.464	88.2883
797.161	89.5673
798.857	90.5628
800.552	91.1413
802.248	91.7921
803.941	92.7129
805.636	93.1239
807.33	94.366
809.024	95.5019
810.718	96.3031
812.412	97.47
814.105	98.7894
815.798	98.3587
817.49	98.6434
819.183	100.775
820.873	100.18
822.564	99.9885
824.256	99.9273
825.947	99.2952
827.637	99.0624
829.328	98.6412
831.016	98.404
832.705	97.338
834.395	97.8592
836.084	97.2097
837.772	96.984
839.459	95.1611
841.147	94.6146
842.835	93.0713
844.522	91.9677
846.209	91.5454
847.894	90.6762
849.581	90.156
851.267	88.5396
852.953	88.7197
854.637	86.8699
856.322	85.3974
858.007	84.7739
859.689	84.2048
861.374	84.0491
863.058	83.0512
864.739	82.593
866.423	80.4071
868.106	79.0825
869.787	78.4919
871.469	76.7601
873.151	76.4055
874.831	75.8111
876.512	75.3842
878.193	73.8737
879.872	73.3888
881.553	72.4757
883.231	70.8378
884.911	70.5849
886.591	70.2646
888.268	69.5139
889.947	69.7501
891.623	69.2355
893.302	69.3918
894.978	68.5717
896.656	68.2959
898.331	66.7163
900.008	65.5448
901.683	66.2409
903.359	65.7424
905.033	63.9444
906.709	63.643
908.383	63.3459
910.058	62.7601
911.731	63.4047
913.405	63.1731
915.078	62.6485
916.752	62.568
918.423	62.887
920.096	62.1006
921.768	62.6451
923.438	62.3432
925.111	63.8046
926.781	64.3486
928.452	64.9677
930.122	64.6359
931.791	64.5196
933.462	64.2166
935.13	64.8731
936.799	65.1175
938.468	63.7746
940.136	64.1744
941.803	63.9959
943.472	63.5265
945.139	63.5248
946.805	62.7495
948.473	61.9521
950.139	61.5934
951.804	61.8971
953.471	62.3579
955.136	61.6068
956.801	61.3279
958.465	59.9344
960.131	59.3722
961.794	57.6131
963.458	57.3841
965.12	57.3029
966.785	58.0323
968.447	58.4657
970.109	58.9317
971.771	58.6859
973.432	58.6873
975.095	57.6959
976.756	57.6745
978.417	57.785
980.077	58.6034
981.737	58.5822
983.396	59.4333
985.057	60.1557
986.716	59.6373
988.375	59.4663
990.033	59.8428
991.691	59.8353
993.349	59.4993
995.006	60.3489
996.663	60.3604
998.32	61.0828
999.976	61.8278
1001.63	62.1175
1003.29	62.7847
1004.95	62.9631
1006.6	63.2213
1008.26	63.3579
1009.91	62.0796
1011.56	62.8433
1013.22	62.9662
1014.87	62.9127
1016.53	62.4277
1018.18	61.0218
1019.83	60.0092
1021.48	59.3664
1023.14	58.8068
1024.79	58.5732
1026.44	58.5934
1028.09	57.8747
1029.74	57.8677
1031.39	57.2119
1033.04	57.5068
1034.69	56.1475
1036.34	55.6826
1037.99	53.6429
1039.64	52.5094
1041.29	51.4054
1042.94	51.0911
1044.58	49.7305
1046.23	49.9119
1047.88	50.1324
1049.52	50.6984
1051.17	49.4947
1052.82	48.3049
1054.46	46.9541
1056.11	46.0498
1057.75	45.7133
1059.4	45.9164
1061.04	46.6485
1062.69	45.7285
1064.33	44.5784
1065.98	43.7749
1067.62	43.7533
1069.26	43.2162
1070.9	42.7769
1072.55	42.7273
1074.19	42.7755
1075.83	42.9534
1077.47	43.7238
1079.11	43.4095
1080.76	42.9534
1082.4	42.7894
1084.04	42.389
1085.68	42.2643
1087.32	42.3958
1088.95	43.1852
1090.59	43.8192
1092.23	44.7428
1093.87	46.2398
1095.51	45.1
1097.15	44.8215
1098.78	44.7774
1100.42	45.3625
1102.06	46.4556
1103.69	47.7475
1105.33	48.5669
1106.97	49.0696
1108.6	49.1396
1110.24	49.1273
1111.87	49.6616
1113.51	49.0755
1115.14	48.4923
1116.77	47.5285
1118.41	47.9955
1120.04	46.8693
1121.67	47.1296
1123.31	46.5324
1124.94	46.0531
1126.57	45.7667
1128.2	45.49
1129.83	44.8655
1131.47	43.7811
1133.1	42.0898
1134.72	42.7514
1136.36	42.6702
1137.98	42.3259
1139.62	41.6859
1141.24	41.0601
1142.87	40.9986
1144.5	39.5969
1146.13	38.3115
1147.76	37.7564
1149.38	37.1269
1151.01	35.8268
1152.64	34.8493
1154.27	33.8663
1155.89	33.3132
1157.52	32.1186
1159.14	31.4334
1160.77	30.1014
1162.39	29.5991
1164.02	28.7779
1165.64	27.5235
1167.27	27.4646
1168.89	28.2385
1170.51	28.1073
1172.14	27.9143
1173.76	28.3871
1175.38	27.9807
1177	27.4655
1178.63	27.5896
1180.25	27.3166
1181.87	27.7676
1183.49	27.6209
1185.11	28.0669
1186.73	27.7392
1188.35	28.1008
1189.97	28.9678
1191.59	29.5008
1193.21	29.3229
1194.83	29.9345
1196.45	30.8024
1198.07	32.0223
1199.68	33.4239
1201.3	34.1757
1202.92	36.1496
1204.53	37.4922
1206.15	38.5973
1207.77	40.3329
1209.38	41.5144
1211	42.4797
1212.62	44.5223
1214.23	46.9231
1215.84	49.575
1217.46	51.5274
1219.07	53.0608
1220.69	54.8276
1222.3	57.1824
1223.91	58.7673
1225.53	59.6835
1227.14	60.4819
1228.75	62.4116
1230.36	63.5704
1231.97	65.3348
1233.59	66.0581
1235.2	66.6982
1236.81	67.5806
1238.42	68.3622
1240.03	69.7526
1241.64	70.5965
1243.25	71.5185
1244.85	71.9888
1246.46	72.9873
1248.07	74.0462
1249.68	74.3598
1251.29	74.3774
1252.9	74.7002
1254.5	75.5323
1256.11	75.4398
1257.72	75.9788
1259.32	76.8354
1260.93	77.0782
1262.54	78.5774
1264.14	79.2101
1265.75	80.6493
1267.35	81.4858
1268.96	82.5468
1270.56	82.7708
1272.16	83.5076
1273.77	84.7367
1275.37	86.4293
1276.97	87.0391
1278.57	87.5313
1280.18	88.1064
1281.78	89.0379
1283.38	89.8295
1284.98	90.3067
1286.58	90.9692
1288.18	90.8822
1289.78	91.2411
1291.38	91.3997
1292.99	92.3478
1294.58	92.8725
1296.18	93.1301
1297.78	92.9995
1299.38	92.3712
1300.98	92.7262
1302.58	91.8673
1304.17	90.7759
1305.77	90.5644
1307.37	90.6958
1308.97	91.1174
1310.56	90.7649
1312.16	89.4485
1313.76	87.8072
1315.35	86.9558
1316.95	87.2671
1318.54	85.8866
1320.14	84.8303
1321.73	83.7466
1323.32	82.6302
1324.92	81.7484
1326.51	81.1451
1328.1	80.8683
1329.7	80.1078
1331.29	78.8748
1332.88	78.6289
1334.47	78.134
1336.07	77.952
1337.66	77.1129
1339.25	76.4688
1340.84	75.4406
1342.43	75.6049
1344.02	74.9921
1345.61	74.4586
1347.2	73.7764
1348.79	73.2278
1350.37	72.3693
1351.96	71.8017
1353.55	71.2765
1355.14	70.1564
1356.73	69.1601
1358.31	68.1894
1359.9	68.1554
1361.49	68.0435
1363.07	67.0569
1364.66	66.0913
1366.25	65.0647
1367.83	64.1189
1369.42	63.6039
1371	63.0584
1372.59	62.2298
1374.17	62.0721
1375.75	60.9056
1377.34	59.7434
1378.92	58.3075
1380.5	57.6413
1382.09	56.1637
1383.67	55.1899
1385.25	54.4826
1386.83	53.6539
1388.42	51.8193
1390	50.0688
1391.58	49.0816
1393.16	48.3035
1394.74	47.2293
1396.32	46.6567
1397.9	44.3026
1399.48	43.7264
1401.06	43.9213
1402.64	43.3378
1404.21	44.0694
1405.79	43.8352
1407.37	43.8633
1408.95	42.9105
1410.53	43.5327
1412.1	44.2281
1413.68	44.3051
1415.26	45.2258
1416.83	45.4979
1418.41	46.6526
1419.98	47.6218
1421.56	49.2381
1423.13	50.7794
1424.71	51.7516
1426.28	53.4896
1427.86	54.8159
1429.43	56.9125
1431	58.8364
1432.58	62.2649
1434.15	64.45
1435.72	66.8975
1437.29	69.2093
1438.87	71.3526
1440.44	72.5744
1442.01	73.9628
1443.58	74.9168
1445.15	76.8558
1446.72	77.5166
1448.29	77.7265
1449.86	78.2714
1451.43	77.4978
1453	77.378
1454.57	75.8587
1456.14	75.1708
1457.71	74.3914
1459.27	73.6015
1460.84	71.6598
1462.41	70.0566
1463.98	68.2493
1465.54	66.9375
1467.11	64.648
1468.67	62.8702
1470.24	61.0269
1471.81	58.2217
1473.37	55.4048
1474.94	53.0101
1476.5	50.9844
1478.07	49.1899
1479.63	47.4231
1481.19	44.6983
1482.76	41.9709
1484.32	38.7052
1485.88	35.5637
1487.45	32.8978
1489.01	30.1918
1490.57	27.7574
1492.13	25.3794
1493.69	23.9492
1495.26	22.143
1496.82	21.4065
1498.38	20.1092
1499.94	19.1667
1501.5	17.9538
1503.06	16.7544
1504.62	16.478
1506.17	16.7913
1507.73	17.1856
1509.29	18.1898
1510.85	18.6191
1512.41	17.6164
1513.97	17.6659
1515.52	16.3976
1517.08	16.3346
1518.64	16.3294
1520.19	16.7235
1521.75	17.1758
1523.31	17.7583
1524.86	17.2821
1526.42	18.0646
1527.97	18.8754
1529.52	19.5257
1531.08	20.5822
1532.63	21.7064
1534.19	23.3729
1535.74	23.5617
1537.29	24.6359
1538.85	25.9376
1540.4	26.7147
1541.95	28.4666
1543.5	29.7635
1545.06	30.9316
1546.61	31.5086
1548.16	33.7597
1549.71	34.4568
1551.26	36.2433
1552.81	38.6655
1554.36	40.7204
1555.91	41.5744
1557.46	42.962
1559.01	43.8295
1560.56	44.0762
1562.11	44.743
1563.65	44.9344
1565.2	46.6464
1566.75	47.8364
1568.29	49.9399
1569.84	50.5561
1571.39	51.7356
1572.94	52.9222
1574.48	54.1062
1576.03	54.9565
1577.57	56.0794
1579.12	57.3098
1580.66	58.9792
1582.21	60.0865
1583.75	60.6204
1585.3	60.5867
1586.84	60.7521
1588.38	59.7876
1589.93	58.9651
1591.47	59.173
1593.01	58.0704
1594.55	58.3688
1596.1	58.2231
1597.64	57.4528
1599.18	57.0359
1600.72	55.6939
1602.26	55.5951
1603.8	55.3724
1605.34	54.7066
1606.88	54.1899
1608.42	53.7512
1609.96	53.3806
1611.5	52.0723
1613.04	50.9722
1614.58	50.9195
1616.12	50.647
1617.65	49.8697
1619.19	50.484
1620.73	50.5123
1622.27	51.7117
1623.8	52.7561
1625.34	54.0169
1626.87	54.6204
1628.41	56.3519
1629.95	57.9293
1631.48	58.4751
1633.02	59.3733
1634.55	61.2192
1636.09	62.488
1637.62	63.9373
1639.15	66.1565
1640.69	68.4008
1642.22	71.371
1643.76	73.4724
1645.29	74.7026
1646.82	75.6561
1648.35	77.217
1649.88	79.1813
1651.42	80.9468
1652.95	82.4612
1654.48	82.479
1656.01	82.9761
1657.54	82.4472
1659.07	82.1893
1660.6	81.2746
1662.13	81.5052
1663.66	80.9594
1665.19	79.9704
1666.72	79.0857
1668.24	77.4843
1669.77	75.3544
1671.3	73.7416
1672.83	71.6268
1674.35	68.2772
1675.88	66.1355
1677.41	62.9823
1678.93	60.0225
1680.46	56.9312
1681.99	54.1583
1683.51	50.8553
1685.04	47.173
1686.56	43.6482
1688.09	39.3763
1689.61	36.558
1691.13	32.8112
1692.66	29.8237
1694.18	26.8831
1695.71	24.2874
1697.23	21.9042
1698.75	19.8881
1700.27	17.4669
1701.8	15.3308
1703.32	13.6275
1704.84	11.9118
1706.36	10.5685
1707.88	9.25418
1709.4	8.37077
1710.92	7.61603
1712.44	6.51311
1713.96	5.90631
1715.48	5.01673
1717	4.18824
1718.52	3.81298
1720.04	2.87749
1721.56	2.2929
1723.07	1.90122
1724.59	2.06241
1726.11	1.74722
1727.63	1.23262
1729.14	0.741063
1730.66	-0.0141806
1732.18	0.00369056
1733.69	-0.208547
1735.21	0.794717
1736.72	0.377822
1738.24	1.02859
1739.75	0.868108
1741.27	0.640928
1742.78	0.519255
1744.3	-0.499446
1745.81	-0.158109
1747.32	-0.399478
1748.84	-0.78425
1750.35	-1.1641
1751.86	-0.91698
1753.37	-1.10457
1754.89	-1.48122
1756.4	-1.10017
1757.91	-1.37418
1759.42	-1.85197
1760.93	-2.14829
1762.44	-2.22895
1763.95	-2.54739
1765.46	-1.75856
1766.97	-2.28153
1768.48	-2.25358
1769.99	-1.61271
1771.5	-1.8335
1773.01	-1.01159
1774.52	-0.982296
1776.03	-1.42354
1777.53	-1.18627
1779.04	-0.964963
1780.55	-0.251235
1782.06	-0.0429108
1783.56	0.434127
1785.07	0.410007
1786.57	1.1307
1788.08	1.49152
1789.59	1.87215
1791.09	1.58541
1792.6	2.10381
1794.1	2.17396
1795.6	2.28375
1797.11	2.52883
1798.61	2.4649
1800.12	3.26689
1801.62	3.23748
1803.12	3.5196
1804.63	4.15834
1806.13	4.27445
1807.63	4.26437
1809.13	5.07252
1810.63	5.46821
1812.14	5.49273
1813.64	6.11205
1815.14	6.41292
1816.64	6.38109
1818.14	6.10758
1819.64	5.85633
1821.14	5.94625
1822.64	5.76363
1824.14	6.84104
1825.63	7.17393
1827.13	7.08135
1828.63	7.33171
1830.13	7.38879
1831.63	7.68558
1833.12	7.77503
1834.62	7.98821
1836.12	8.2483
1837.62	8.396
1839.11	8.17039
1840.61	8.90571
1842.1	9.07856
1843.6	9.38982
1845.09	10.3079
1846.59	10.6671
1848.08	10.7652
1849.58	10.5606
1851.07	10.2958
1852.57	11.2451
1854.06	10.99
1855.55	10.5301
1857.04	10.807
1858.54	10.822
1860.03	10.1895
1861.52	9.85403
1863.01	9.15809
1864.5	8.44783
1866	8.25618
1867.49	8.72044
1868.98	8.52894
1870.47	8.2939
1871.96	8.38413
1873.45	8.04278
1874.94	7.88169
1876.43	7.93042
1877.92	7.4056
1879.41	7.60509
1880.89	8.09145
1882.38	8.0907
1882.48	7.71194
1883.97	7.36576
1885.47	7.71194
1886.96	7.96458
1888.46	7.68806
1889.95	7.58073
1891.44	7.28737
1892.94	7.08214
1894.43	6.85633
1895.92	7.89839
1897.41	8.63184
1898.9	7.81729
1900.4	7.80898
1901.89	7.88369
1903.38	8.08858
1904.87	8.12332
1906.36	7.99639
1907.85	8.23973
1909.34	8.81723
1910.83	9.11154
1912.32	9.7503
1913.81	11.0237
1915.29	11.2781
1916.78	11.5813
1918.27	11.9607
1919.76	11.7671
1921.25	11.5352
1922.74	12.0273
1924.22	11.9984
1925.71	12.3905
1927.2	11.6177
1928.68	12.0272
1930.17	11.9714
1931.65	11.3365
1933.14	10.8169
1934.63	11.1945
1936.11	10.9784
1937.59	11.0123
1939.08	10.8167
1940.56	10.9669
1942.05	10.735
1943.53	10.8344
1945.01	11.0062
1946.5	10.9316
1947.98	10.6536
1949.46	10.6555
1950.94	10.3496
1952.43	10.7767
1953.91	10.6853
1955.39	10.0322
1956.87	9.60283
1958.35	10.1649
1959.83	9.86699
1961.31	9.4636
1962.79	8.8443
1964.27	9.31153
1965.75	8.81352
1967.23	8.42143
1968.71	9.0558
1970.19	9.92704
1971.67	9.38692
1973.14	9.04434
1974.62	9.34858
1976.1	9.42224
1977.58	10.3231
1979.05	10.2986
1980.53	10.6724
1982.01	11.2436
1983.48	12.1805
1984.96	12.4556
1986.43	12.4378
1987.91	12.9935
1989.38	13.0382
1990.86	13.6036
1992.33	14.0123
1993.81	14.1519
1995.28	14.1589
1996.76	14.5323
1998.23	14.5364
1999.7	14.3782
2001.18	15.3217
2002.65	15.5581
2004.12	15.7891
2005.59	16.1763
2007.06	16.182
2008.54	16.9841
2010.01	16.4956
2011.48	17.0549
2012.95	17.0705
2014.42	17.7627
2015.89	17.7551
2017.36	17.5816
2018.83	16.8227
2020.3	16.5809
2021.77	16.6133
2023.24	16.8307
2024.71	17.3892
2026.17	17.507
2027.64	17.5547
2029.11	17.6223
2030.58	17.6927
2032.04	17.577
2033.51	17.2454
2034.98	17.249
2036.45	16.705
2037.91	17.4539
2039.38	17.4983
2040.84	17.708
2042.31	17.771
2043.77	17.8382
2045.24	17.8176
2046.7	17.9759
2048.17	17.8353
2049.63	17.627
2051.1	17.3634
2052.56	17.195
2054.02	17.1941
2055.48	17.2725
2056.95	17.5751
2058.41	17.3304
2059.87	17.6674
2061.33	17.9501
2062.8	17.5134
2064.26	17.8534
2065.72	17.6797
2067.18	17.9392
2068.64	18.3685
2070.1	19.3582
2071.56	19.0498
2073.02	19.2237
2074.48	19.4252
2075.94	19.7919
2077.4	20.2961
2078.86	20.9369
2080.31	21.3985
2081.77	22.953
2083.23	23.4456
2084.69	24.1595
2086.14	25.0274
2087.6	25.6737
2089.06	26.1946
2090.52	26.3193
2091.97	27.114
2093.43	27.5849
2094.88	28.9361
2096.34	29.4853
2097.79	30.8202
2099.25	31.1625
2100.7	31.8048
2102.16	32.8339
2103.61	33.6255
2105.07	34.2879
2106.52	35.3486
2107.97	36.4849
2109.43	37.6668
2110.88	38.9279
2112.33	39.1822
2113.78	39.467
2115.24	40.2784
2116.69	42.0895
