#Acq. time (s)=	45
#Accumulations=	2
#Range (cm-¹)=	200...3150
#Windows=	2
#Auto scanning=	Off
#Autofocus=	Off
#Macrospot=	Off
#AutoExposure=	Off
#Spike filter=	Multiple accum.
#Delay time (s)=	0
#Binning=	1
#Readout mode=	Signal
#DeNoise=	Off
#ICS correction=	On
#Dark correction=	Off
#Inst. Process=	Off
#Detector Gain=	Best Dynamic Range
#Detector ADC=	20 kHz       
#Detector temperature (°C)=	-69.85
#Instrument=	LabRAM HR Evol
#Detector=	Synapse
#Objective=	x100
#Grating=	600 gr/mm
#ND Filter=	100%
#Laser (nm)=	532 
#Hole=	100.021
#Range=	Auto
#Laser Pol.=	No
#Raman. Pol.=	No
#Laser Pol. (°)=	-0.0007625
#Raman Pol. (°)=	89.9995
#Collection=	Microscope
#StageXY=	Marzhauser
#StageZ=	Marzhauser
#X (µm)=	251.8
#Y (µm)=	1687.8
#Z (µm)=	426.85
#Full time(mm:ss)=	3:18
#Project=	
#Sample=	
#Site=	
#Title=	Thy_40_11_41_2x_45s_532 nm_x100_100%_600 gr_mm
#Remark=	
#Date=	05.07.2022 12:54
#Acquired=	05.07.2022 12:54:42
#Base:Fit=	10.08.2022 10:01:35
#Base:Sub=	10.08.2022 10:01:52
#Filter:Polynom=	16.08.2022 10:21:53
#AxisType[0]=Intens
#AxisUnit[0]=Cnt
#AxisType[1]=Spectr
#AxisUnit[1]=1/cm
200.43	45.2911
202.244	44.5741
204.059	41.7915
205.873	38.8885
207.688	36.1835
209.501	33.3739
211.314	30.4658
213.127	28.1924
214.941	25.6237
216.753	23.9225
218.564	21.4186
220.375	20.1084
222.186	16.6826
223.999	15.1464
225.809	13.2112
227.618	11.8432
229.428	11.2498
231.236	10.3491
233.045	9.66104
234.855	8.9808
236.663	8.05289
238.471	6.89
240.278	5.72808
242.085	5.18664
243.891	4.9727
245.698	4.54805
247.503	4.2931
249.309	4.21427
251.116	4.68918
252.921	2.53234
254.725	3.10764
256.529	2.71719
258.333	1.10797
260.136	0.935229
261.939	1.41002
263.742	1.42507
265.544	2.42613
267.346	2.63822
269.148	2.3506
270.949	2.76721
272.75	4.99738
274.55	5.99567
276.351	6.10343
278.15	6.19618
279.95	6.24703
281.749	6.08137
283.548	5.71276
285.346	5.68733
287.144	6.09047
288.942	6.07222
290.739	5.57383
292.536	5.73265
294.333	5.78119
296.129	6.00883
297.925	6.62003
299.721	8.22176
301.514	7.90032
303.309	8.09612
305.104	7.69293
306.898	7.93857
308.692	7.10805
310.486	8.48228
312.279	8.04345
314.072	9.83238
315.862	10.8068
317.654	12.4426
319.446	13.3348
321.238	14.1479
323.029	14.7492
324.819	14.1327
326.608	13.509
328.398	13.314
330.188	13.2737
331.977	13.863
333.766	13.3508
335.553	13.2208
337.341	12.9554
339.129	13.0789
340.917	12.7675
342.704	12.163
344.489	13.1247
346.275	12.4628
348.062	12.5689
349.845	13.5076
351.631	14.6467
353.416	13.7193
355.201	13.4351
356.984	13.112
358.768	12.6906
360.552	12.5468
362.333	12.4389
364.116	11.9896
365.899	11.961
367.68	11.7436
369.462	11.1998
371.243	11.6691
373.023	11.6546
374.804	12.3714
376.585	11.3895
378.363	10.7866
380.143	10.5327
381.923	10.5613
383.7	10.2469
385.479	9.75995
387.256	10.2716
389.034	9.76476
390.812	7.78847
392.588	7.93675
394.365	7.964
396.14	8.45247
397.916	8.30574
399.691	9.39745
401.467	8.66287
403.24	8.69133
405.015	7.90918
406.788	8.13031
408.563	7.97115
410.335	7.16325
412.109	5.72466
413.88	5.38396
415.654	5.70917
417.424	5.58382
419.197	5.3051
420.967	4.99549
422.739	4.55072
424.508	5.53126
426.279	5.1699
428.048	4.18087
429.819	4.29655
431.587	4.04963
433.356	4.61969
435.124	2.80214
436.891	2.47874
438.66	1.91698
440.426	1.48694
442.194	0.453919
443.96	1.32579
445.725	1.94949
447.492	3.18501
449.257	3.69592
451.021	5.09046
452.787	7.05452
454.551	8.29236
456.314	9.6101
458.079	10.2527
459.842	11.3715
461.604	11.3768
463.368	11.8919
465.13	13.1707
466.891	14.5895
468.654	14.3782
470.415	14.6274
472.175	14.2722
473.935	14.7598
475.696	16.0153
477.456	15.3271
479.215	15.6762
480.973	16.8968
482.733	17.1131
484.491	17.1879
486.249	17.5851
488.006	18.5129
489.765	19.303
491.522	20.1367
493.278	20.8058
495.034	21.8178
496.789	21.8919
498.544	20.828
500.301	21.5438
502.056	23.2343
503.81	23.0767
505.564	23.0082
507.317	23.4884
509.071	23.6874
510.825	23.8522
512.578	23.0065
514.33	22.275
516.082	22.6275
517.833	22.5774
519.585	21.7141
521.335	21.2703
523.086	19.7821
524.836	20.3466
526.586	20.1824
528.335	20.9992
530.085	20.7351
531.835	20.6623
533.584	20.2666
535.332	21.1735
537.08	20.2065
538.827	20.9833
540.574	21.678
542.321	20.6586
544.068	20.3695
545.814	19.6584
547.56	19.5257
549.305	19.0084
551.05	19.0419
552.795	18.5311
554.54	16.8437
556.282	15.0888
558.025	14.5017
559.769	14.1255
561.512	12.9632
563.255	11.7223
564.997	10.7705
566.739	10.222
568.481	9.71174
570.223	9.15099
571.964	8.24738
573.705	8.93719
575.443	7.86842
577.183	8.11462
578.923	7.31646
580.663	7.00123
582.402	6.44361
584.141	7.29915
585.879	7.43705
587.615	8.65752
589.353	9.45621
591.09	9.53858
592.828	9.10105
594.564	8.80555
596.299	7.88681
598.035	6.48418
599.771	5.89476
601.506	6.14123
603.242	6.4643
604.974	5.83858
606.709	7.00687
608.443	7.18014
610.177	8.12233
611.908	9.57015
613.642	11.816
615.374	12.3854
617.105	12.1197
618.837	13.125
620.569	13.8274
622.3	14.5886
624.03	14.6196
625.761	16.1199
627.491	16.7279
629.219	16.9445
630.949	18.008
632.677	19.0381
634.406	18.9107
636.135	19.1334
637.861	19.0132
639.59	18.568
641.318	19.1494
643.043	19.4544
644.77	19.097
646.495	18.8706
648.222	17.8129
649.948	18.374
651.672	19.0115
653.398	19.0085
655.121	19.7019
656.846	19.0082
658.569	19.0044
660.293	19.8138
662.015	19.4936
663.738	21.2912
665.46	20.9421
667.183	20.6525
668.903	20.9115
670.626	22.1011
672.346	22.5468
674.067	23.0606
675.787	23.247
677.508	22.6986
679.226	22.1865
680.947	22.2655
682.665	22.6172
684.385	23.1729
686.102	24.2761
687.821	25.738
689.538	27.492
691.254	29.6924
692.972	31.2606
694.688	32.0091
696.406	33.948
698.121	34.8151
699.835	35.425
701.552	35.4115
703.266	35.6783
704.98	36.0044
706.695	35.8438
708.409	35.8162
710.121	36.8826
711.836	37.2797
713.548	38.2064
715.26	38.9046
716.973	39.5407
718.685	40.4711
720.396	40.6569
722.108	41.4449
723.818	41.4702
725.528	42.3316
727.238	41.9918
728.949	41.9393
730.658	41.8349
732.367	42.3452
734.075	43.0577
735.785	43.8878
737.493	44.012
739.2	43.7361
740.907	44.6876
742.614	46.1393
744.322	47.4985
746.028	49.1577
747.734	50.9337
749.439	52.4058
751.144	52.4978
752.849	53.7222
754.555	55.8689
756.26	56.4892
757.963	57.958
759.667	58.8895
761.37	60.0341
763.073	60.6856
764.775	61.4185
766.477	62.9826
768.179	64.5595
769.883	65.3245
771.584	66.8695
773.285	69.6749
774.986	70.75
776.686	72.1177
778.386	73.0451
780.085	74.0158
781.785	75.2749
783.484	75.6658
785.182	76.2428
786.881	76.225
788.579	76.4805
790.276	76.8142
791.974	77.6592
793.671	78.6533
795.367	79.4987
797.064	80.5009
798.76	82.0424
800.456	82.1603
802.151	83.0482
803.846	83.3435
805.541	83.8749
807.234	84.2108
808.928	83.4227
810.622	83.2845
812.315	82.8758
814.008	84.314
815.701	84.6575
817.394	85.2196
819.086	86.3169
820.778	87.2448
822.468	87.3865
824.159	87.9854
825.85	90.1365
827.541	90.1217
829.231	89.0863
830.921	88.6968
832.609	88.8515
834.298	87.6124
835.987	86.2461
837.676	86.7135
839.364	86.1836
841.051	84.8469
842.738	83.4246
844.426	81.5493
846.113	79.9063
847.798	77.5608
849.484	76.9083
851.171	77.0557
852.857	75.2477
854.54	73.0839
856.226	72.3444
857.911	70.5579
859.593	67.4336
861.278	66.3158
862.961	65.2624
864.645	62.8355
866.327	59.7467
868.01	58.5622
869.692	57.2627
871.373	56.0971
873.055	55.3591
874.735	53.9027
876.416	53.7283
878.097	52.7521
879.776	51.3297
881.457	50.7206
883.135	49.8765
884.815	49.2826
886.495	48.8425
888.172	48.0232
889.851	47.4761
891.528	45.7633
893.206	44.7819
894.882	44.8911
896.56	44.5763
898.237	45.1111
899.912	44.7256
901.589	43.7999
903.263	44.503
904.94	44.3649
906.614	44.2359
908.289	44.1569
909.962	43.6512
911.635	41.6724
913.31	42.2551
914.982	42.2142
916.656	42.1881
918.328	40.7141
920.001	40.0597
921.672	40.2044
923.345	38.6265
925.015	38.1759
926.685	37.4828
928.357	36.8246
930.026	35.9259
931.698	35.6655
933.366	35.7464
935.035	35.0798
936.705	34.3864
938.373	33.6971
940.041	33.3682
941.71	32.2679
943.377	31.4913
945.044	31.1297
946.712	30.0062
948.378	28.5278
950.044	29.0667
951.709	31.2194
953.376	31.2272
955.041	31.6571
956.706	31.4752
958.372	32.1537
960.036	32.1184
961.699	31.4135
963.362	32.179
965.027	33.3416
966.69	33.8567
968.352	32.9408
970.014	32.8242
971.676	33.4507
973.339	33.7094
975	33.6649
976.661	33.8611
978.322	34.5176
979.982	34.6432
981.642	35.6094
983.303	36.2415
984.962	37.3263
986.621	38.6258
988.28	37.3313
989.938	37.5298
991.596	36.4406
993.254	35.531
994.911	36.1975
996.57	36.507
998.227	36.4081
999.884	35.9393
1001.54	35.9353
1003.2	35.7385
1004.85	36.4849
1006.51	37.2864
1008.16	37.0064
1009.82	36.3088
1011.47	35.7713
1013.12	36.2232
1014.78	36.5804
1016.43	36.795
1018.08	37.2088
1019.74	37.4721
1021.39	36.9308
1023.04	36.9247
1024.69	36.9827
1026.34	36.1144
1028	36.0653
1029.65	36.734
1031.3	38.334
1032.95	39.5317
1034.6	39.1499
1036.25	38.6727
1037.9	38.4139
1039.54	37.1937
1041.19	36.806
1042.84	35.1471
1044.49	35.2266
1046.14	35.3236
1047.78	33.9281
1049.43	32.2709
1051.08	31.2696
1052.72	31.8331
1054.37	30.7093
1056.02	29.1552
1057.66	27.8832
1059.31	26.6155
1060.95	25.1927
1062.6	24.4127
1064.24	23.3477
1065.88	20.888
1067.53	19.5699
1069.17	17.6329
1070.81	16.174
1072.45	15.9172
1074.1	14.6125
1075.74	14.1945
1077.38	14.5959
1079.02	14.1409
1080.66	14.3052
1082.3	13.2661
1083.94	13.5928
1085.58	13.81
1087.22	15.7348
1088.86	15.2832
1090.5	14.7743
1092.14	15.5567
1093.78	16.2527
1095.42	16.9406
1097.05	17.407
1098.69	18.6119
1100.33	19.4052
1101.96	20.0923
1103.6	20.9388
1105.24	20.9493
1106.87	21.0385
1108.51	21.7314
1110.14	22.8185
1111.78	24.1114
1113.41	25.1187
1115.05	23.4851
1116.68	22.852
1118.31	22.7309
1119.95	22.3589
1121.58	21.917
1123.21	21.1619
1124.85	19.3718
1126.48	19.9472
1128.11	18.9349
1129.74	17.4409
1131.37	17.2044
1133	15.9207
1134.63	15.0047
1136.26	13.3378
1137.89	13.1996
1139.52	12.9716
1141.15	11.1034
1142.78	10.4922
1144.41	10.7951
1146.04	10.1596
1147.66	9.32402
1149.29	9.47525
1150.92	9.25714
1152.55	8.80151
1154.17	8.23478
1155.8	8.64653
1157.43	8.71913
1159.05	8.55186
1160.68	8.66858
1162.3	8.29105
1163.93	8.75537
1165.55	9.34507
1167.17	9.18694
1168.8	8.86071
1170.42	8.89385
1172.05	10.4347
1173.67	10.9297
1175.29	10.7341
1176.91	10.9833
1178.54	10.7478
1180.16	10.9635
1181.78	11.7019
1183.4	11.6624
1185.02	12.4107
1186.64	12.6523
1188.26	13.1762
1189.88	14.0109
1191.5	14.2629
1193.12	15.6915
1194.74	15.0478
1196.36	14.917
1197.97	15.8415
1199.59	17.2248
1201.21	18.4008
1202.83	18.1856
1204.44	19.2259
1206.06	20.1451
1207.68	22.9844
1209.29	22.9282
1210.91	24.6291
1212.52	25.8311
1214.14	27.5612
1215.75	29.4454
1217.37	31.389
1218.98	34.1449
1220.59	35.0879
1222.21	36.8074
1223.82	39.9652
1225.43	42.4273
1227.05	44.0095
1228.66	44.8666
1230.27	47.0151
1231.88	48.9455
1233.49	51.8446
1235.1	54.379
1236.72	57.3026
1238.33	58.2832
1239.94	59.9801
1241.55	61.0727
1243.16	62.18
1244.76	64.3275
1246.37	64.9991
1247.98	66.3908
1249.59	68.6158
1251.2	70.1129
1252.8	70.5574
1254.41	71.3646
1256.02	72.3714
1257.62	73.2832
1259.23	74.0531
1260.84	74.7913
1262.44	75.9378
1264.05	76.3073
1265.66	77.4542
1267.26	78.7874
1268.86	79.7482
1270.47	81.7359
1272.07	82.7008
1273.67	84.1534
1275.28	84.1536
1276.88	85.4125
1278.48	85.3568
1280.09	86.8809
1281.69	87.8674
1283.29	88.1217
1284.89	90.0189
1286.49	90.6422
1288.09	91.9108
1289.69	92.6435
1291.29	94.6789
1292.89	95.6783
1294.49	97.6326
1296.09	97.3216
1297.69	98.2861
1299.29	98.8288
1300.89	98.7224
1302.49	99.7214
1304.08	99.907
1305.68	100.327
1307.28	100.257
1308.88	101.529
1310.47	102.972
1312.07	103.415
1313.66	105.154
1315.26	104.511
1316.85	104.215
1318.45	102.906
1320.04	102.245
1321.64	101.55
1323.23	101.858
1324.83	101.377
1326.42	101.39
1328.01	100.86
1329.61	99.9046
1331.2	98.0258
1332.79	96.6816
1334.38	95.2878
1335.97	93.9532
1337.56	91.7328
1339.16	91.4248
1340.75	90.256
1342.34	88.9657
1343.93	87.5702
1345.52	87.1384
1347.11	86.4923
1348.7	85.5704
1350.29	83.906
1351.87	82.3984
1353.46	81.0431
1355.05	78.4628
1356.64	76.7804
1358.22	74.8665
1359.81	74.5223
1361.4	73.2172
1362.98	71.6009
1364.57	70.6039
1366.16	69.457
1367.74	67.832
1369.33	66.9587
1370.91	65.4163
1372.5	64.3045
1374.08	63.1564
1375.67	61.8385
1377.25	61.6019
1378.83	61.0714
1380.41	60.5068
1382	59.6709
1383.58	59.3711
1385.16	58.7511
1386.74	57.43
1388.33	56.4373
1389.91	54.8346
1391.49	54.2854
1393.07	53.7075
1394.65	50.9312
1396.23	49.1318
1397.81	48.6127
1399.39	48.4122
1400.97	48.4071
1402.55	47.7119
1404.13	47.3187
1405.7	46.6328
1407.28	45.0254
1408.86	44.402
1410.44	44.4108
1412.01	45.6675
1413.59	46.6862
1415.17	47.8784
1416.74	48.4912
1418.32	51.2099
1419.89	53.2934
1421.47	55.0202
1423.04	58.4085
1424.62	61.4843
1426.19	64.0454
1427.77	67.917
1429.34	69.735
1430.91	72.4923
1432.49	75.0076
1434.06	77.5224
1435.63	81.2611
1437.2	83.9961
1438.78	87.5956
1440.35	89.8436
1441.92	92.3642
1443.49	94.7896
1445.06	96.7994
1446.63	98.6525
1448.2	99.9721
1449.77	101.185
1451.34	101.678
1452.91	101.866
1454.48	100.579
1456.05	99.5455
1457.62	97.3164
1459.18	95.2047
1460.75	93.6015
1462.32	91.3816
1463.89	88.5144
1465.45	86.0981
1467.02	84.0657
1468.59	81.9839
1470.15	79.2316
1471.72	75.402
1473.28	71.1455
1474.85	68.339
1476.41	65.2576
1477.98	61.466
1479.54	56.7687
1481.1	52.2719
1482.67	48.4997
1484.23	44.0604
1485.79	41.2362
1487.36	38.0272
1488.92	35.9911
1490.48	33.3021
1492.04	30.906
1493.61	29.4337
1495.17	28.2812
1496.73	28.3555
1498.29	28.3899
1499.85	28.0478
1501.41	28.3384
1502.97	27.9606
1504.53	28.8726
1506.09	29.2852
1507.65	28.6085
1509.2	29.6456
1510.76	31.071
1512.32	31.4881
1513.88	32.0777
1515.43	31.8861
1516.99	33.2024
1518.55	33.0865
1520.1	34.1544
1521.66	35.3899
1523.22	36.5679
1524.77	36.7381
1526.33	36.9128
1527.88	37.8196
1529.44	37.8305
1530.99	38.3726
1532.54	38.6322
1534.1	40.616
1535.65	41.6029
1537.21	43.2851
1538.76	44.368
1540.31	45.8978
1541.86	47.2396
1543.42	50.0128
1544.97	51.538
1546.52	53.4069
1548.07	55.4487
1549.62	57.8876
1551.17	59.3947
1552.72	61.2791
1554.27	62.9099
1555.82	65.1908
1557.37	66.6463
1558.92	69.182
1560.47	70.9148
1562.02	72.9172
1563.56	74.9911
1565.11	77.004
1566.66	80.0399
1568.21	82.0157
1569.75	85.1339
1571.3	87.6852
1572.85	90.0135
1574.39	93.4005
1575.94	95.7036
1577.49	97.3557
1579.03	99.3325
1580.57	100.676
1582.12	102.445
1583.66	102.781
1585.21	104.223
1586.75	105.298
1588.3	105.824
1589.84	105.93
1591.38	106.904
1592.92	106.955
1594.47	106.335
1596.01	105.962
1597.55	106.358
1599.09	105.398
1600.63	104.528
1602.17	102.064
1603.71	101.037
1605.25	99.3002
1606.79	97.6132
1608.33	95.9958
1609.87	95.7618
1611.41	95.6897
1612.95	94.39
1614.49	93.6587
1616.03	92.8805
1617.57	93.0338
1619.1	92.8321
1620.64	94.0396
1622.18	93.9983
1623.72	95.6761
1625.25	95.7232
1626.79	95.5358
1628.32	94.9441
1629.86	94.8923
1631.39	95.05
1632.93	96.0072
1634.46	96.7857
1636	97.2976
1637.53	97.8128
1639.07	98.892
1640.6	100.006
1642.13	101.459
1643.67	103.199
1645.2	104.812
1646.73	107.324
1648.26	108.962
1649.8	110.499
1651.33	112.116
1652.86	112.438
1654.39	113.498
1655.92	113.878
1657.45	112.747
1658.98	112.93
1660.51	112.906
1662.04	112.952
1663.57	111.334
1665.1	110.159
1666.63	107.863
1668.16	106.517
1669.68	103.215
1671.21	99.9502
1672.74	97.7139
1674.27	94.6144
1675.79	91.5826
1677.32	88.3159
1678.85	84.4048
1680.37	82.2566
1681.9	79.0664
1683.42	76.0011
1684.95	72.5961
1686.47	69.6298
1688	65.9383
1689.52	61.9157
1691.05	58.8539
1692.57	55.2633
1694.09	52.1256
1695.62	48.8026
1697.14	45.5262
1698.66	42.004
1700.18	38.7233
1701.71	34.8389
1703.23	32.0391
1704.75	29.8367
1706.27	27.8118
1707.79	26.312
1709.31	24.9516
1710.83	23.025
1712.35	21.0033
1713.87	19.0182
1715.39	17.3654
1716.91	16.6433
1718.43	15.7238
1719.95	15.7856
1721.47	15.1486
1722.99	14.1412
1724.5	13.6532
1726.02	12.9637
1727.54	11.4867
1729.06	10.656
1730.57	10.0441
1732.09	9.00537
1733.61	8.51545
1735.12	8.69887
1736.64	8.05028
1738.15	6.62818
1739.67	5.48242
1741.18	4.64155
1742.7	4.03536
1744.21	4.36615
1745.72	2.70837
1747.24	1.96197
1748.75	2.66195
1750.26	2.90948
1751.77	3.07858
1753.29	2.84124
1754.8	3.33552
1756.31	3.25214
1757.82	3.21502
1759.33	2.48924
1760.84	2.47894
1762.36	2.0625
1763.87	2.07797
1765.38	1.96657
1766.89	2.09302
1768.4	1.12476
1769.91	0.969432
1771.41	0.951465
1772.92	1.2316
1774.43	1.46928
1775.94	1.81173
1777.45	2.06878
1778.95	2.47551
1780.46	2.52988
1781.97	2.13007
1783.48	1.93897
1784.98	1.43147
1786.49	1.1829
1787.99	0.554873
1789.5	0.0102674
1791.01	0.142052
1792.51	0.486
1794.01	0.38441
1795.52	0.599767
1797.02	0.142178
1798.53	0.122126
1800.03	0.571409
1801.53	0.240244
1803.04	0.260723
1804.54	0.482981
1806.04	0.0736916
1807.54	0.520295
1809.05	0.531613
1810.55	0.777896
1812.05	0.913703
1813.55	0.799071
1815.05	0.910985
1816.55	1.06079
1818.05	1.98036
1819.55	1.88985
1821.05	2.10225
1822.55	2.65252
1824.05	3.83112
1825.55	3.99538
1827.05	3.99213
1828.55	3.67584
1830.04	3.8944
1831.54	4.13305
1833.04	4.39967
1834.54	3.69149
1836.03	3.91775
1837.53	3.58985
1839.03	4.26509
1840.52	4.30923
1842.02	4.0016
1843.51	3.775
1845.01	3.89153
1846.5	3.7914
1848	3.87779
1849.49	3.38043
1850.99	2.86154
1852.48	2.7753
1853.97	2.42162
1855.47	1.90122
1856.96	1.40862
1858.45	1.50146
1859.94	0.797036
1861.44	0.326518
1862.93	-0.308516
1864.42	0.0437011
1865.91	-0.241747
1867.4	-0.361511
1868.89	0.449127
1870.38	0.553544
1871.87	0.658483
1873.36	0.821487
1874.85	0.732301
1876.34	0.502688
1877.83	0.831645
1879.32	0.889171
1880.81	1.09038
1882.3	1.95801
1882.57	2.81698
1884.07	3.07665
1885.56	2.57713
1887.06	2.55011
1888.55	2.93876
1890.04	3.39113
1891.54	3.54099
1893.03	3.59998
1894.52	4.41674
1896.02	5.11001
1897.51	5.38265
1899	5.39207
1900.49	5.0428
1901.98	5.20693
1903.47	5.41122
1904.96	4.89873
1906.45	5.0284
1907.94	5.42862
1909.43	5.46945
1910.92	5.48762
1912.41	5.11193
1913.9	4.72707
1915.39	4.85109
1916.88	5.17492
1918.37	5.06992
1919.85	4.96366
1921.34	4.13304
1922.83	3.58428
1924.32	3.59466
1925.8	3.52641
1927.29	2.96758
1928.78	2.35928
1930.26	2.27985
1931.75	2.01241
1933.23	1.02173
1934.72	0.966429
1936.2	1.25313
1937.69	1.88756
1939.17	1.82681
1940.66	2.57759
1942.14	2.6848
1943.63	1.92517
1945.11	2.01607
1946.59	2.4075
1948.07	2.7868
1949.56	2.64593
1951.04	3.54762
1952.52	3.63911
1954	3.76835
1955.48	3.78114
1956.96	3.57719
1958.45	3.2749
1959.93	3.86332
1961.41	4.22362
1962.89	4.40274
1964.37	4.49187
1965.85	4.42455
1967.32	5.0139
1968.8	6.0551
1970.28	6.09672
1971.76	5.5261
1973.24	5.53539
1974.72	5.42166
1976.19	5.62692
1977.67	5.6302
1979.15	6.10917
1980.63	6.11022
1982.1	6.11844
1983.58	5.04976
1985.05	5.03485
1986.53	4.48738
1988	4.49167
1989.48	4.84814
1990.95	4.62611
1992.43	4.77544
1993.9	4.2208
1995.38	3.95523
1996.85	3.72683
1998.32	3.56813
1999.8	3.35738
2001.27	3.51465
2002.74	3.62549
2004.22	4.8183
2005.69	5.12915
2007.16	5.81626
2008.63	6.12316
2010.1	6.38676
2011.57	6.93723
2013.04	6.82553
2014.51	6.17258
2015.98	6.02147
2017.45	6.22783
2018.92	6.81717
2020.39	6.89472
2021.86	7.51491
2023.33	7.44681
2024.8	7.73562
2026.27	7.22054
2027.74	6.87864
2029.2	6.86635
2030.67	6.86136
2032.14	6.78574
2033.61	7.34233
2035.07	6.57614
2036.54	6.78467
2038.01	7.58588
2039.47	7.81703
2040.94	8.12811
2042.4	8.23968
2043.87	8.07935
2045.33	8.2217
2046.8	8.4213
2048.26	8.77958
2049.72	8.81837
2051.19	8.42303
2052.65	8.63372
2054.12	7.7366
2055.58	8.09929
2057.04	8.50243
2058.5	9.37252
2059.97	9.73005
2061.43	10.6481
2062.89	11.3656
2064.35	11.9467
2065.81	12.4097
2067.27	13.0316
2068.73	13.7805
2070.19	14.3799
2071.65	16.0711
2073.11	16.9984
2074.57	17.8947
2076.03	18.6754
2077.49	20.2907
2078.95	19.8191
2080.41	20.1299
2081.87	20.1282
2083.32	20.7324
2084.78	21.4199
2086.24	22.0351
2087.7	22.4794
2089.15	23.7268
2090.61	24.107
2092.07	25.5676
2093.52	26.1388
2094.98	27.1584
2096.43	27.1048
2097.89	27.9608
2099.34	29.0726
2100.8	30.4089
2102.25	31.7835
2103.71	33.6721
2105.16	35.8666
2106.61	37.7317
2108.07	38.6761
2109.52	40.4458
2110.97	42.2259
2112.43	43.3197
2113.88	44.5228
2115.33	46.4148
2116.78	48.3317
2118.23	50.4501
2119.68	51.919
2121.13	54.0378
2122.59	55.9849
2124.04	58.4233
2125.49	61.5776
2126.94	63.9236
2128.39	66.6635
2129.83	69.8444
2131.28	72.3047
