#Acq. time (s)=	45
#Accumulations=	2
#Range (cm-¹)=	200...3150
#Windows=	2
#Auto scanning=	Off
#Autofocus=	Off
#Macrospot=	Off
#AutoExposure=	Off
#Spike filter=	Multiple accum.
#Delay time (s)=	0
#Binning=	1
#Readout mode=	Signal
#DeNoise=	Off
#ICS correction=	On
#Dark correction=	Off
#Inst. Process=	Off
#Detector Gain=	Best Dynamic Range
#Detector ADC=	20 kHz       
#Detector temperature (°C)=	-69.85
#Instrument=	LabRAM HR Evol
#Detector=	Synapse
#Objective=	x100
#Grating=	600 gr/mm
#ND Filter=	100%
#Laser (nm)=	532 
#Hole=	100.021
#Range=	Auto
#Laser Pol.=	No
#Raman. Pol.=	No
#Laser Pol. (°)=	-0.0007625
#Raman Pol. (°)=	89.9995
#Collection=	Microscope
#StageXY=	Marzhauser
#StageZ=	Marzhauser
#X (µm)=	4745
#Y (µm)=	-7724.3
#Z (µm)=	584.15
#Full time(mm:ss)=	3:18
#Project=	
#Sample=	
#Site=	
#Title=	Thy_30_10_16_2x_45s_532 nm_x100_100%_600 gr_mm
#Remark=	
#Date=	30.06.2022 12:36
#Acquired=	30.06.2022 12:36:25
#Base:Fit=	10.08.2022 09:58:11
#Base:Sub=	10.08.2022 09:58:44
#Filter:Polynom=	16.08.2022 10:22:53
#AxisType[0]=Intens
#AxisUnit[0]=Cnt
#AxisType[1]=Spectr
#AxisUnit[1]=1/cm
200.533	23.7838
202.348	23.4494
204.162	22.6445
205.976	20.6348
207.792	18.7121
209.605	16.9538
211.418	16.0694
213.23	14.5123
215.044	13.4426
216.856	12.5213
218.667	12.2432
220.478	11.3471
222.289	10.9324
224.102	10.8473
225.912	9.93432
227.721	9.17093
229.531	8.46041
231.34	7.06637
233.148	6.80142
234.956	6.39204
236.766	5.59076
238.574	5.17847
240.381	4.18946
242.188	3.96935
243.994	5.04149
245.801	4.80989
247.606	4.03319
249.412	3.78232
251.217	4.02196
253.024	4.2587
254.828	4.9276
256.632	5.35868
258.436	5.72991
260.239	5.96551
262.042	6.14637
263.845	6.70294
265.647	7.27212
267.449	7.0694
269.25	8.70666
271.052	9.17772
272.852	9.85816
274.653	9.53522
276.453	8.77536
278.253	7.84139
280.052	7.11383
281.852	6.77681
283.65	6.58162
285.449	7.2067
287.247	7.84846
289.044	8.68139
290.842	8.24058
292.639	7.99831
294.436	8.43779
296.232	9.48923
298.028	10.1592
299.821	10.0747
301.617	10.7202
303.412	10.0282
305.206	10.8693
307	10.8178
308.794	11.1115
310.588	11.253
312.381	11.2578
314.172	10.7659
315.964	10.7082
317.756	10.8621
319.548	11.084
321.34	11.545
323.131	12.2003
324.921	11.7435
326.71	12.5953
328.5	12.7598
330.29	13.0063
332.079	13.2103
333.868	14.1419
335.654	13.925
337.443	13.7742
339.231	15.135
341.018	15.4594
342.804	15.8316
344.591	15.607
346.377	14.6695
348.163	14.8176
349.947	14.9697
351.733	14.894
353.518	15.3859
355.303	15.4359
357.085	14.9322
358.869	15.8257
360.653	13.9176
362.435	13.7829
364.218	13.2567
366.001	13.5019
367.781	14.1895
369.563	13.9955
371.345	13.9487
373.124	13.4857
374.905	14.3074
376.686	13.5295
378.464	13.4048
380.244	12.1945
382.022	13.2871
383.801	13.1836
385.58	13.1861
387.357	12.3244
389.135	12.1818
390.911	12.5361
392.689	13.2525
394.466	12.9093
396.241	12.5403
398.018	12.6619
399.792	12.5899
401.568	12.4643
403.341	12.5243
405.117	13.7496
406.889	13.0674
408.664	13.342
410.436	13.5654
412.21	12.9763
413.981	13.4161
415.755	13.8946
417.525	12.927
419.298	13.0944
421.068	12.7632
422.84	12.8981
424.609	12.7691
426.38	12.2377
428.149	12.095
429.919	11.7182
431.688	11.3572
433.455	10.2082
435.225	10.5372
436.992	10.3892
438.76	10.0513
440.527	10.6549
442.293	10.6959
444.06	9.58114
445.826	9.38865
447.593	9.23596
449.357	8.02819
451.122	8.09357
452.888	8.8789
454.651	8.80505
456.415	8.53074
458.18	8.2896
459.942	9.18261
461.705	9.20181
463.469	9.7463
465.23	9.42872
466.991	10.724
468.752	10.8207
470.515	11.6358
472.275	11.644
474.035	12.9369
475.797	13.3528
477.556	15.4246
479.315	16.3117
481.073	16.7509
482.834	18.133
484.592	19.3088
486.349	21.1047
488.106	21.6339
489.863	23.5735
491.622	24.2019
493.378	25.8963
495.134	26.4647
496.889	27.9245
498.645	28.5207
500.401	29.3397
502.156	30.1467
503.91	30.2042
505.664	30.1794
507.417	30.1216
509.171	29.807
510.923	30.1986
512.678	30.7996
514.43	30.9512
516.182	30.5787
517.933	31.3353
519.684	31.4352
521.435	30.9184
523.186	30.8449
524.936	30.2322
526.686	29.5375
528.435	28.6186
530.184	26.694
531.933	25.6202
533.682	25.6517
535.43	25.0308
537.18	24.203
538.927	23.1702
540.674	22.4059
542.421	21.0951
544.167	20.7481
545.913	20.0454
547.659	19.0175
549.403	18.0848
551.148	16.8647
552.893	16.5218
554.637	16.0722
556.381	15.7879
558.125	16.0283
559.868	15.8329
561.611	15.4415
563.354	14.34
565.097	14.1565
566.839	13.6985
568.581	13.6064
570.322	12.4728
572.063	10.6403
573.802	10.2838
575.542	8.91409
577.283	9.60552
579.022	8.83163
580.762	8.89982
582.501	8.0105
584.24	8.11347
585.976	7.73056
587.714	7.26051
589.452	5.9414
591.19	5.21994
592.927	4.67326
594.663	4.2272
596.398	4.48116
598.134	3.65998
599.87	3.11914
601.605	3.58893
603.338	3.1924
605.073	3.86498
606.808	3.54219
608.542	3.1978
610.274	3.96684
612.007	4.83416
613.74	3.78579
615.473	4.27865
617.204	4.54983
618.936	5.50458
620.668	6.38052
622.397	7.50798
624.128	7.98932
625.859	8.15195
627.588	9.26071
629.318	10.0313
631.048	10.8203
632.775	11.3106
634.505	12.7558
636.233	13.2086
637.96	13.6754
639.688	14.0864
641.416	14.4456
643.142	15.2244
644.869	15.3871
646.594	15.671
648.32	16.1547
650.045	16.141
651.771	16.505
653.496	16.8254
655.219	16.7782
656.944	16.2788
658.667	16.9653
660.391	17.8092
662.113	17.867
663.837	18.5434
665.558	18.8748
667.281	19.0133
669.002	19.1369
670.724	19.8888
672.444	19.3339
674.166	19.2223
675.885	20.0013
677.606	20.3279
679.325	20.7196
681.045	21.1058
682.763	21.3038
684.483	21.4625
686.2	23.9537
687.917	24.8281
689.636	24.6359
691.352	26.1651
693.07	27.4608
694.786	28.9841
696.501	29.5592
698.219	29.924
699.933	30.0385
701.65	30.7122
703.364	31.1578
705.078	32.5058
706.793	34.0617
708.506	35.1982
710.219	35.1523
711.934	35.4526
713.646	37.033
715.358	38.1441
717.071	39.6139
718.782	40.878
720.493	41.8174
722.204	41.6752
723.916	42.7024
725.626	43.2358
727.336	44.3693
729.045	45.5537
730.756	46.9667
732.464	47.9149
734.173	48.1726
735.881	48.3571
737.59	49.0128
739.297	50.0412
741.004	51.047
742.711	51.2223
744.417	52.3617
746.125	52.9106
747.831	54.1647
749.537	54.9262
751.242	55.8887
752.946	56.4495
754.651	57.8899
756.357	58.9409
758.061	60.0793
759.764	61.4669
761.467	61.4576
763.17	61.0824
764.872	61.7952
766.575	62.8593
768.276	63.2252
769.978	63.2746
771.679	63.546
773.382	63.3
775.083	64.5965
776.783	66.6365
778.483	66.6681
780.182	65.6064
781.882	65.5634
783.581	65.9453
785.279	65.4912
786.978	66.1471
788.676	66.5199
790.373	67.9071
792.071	68.9728
793.768	70.6935
795.464	71.1355
797.161	71.7599
798.857	73.1791
800.552	73.2921
802.248	73.9123
803.941	74.608
805.636	75.3309
807.33	75.836
809.024	76.6186
810.718	77.139
812.412	78.6627
814.105	79.5077
815.798	79.7399
817.49	80.1483
819.183	80.535
820.873	80.5786
822.564	80.6374
824.256	80.8736
825.947	80.7423
827.637	80.3442
829.328	80.4197
831.016	79.883
832.705	80.8255
834.395	80.1632
836.084	81.1323
837.772	80.4059
839.459	80.2416
841.147	79.6895
842.835	79.0665
844.522	77.4876
846.209	75.3139
847.894	74.4271
849.581	73.8599
851.267	72.6732
852.953	71.1759
854.637	69.4699
856.322	69.6307
858.007	68.264
859.689	66.8289
861.374	65.0817
863.058	62.4315
864.739	61.4814
866.423	60.997
868.106	59.9373
869.787	59.2216
871.469	59.1022
873.151	57.5003
874.831	57.2263
876.512	56.8493
878.193	56.9848
879.872	54.5167
881.553	54.3004
883.231	53.622
884.911	53.2994
886.591	53.1604
888.268	52.8449
889.947	51.663
891.623	51.598
893.302	51.0612
894.978	51.1103
896.656	51.1021
898.331	50.2542
900.008	49.4536
901.683	48.8077
903.359	48.507
905.033	48.317
906.709	48.4471
908.383	49.3356
910.058	49.6695
911.731	49.7713
913.405	50.4707
915.078	50.7702
916.752	51.4336
918.423	50.9873
920.096	50.5484
921.768	48.8614
923.438	49.0524
925.111	48.516
926.781	47.4386
928.452	46.6088
930.122	46.3934
931.791	45.8844
933.462	45.299
935.13	45.1576
936.799	45.3662
938.468	44.9252
940.136	44.7506
941.803	42.9774
943.472	42.5371
945.139	42.1961
946.805	41.3218
948.473	42.0975
950.139	42.341
951.804	41.9477
953.471	41.2038
955.136	40.3671
956.801	38.7935
958.465	39.0633
960.131	37.7415
961.794	36.7806
963.458	36.3645
965.12	36.5819
966.785	36.9159
968.447	37.8251
970.109	38.3988
971.771	39.1638
973.432	39.069
975.095	40.2522
976.756	40.8181
978.417	41.9651
980.077	42.8604
981.737	43.3744
983.396	44.1223
985.057	44.4777
986.716	46.2415
988.375	47.0785
990.033	46.9793
991.691	47.5477
993.349	47.7455
995.006	47.7034
996.663	47.7146
998.32	47.6134
999.976	47.3115
1001.63	46.6588
1003.29	45.8475
1004.95	46.1241
1006.6	46.6165
1008.26	46.2495
1009.91	46.0357
1011.56	46.3682
1013.22	46.8024
1014.87	45.9795
1016.53	46.8281
1018.18	47.595
1019.83	46.9458
1021.48	46.4561
1023.14	45.6085
1024.79	45.654
1026.44	45.431
1028.09	45.313
1029.74	44.3747
1031.39	42.9735
1033.04	41.1335
1034.69	38.8814
1036.34	37.2107
1037.99	35.958
1039.64	34.3501
1041.29	34.5125
1042.94	32.6078
1044.58	32.5345
1046.23	32.1454
1047.88	31.4318
1049.52	31.74
1051.17	31.0787
1052.82	31.0235
1054.46	29.5213
1056.11	28.3486
1057.75	28.2581
1059.4	28.1537
1061.04	27.6714
1062.69	27.0488
1064.33	27.146
1065.98	26.8629
1067.62	25.2186
1069.26	25.2593
1070.9	24.3833
1072.55	24.473
1074.19	24.119
1075.83	24.5551
1077.47	23.3688
1079.11	22.6973
1080.76	22.717
1082.4	22.6571
1084.04	22.2811
1085.68	22.1219
1087.32	23.3059
1088.95	23.8864
1090.59	24.225
1092.23	24.5941
1093.87	25.6693
1095.51	26.6411
1097.15	26.2976
1098.78	27.8921
1100.42	28.028
1102.06	28.2566
1103.69	28.1317
1105.33	27.7613
1106.97	27.219
1108.6	25.6933
1110.24	24.3741
1111.87	22.9871
1113.51	22.3931
1115.14	22.9055
1116.77	22.0228
1118.41	20.8709
1120.04	20.0325
1121.67	19.6602
1123.31	19.3182
1124.94	18.1876
1126.57	17.1961
1128.2	16.4816
1129.83	16.6195
1131.47	16.1561
1133.1	15.3634
1134.72	14.1673
1136.36	13.2386
1137.98	12.8868
1139.62	12.1684
1141.24	11.6119
1142.87	11.0423
1144.5	9.94168
1146.13	9.61047
1147.76	7.3389
1149.38	6.42778
1151.01	6.33488
1152.64	6.52245
1154.27	6.50877
1155.89	5.15881
1157.52	4.29527
1159.14	3.59395
1160.77	3.34817
1162.39	3.32191
1164.02	3.13424
1165.64	2.08441
1167.27	2.67645
1168.89	3.43171
1170.51	3.45971
1172.14	3.9479
1173.76	3.38243
1175.38	3.79768
1177	4.44755
1178.63	4.11693
1180.25	5.2021
1181.87	5.09904
1183.49	5.61528
1185.11	5.37154
1186.73	6.31176
1188.35	6.35879
1189.97	8.2009
1191.59	9.91071
1193.21	11.5686
1194.83	12.5321
1196.45	13.7592
1198.07	14.2993
1199.68	15.4162
1201.3	16.7874
1202.92	18.5494
1204.53	19.4928
1206.15	20.229
1207.77	21.3897
1209.38	22.9117
1211	24.768
1212.62	25.885
1214.23	26.933
1215.84	28.617
1217.46	29.9616
1219.07	31.0224
1220.69	32.8551
1222.3	34.8975
1223.91	37.4333
1225.53	39.4072
1227.14	41.8966
1228.75	43.2951
1230.36	45.2026
1231.97	47.8376
1233.59	49.5337
1235.2	50.7453
1236.81	51.529
1238.42	52.4051
1240.03	53.611
1241.64	53.3983
1243.25	54.6397
1244.85	55.5406
1246.46	56.9273
1248.07	58.1763
1249.68	59.5563
1251.29	60.6572
1252.9	61.5776
1254.5	61.7192
1256.11	63.9607
1257.72	65.6368
1259.32	66.1977
1260.93	67.1797
1262.54	67.948
1264.14	69.21
1265.75	69.6377
1267.35	70.8375
1268.96	71.4081
1270.56	72.7609
1272.16	72.7342
1273.77	72.8837
1275.37	72.1143
1276.97	72.351
1278.57	71.7975
1280.18	71.7313
1281.78	71.4826
1283.38	71.9248
1284.98	71.9174
1286.58	72.521
1288.18	73.3658
1289.78	74.522
1291.38	74.664
1292.99	75.0498
1294.58	76.1471
1296.18	77.2361
1297.78	77.7434
1299.38	78.26
1300.98	78.6373
1302.58	79.549
1304.17	80.3004
1305.77	80.1041
1307.37	79.9225
1308.97	80.2569
1310.56	81.1651
1312.16	82.0792
1313.76	80.5967
1315.35	81.1404
1316.95	81.1408
1318.54	80.4956
1320.14	80.7497
1321.73	81.1649
1323.32	81.4646
1324.92	81.4866
1326.51	81.4731
1328.1	80.8942
1329.7	81.0248
1331.29	80.0921
1332.88	79.6974
1334.47	78.8402
1336.07	78.0237
1337.66	76.9043
1339.25	75.5187
1340.84	74.6976
1342.43	73.453
1344.02	71.2242
1345.61	69.6089
1347.2	67.6634
1348.79	65.116
1350.37	63.6589
1351.96	62.1208
1353.55	60.0222
1355.14	57.6911
1356.73	55.9175
1358.31	54.2576
1359.9	52.7825
1361.49	50.4711
1363.07	49.5822
1364.66	48.7672
1366.25	47.4518
1367.83	46.373
1369.42	44.8692
1371	42.9331
1372.59	41.3387
1374.17	40.3186
1375.75	39.218
1377.34	37.8047
1378.92	36.8131
1380.5	36.5245
1382.09	36.438
1383.67	35.5658
1385.25	35.0383
1386.83	35.1092
1388.42	35.0511
1390	33.9777
1391.58	33.9706
1393.16	33.1434
1394.74	33.5181
1396.32	32.325
1397.9	31.3001
1399.48	31.2736
1401.06	30.9401
1402.64	30.3392
1404.21	30.2414
1405.79	30.4521
1407.37	31.5105
1408.95	32.3011
1410.53	33.0773
1412.1	34.4305
1413.68	35.2745
1415.26	37.518
1416.83	39.4842
1418.41	41.0188
1419.98	43.0941
1421.56	44.8644
1423.13	46.8087
1424.71	49.7891
1426.28	51.7061
1427.86	55.0867
1429.43	59.2426
1431	62.2389
1432.58	65.1001
1434.15	68.5983
1435.72	71.1772
1437.29	74.6118
1438.87	77.1579
1440.44	79.1558
1442.01	81.5394
1443.58	83.0812
1445.15	84.1438
1446.72	85.3175
1448.29	86.2901
1449.86	86.8949
1451.43	87.0881
1453	87.9037
1454.57	87.679
1456.14	86.2248
1457.71	85.6691
1459.27	82.7512
1460.84	79.9972
1462.41	77.2031
1463.98	74.1513
1465.54	71.3636
1467.11	67.8952
1468.67	64.4178
1470.24	61.3382
1471.81	56.7448
1473.37	52.9726
1474.94	49.2244
1476.5	45.186
1478.07	41.1361
1479.63	37.5244
1481.19	33.968
1482.76	30.7562
1484.32	28.1777
1485.88	25.7378
1487.45	22.1972
1489.01	19.4746
1490.57	18.0902
1492.13	15.4852
1493.69	13.9677
1495.26	12.2279
1496.82	10.6598
1498.38	9.31977
1499.94	7.58057
1501.5	6.52874
1503.06	6.05378
1504.62	5.81754
1506.17	6.85031
1507.73	7.49479
1509.29	7.06044
1510.85	7.83103
1512.41	8.69633
1513.97	9.60042
1515.52	10.078
1517.08	10.1106
1518.64	10.5259
1520.19	10.7846
1521.75	12.2415
1523.31	12.6732
1524.86	13.5255
1526.42	14.2468
1527.97	13.975
1529.52	14.1871
1531.08	14.7192
1532.63	15.066
1534.19	15.7052
1535.74	16.2303
1537.29	16.6864
1538.85	17.96
1540.4	19.6948
1541.95	21.1708
1543.5	23.1703
1545.06	24.647
1546.61	26.9115
1548.16	28.5531
1549.71	30.3405
1551.26	32.5057
1552.81	34.2208
1554.36	35.8714
1555.91	37.9985
1557.46	39.5876
1559.01	41.0807
1560.56	42.8191
1562.11	44.5773
1563.65	46.8909
1565.2	48.4513
1566.75	50.1958
1568.29	50.8023
1569.84	51.6162
1571.39	53.2105
1572.94	54.956
1574.48	55.163
1576.03	55.9599
1577.57	57.1599
1579.12	59.4079
1580.66	61.2662
1582.21	62.509
1583.75	64.8983
1585.3	65.9483
1586.84	66.3111
1588.38	67.5325
1589.93	68.7621
1591.47	69.2058
1593.01	68.6665
1594.55	68.9324
1596.1	69.8221
1597.64	69.4515
1599.18	70.1119
1600.72	68.7622
1602.26	69.2434
1603.8	68.9253
1605.34	68.8609
1606.88	69.0157
1608.42	69.8182
1609.96	70.0425
1611.5	70.9137
1613.04	70.9869
1614.58	71.9196
1616.12	72.677
1617.65	73.9918
1619.19	75.2478
1620.73	76.8239
1622.27	78.2719
1623.8	80.5617
1625.34	81.9062
1626.87	83.8748
1628.41	85.6477
1629.95	87.1122
1631.48	89.1568
1633.02	91.3439
1634.55	93.1432
1636.09	95.8456
1637.62	99.1985
1639.15	100.988
1640.69	103.444
1642.22	105.978
1643.76	108.291
1645.29	110.12
1646.82	112.889
1648.35	113.985
1649.88	116.288
1651.42	117.557
1652.95	119.199
1654.48	121.139
1656.01	122.465
1657.54	123.163
1659.07	122.74
1660.6	122.797
1662.13	121.788
1663.66	121.428
1665.19	120.643
1666.72	119.098
1668.24	116.158
1669.77	114.47
1671.3	112.174
1672.83	109.326
1674.35	105.406
1675.88	101.668
1677.41	97.9859
1678.93	94.4442
1680.46	89.8602
1681.99	85.8023
1683.51	81.6288
1685.04	77.1858
1686.56	72.5397
1688.09	68.3344
1689.61	63.9826
1691.13	59.4064
1692.66	54.4107
1694.18	50.0027
1695.71	45.8601
1697.23	42.1859
1698.75	38.4489
1700.27	34.6685
1701.8	30.7595
1703.32	27.9738
1704.84	25.2903
1706.36	22.6488
1707.88	20.2976
1709.4	18.0408
1710.92	15.5386
1712.44	13.8729
1713.96	12.1532
1715.48	9.91554
1717	8.98085
1718.52	8.04225
1720.04	6.77703
1721.56	5.49123
1723.07	5.36348
1724.59	5.04374
1726.11	5.24899
1727.63	4.49079
1729.14	4.35876
1730.66	4.51106
1732.18	4.57831
1733.69	4.32304
1735.21	3.6638
1736.72	4.06189
1738.24	4.21269
1739.75	4.14485
1741.27	3.43888
1742.78	2.90615
1744.3	2.79958
1745.81	3.32148
1747.32	2.37725
1748.84	2.56742
1750.35	2.41538
1751.86	2.17527
1753.37	2.59479
1754.89	1.84562
1756.4	1.64476
1757.91	1.524
1759.42	0.906218
1760.93	0.385192
1762.44	0.246919
1763.95	-0.0779127
1765.46	-0.756538
1766.97	-1.35071
1768.48	-1.72585
1769.99	-1.37355
1771.5	-1.88246
1773.01	-1.6993
1774.52	-2.18821
1776.03	-1.87676
1777.53	-1.63545
1779.04	-1.52982
1780.55	-1.79885
1782.06	-2.19546
1783.56	-2.41511
1785.07	-2.10144
1786.57	-1.20466
1788.08	-0.86261
1789.59	-0.726267
1791.09	-0.568569
1792.6	-0.322219
1794.1	0.173603
1795.6	0.325207
1797.11	0.314688
1798.61	0.142909
1800.12	0.0629073
1801.62	0.342104
1803.12	0.58867
1804.63	1.17007
1806.13	1.57128
1807.63	2.00108
1809.13	1.89116
1810.63	2.33961
1812.14	2.87944
1813.64	2.80419
1815.14	2.82266
1816.64	2.74799
1818.14	2.89668
1819.64	3.34967
1821.14	4.11175
1822.64	4.25592
1824.14	4.76056
1825.63	4.44982
1827.13	4.59992
1828.63	4.70595
1830.13	4.69817
1831.63	4.12506
1833.12	4.78447
1834.62	4.77722
1836.12	4.79829
1837.62	5.16622
1839.11	5.83559
1840.61	6.03248
1842.1	6.47818
1843.6	6.72476
1845.09	6.41713
1846.59	6.23857
1848.08	6.65227
1849.58	6.60778
1851.07	6.94118
1852.57	6.8027
1854.06	6.99275
1855.55	7.48818
1857.04	7.19468
1858.54	7.65582
1860.03	8.08162
1861.52	8.57121
1863.01	8.2036
1864.5	8.17017
1866	7.98233
1867.49	8.36763
1868.98	8.82309
1870.47	9.62646
1871.96	10.3882
1873.45	10.8676
1874.94	12.0436
1876.43	12.7889
1877.92	13.4852
1879.41	14.16
1880.89	14.8519
1882.38	14.6205
1882.48	14.7602
1883.97	14.6117
1885.47	14.9562
1886.96	15.0844
1888.46	15.451
1889.95	15.7764
1891.44	16.0528
1892.94	16.2332
1894.43	16.3622
1895.92	15.949
1897.41	15.9451
1898.9	15.4644
1900.4	15.6447
1901.89	15.7456
1903.38	15.5754
1904.87	15.6995
1906.36	16.2171
1907.85	15.8614
1909.34	16.2129
1910.83	16.528
1912.32	15.5773
1913.81	15.0198
1915.29	14.6506
1916.78	14.045
1918.27	12.9438
1919.76	12.962
1921.25	12.858
1922.74	12.6641
1924.22	12.7944
1925.71	11.79
1927.2	11.7801
1928.68	12.0239
1930.17	12.1694
1931.65	12.7626
1933.14	12.2859
1934.63	13.446
1936.11	13.7774
1937.59	13.5635
1939.08	13.8423
1940.56	14.473
1942.05	14.7704
1943.53	15.6028
1945.01	15.621
1946.5	16.4831
1947.98	16.9814
1949.46	17.1921
1950.94	16.8403
1952.43	16.3566
1953.91	15.9943
1955.39	15.6382
1956.87	16.4852
1958.35	16.8911
1959.83	17.6128
1961.31	17.2593
1962.79	17.0196
1964.27	17.161
1965.75	17.0477
1967.23	17.6134
1968.71	17.8967
1970.19	17.2753
1971.67	17.1421
1973.14	18.0122
1974.62	18.2361
1976.1	18.2799
1977.58	18.1417
1979.05	18.0047
1980.53	17.4112
1982.01	17.4286
1983.48	16.6712
1984.96	16.24
1986.43	16.1807
1987.91	16.6259
1989.38	16.5855
1990.86	17.5146
1992.33	17.9075
1993.81	18.5223
1995.28	18.5902
1996.76	19.1563
1998.23	19.3174
1999.7	19.676
2001.18	21.2228
2002.65	21.2853
2004.12	21.9038
2005.59	21.9478
2007.06	21.6039
2008.54	22.2524
2010.01	22.3947
2011.48	22.4312
2012.95	23.2453
2014.42	23.6416
2015.89	24.1565
2017.36	25.3991
2018.83	25.4078
2020.3	25.7408
2021.77	25.3138
2023.24	25.7683
2024.71	25.8531
2026.17	26.2053
2027.64	27.282
2029.11	27.4175
2030.58	28.2444
2032.04	28.5917
2033.51	28.4894
2034.98	28.4107
2036.45	28.8449
2037.91	28.9081
2039.38	29.5326
2040.84	29.3727
2042.31	28.5429
2043.77	28.4952
2045.24	28.4983
2046.7	29.3454
2048.17	28.2147
2049.63	27.9563
2051.1	27.7241
2052.56	27.2752
2054.02	28.1625
2055.48	28.2001
2056.95	28.5018
2058.41	29.6428
2059.87	30.82
2061.33	31.2752
2062.8	31.372
2064.26	32.4069
2065.72	32.43
2067.18	32.9527
2068.64	33.033
2070.1	33.6162
2071.56	34.013
2073.02	34.495
2074.48	34.6743
2075.94	35.1187
2077.4	36.3254
2078.86	36.7589
2080.31	37.6675
2081.77	38.9962
2083.23	39.9075
2084.69	40.3871
2086.14	40.8116
2087.6	41.2232
2089.06	42.3085
2090.52	43.4396
2091.97	43.586
2093.43	44.5258
2094.88	44.6751
2096.34	46.0468
2097.79	46.3742
2099.25	46.9405
2100.7	46.9812
2102.16	47.0867
2103.61	48.7498
2105.07	48.7663
2106.52	49.8449
2107.97	50.2979
2109.43	51.5314
2110.88	51.9371
2112.33	53.3041
2113.78	53.2764
2115.24	54.7952
2116.69	56.6811
2118.14	57.66
2119.59	59.5646
2121.04	60.412
2122.49	61.506
2123.94	63.3239
2125.39	65.452
2126.84	67.9965
2128.29	69.1927
2129.74	71.7475
2131.19	73.8511
2132.64	75.7347
2134.09	77.6729
