#Acq. time (s)=	45
#Accumulations=	2
#Range (cm-¹)=	200...3150
#Windows=	2
#Auto scanning=	Off
#Autofocus=	Off
#Macrospot=	Off
#AutoExposure=	Off
#Spike filter=	Multiple accum.
#Delay time (s)=	0
#Binning=	1
#Readout mode=	Signal
#DeNoise=	Off
#ICS correction=	On
#Dark correction=	Off
#Inst. Process=	Off
#Detector Gain=	Best Dynamic Range
#Detector ADC=	20 kHz       
#Detector temperature (°C)=	-69.85
#Instrument=	LabRAM HR Evol
#Detector=	Synapse
#Objective=	x100
#Grating=	600 gr/mm
#ND Filter=	100%
#Laser (nm)=	532 
#Hole=	100.021
#Range=	Auto
#Laser Pol.=	No
#Raman. Pol.=	No
#Laser Pol. (°)=	-0.0007625
#Raman Pol. (°)=	89.9995
#Collection=	Microscope
#StageXY=	Marzhauser
#StageZ=	Marzhauser
#X (µm)=	2207
#Y (µm)=	1241.2
#Z (µm)=	443.25
#Full time(mm:ss)=	3:19
#Project=	
#Sample=	
#Site=	
#Title=	Thy_10_08_19_2x_45s_532 nm_x100_100%_600 gr_mm
#Remark=	
#Date=	05.07.2022 15:32
#Acquired=	05.07.2022 15:32:12
#Base:Fit=	10.08.2022 09:46:25
#Base:Sub=	10.08.2022 09:46:49
#Filter:Polynom=	16.08.2022 10:24:56
#AxisType[0]=Intens
#AxisUnit[0]=Cnt
#AxisType[1]=Spectr
#AxisUnit[1]=1/cm
200.43	3.50714
202.244	2.42917
204.059	0.874161
205.873	0.467686
207.688	0.647654
209.501	1.54637
211.314	2.53343
213.127	3.50244
214.941	4.54981
216.753	4.96298
218.564	5.29132
220.375	6.03315
222.186	5.70118
223.999	6.96799
225.809	7.69527
227.618	7.7366
229.428	8.54306
231.236	9.09472
233.045	9.10488
234.855	8.62642
236.663	8.84577
238.471	8.81945
240.278	7.52993
242.085	7.26941
243.891	6.96812
245.698	7.29285
247.503	7.95429
249.309	7.95442
251.116	7.48035
252.921	7.6212
254.725	7.76442
256.529	7.35852
258.333	8.21799
260.136	7.78304
261.939	7.39804
263.742	7.05938
265.544	7.30614
267.346	6.81469
269.148	7.0145
270.949	6.87292
272.75	7.44444
274.55	6.77089
276.351	7.40804
278.15	7.76628
279.95	8.2317
281.749	9.19551
283.548	8.36185
285.346	7.46869
287.144	8.54621
288.942	9.65185
290.739	9.41493
292.536	10.4373
294.333	11.8596
296.129	13.0163
297.925	14.1779
299.721	13.6985
301.514	13.9356
303.309	14.081
305.104	13.8775
306.898	13.8789
308.692	14.4335
310.486	15.4602
312.279	15.5392
314.072	16.7873
315.862	16.3954
317.654	16.6287
319.446	16.9039
321.238	16.0622
323.029	15.861
324.819	15.1806
326.608	15.7839
328.398	15.3302
330.188	14.7348
331.977	15.8655
333.766	16.1344
335.553	16.7582
337.341	16.2226
339.129	15.7229
340.917	15.396
342.704	16.3028
344.489	16.0142
346.275	15.9271
348.062	15.9887
349.845	16.1988
351.631	16.1203
353.416	16.6176
355.201	17.2238
356.984	16.9605
358.768	16.1359
360.552	15.7063
362.333	15.6984
364.116	16.1352
365.899	16.6567
367.68	16.1503
369.462	15.606
371.243	15.4105
373.023	14.9317
374.804	14.9447
376.585	14.6577
378.363	14.5758
380.143	14.039
381.923	13.6699
383.7	13.4301
385.479	13.0188
387.256	12.9923
389.034	11.4696
390.812	11.0593
392.588	10.5148
394.365	9.58662
396.14	9.51425
397.916	9.62244
399.691	9.79071
401.467	8.90394
403.24	8.17116
405.015	7.28591
406.788	7.54812
408.563	7.08985
410.335	7.05097
412.109	6.85991
413.88	6.6041
415.654	7.10076
417.424	6.09878
419.197	6.46477
420.967	6.30461
422.739	4.9774
424.508	4.09639
426.279	3.83925
428.048	4.13352
429.819	3.82734
431.587	4.08178
433.356	3.69303
435.124	3.08137
436.891	3.00595
438.66	2.94222
440.426	2.76109
442.194	3.7067
443.96	3.83673
445.725	3.59886
447.492	3.19667
449.257	4.07806
451.021	4.81903
452.787	5.98928
454.551	5.84874
456.314	5.82649
458.079	6.48255
459.842	6.7783
461.604	6.83444
463.368	6.65246
465.13	6.76576
466.891	7.22918
468.654	6.21747
470.415	7.07009
472.175	8.05624
473.935	8.7618
475.696	9.13651
477.456	8.51081
479.215	9.42293
480.973	9.44181
482.733	10.4837
484.491	11.8217
486.249	12.5673
488.006	12.5656
489.765	12.2468
491.522	12.5592
493.278	12.6862
495.034	13.4395
496.789	13.34
498.544	13.254
500.301	13.1147
502.056	13.2085
503.81	13.015
505.564	12.797
507.317	12.8389
509.071	11.2365
510.825	10.7241
512.578	11.5347
514.33	12.2411
516.082	11.7272
517.833	10.8945
519.585	10.7762
521.335	10.6882
523.086	10.1393
524.836	10.3919
526.586	10.4224
528.335	10.3405
530.085	9.55981
531.835	8.73252
533.584	7.97885
535.332	8.01901
537.08	8.86561
538.827	8.8002
540.574	8.40608
542.321	7.68176
544.068	7.49401
545.814	7.5893
547.56	6.66313
549.305	7.20708
551.05	6.91906
552.795	7.53375
554.54	7.45498
556.282	6.36587
558.025	7.39855
559.769	7.74481
561.512	7.98371
563.255	7.69838
564.997	8.10369
566.739	8.87499
568.481	8.55632
570.223	9.12738
571.964	8.24142
573.705	7.16401
575.443	7.05638
577.183	6.64117
578.923	6.32657
580.663	5.74104
582.402	5.53457
584.141	5.33662
585.879	5.25865
587.615	4.62684
589.353	4.18565
591.09	4.06546
592.828	3.85983
594.564	3.66941
596.299	3.97781
598.035	5.07446
599.771	5.30796
601.506	5.06835
603.242	4.9976
604.974	4.83191
606.709	4.83378
608.443	4.46284
610.177	4.43985
611.908	4.25299
613.642	3.97561
615.374	3.09572
617.105	3.02802
618.837	3.50982
620.569	4.01002
622.3	4.48966
624.03	5.1491
625.761	5.43596
627.491	5.50171
629.219	6.33116
630.949	6.55753
632.677	7.30022
634.406	7.87482
636.135	9.29524
637.861	10.2176
639.59	10.5276
641.318	10.5658
643.043	11.5065
644.77	12.6578
646.495	13.5854
648.222	14.1978
649.948	14.4227
651.672	15.3368
653.398	15.9352
655.121	15.3394
656.846	16.1633
658.569	15.8913
660.293	16.5558
662.015	17.4281
663.738	17.1215
665.46	17.6156
667.183	17.8
668.903	18.7089
670.626	19.0623
672.346	19.6504
674.067	20.7057
675.787	22.0705
677.508	23.0503
679.226	23.4982
680.947	23.8794
682.665	24.4546
684.385	24.9895
686.102	24.4346
687.821	24.7346
689.538	25.7589
691.254	26.308
692.972	26.6249
694.688	27.9298
696.406	28.4971
698.121	28.7133
699.835	29.0165
701.552	29.081
703.266	29.9165
704.98	29.8642
706.695	31.224
708.409	31.8081
710.121	32.4948
711.836	33.4118
713.548	34.0165
715.26	35.1858
716.973	36.2064
718.685	37.5472
720.396	38.8537
722.108	39.2933
723.818	40.5603
725.528	41.204
727.238	42.4919
728.949	43.8347
730.658	44.2625
732.367	45.4212
734.075	46.7288
735.785	47.914
737.493	47.8415
739.2	48.9099
740.907	49.5757
742.614	51.0931
744.322	51.6623
746.028	53.1159
747.734	53.9378
749.439	54.8769
751.144	55.6878
752.849	57.2733
754.555	58.1935
756.26	58.6872
757.963	59.3906
759.667	59.5952
761.37	59.9679
763.073	60.4335
764.775	60.9463
766.477	61.7499
768.179	62.0184
769.883	62.9779
771.584	63.8899
773.285	65.2133
774.986	66.883
776.686	66.9755
778.386	67.2946
780.085	67.5971
781.785	68.1534
783.484	69.1462
785.182	69.242
786.881	69.8197
788.579	71.3001
790.276	72.3867
791.974	74.5977
793.671	75.8548
795.367	76.4205
797.064	77.5067
798.76	79.0837
800.456	79.6621
802.151	80.6742
803.846	81.4874
805.541	81.3918
807.234	82.0166
808.928	83.1506
810.622	83.4821
812.315	84.2253
814.008	84.8627
815.701	85.2056
817.394	86.0473
819.086	85.8454
820.778	85.2396
822.468	84.3523
824.159	85.3269
825.85	85.3825
827.541	85.7013
829.231	85.3578
830.921	85.1124
832.609	83.6621
834.298	82.9014
835.987	81.5311
837.676	81.4605
839.364	79.626
841.051	79.0011
842.738	77.6899
844.426	77.415
846.113	77.0722
847.798	75.6578
849.484	74.7361
851.171	73.8405
852.857	72.8252
854.54	72.4074
856.226	71.159
857.911	70.6652
859.593	69.5483
861.278	69.1462
862.961	69.1444
864.645	68.3635
866.327	68.2086
868.01	67.2925
869.692	66.8154
871.373	66.2007
873.055	65.8958
874.735	66.0316
876.416	65.7764
878.097	65.061
879.776	64.4564
881.457	64.352
883.135	63.9563
884.815	62.9281
886.495	62.9467
888.172	62.4133
889.851	62.5086
891.528	62.7429
893.206	62.4805
894.882	62.8411
896.56	62.2917
898.237	62.1732
899.912	61.5333
901.589	61.2004
903.263	60.1957
904.94	60.3622
906.614	60.5006
908.289	60.6812
909.962	60.1828
911.635	59.2296
913.31	58.1076
914.982	56.8787
916.656	55.5981
918.328	55.2281
920.001	54.6285
921.672	54.579
923.345	53.2924
925.015	52.3277
926.685	51.2663
928.357	50.1265
930.026	49.8166
931.698	49.7057
933.366	48.9749
935.035	48.9688
936.705	48.056
938.373	47.4126
940.041	46.9246
941.71	47.6536
943.377	46.7733
945.044	46.5188
946.712	45.9376
948.378	44.4011
950.044	44.2525
951.709	43.4413
953.376	43.2813
955.041	42.1197
956.706	41.7954
958.372	41.6354
960.036	40.7402
961.699	40.5167
963.362	40.4173
965.027	39.8204
966.69	40.1566
968.352	40.8505
970.014	40.3189
971.676	40.4123
973.339	40.5054
975	39.941
976.661	40.1424
978.322	39.9507
979.982	39.8266
981.642	39.7219
983.303	39.3642
984.962	39.2534
986.621	38.7534
988.28	39.1728
989.938	38.5581
991.596	38.0097
993.254	36.7047
994.911	35.9233
996.57	35.2743
998.227	34.6322
999.884	34.0738
1001.54	33.7773
1003.2	33.4472
1004.85	32.4212
1006.51	31.8906
1008.16	31.5299
1009.82	30.8588
1011.47	30.7851
1013.12	30.8479
1014.78	30.0773
1016.43	29.16
1018.08	28.9477
1019.74	27.9405
1021.39	27.8924
1023.04	27.7632
1024.69	27.5539
1026.34	26.8913
1028	26.6398
1029.65	27.1553
1031.3	26.3958
1032.95	26.142
1034.6	24.9765
1036.25	25.6946
1037.9	25.0608
1039.54	25.5515
1041.19	25.328
1042.84	25.4126
1044.49	25.0924
1046.14	24.589
1047.78	24.6585
1049.43	24.5389
1051.08	23.6456
1052.72	22.5864
1054.37	22.835
1056.02	22.2822
1057.66	21.7101
1059.31	22.0877
1060.95	22.5789
1062.6	22.5771
1064.24	21.9573
1065.88	21.9891
1067.53	21.4375
1069.17	21.265
1070.81	20.6126
1072.45	19.8047
1074.1	19.8857
1075.74	19.5232
1077.38	20.1438
1079.02	20.0555
1080.66	19.4097
1082.3	18.6323
1083.94	17.3868
1085.58	16.2652
1087.22	15.4273
1088.86	15.1591
1090.5	14.5652
1092.14	14.016
1093.78	13.99
1095.42	13.7538
1097.05	13.1534
1098.69	13.2169
1100.33	13.3213
1101.96	13.9448
1103.6	14.4403
1105.24	13.7266
1106.87	13.4264
1108.51	14.1102
1110.14	13.5554
1111.78	13.3375
1113.41	12.4022
1115.05	11.4791
1116.68	10.9221
1118.31	11.203
1119.95	10.1123
1121.58	9.71553
1123.21	8.17163
1124.85	7.31912
1126.48	6.94219
1128.11	6.83496
1129.74	7.02958
1131.37	6.57396
1133	5.55669
1134.63	5.03293
1136.26	5.21441
1137.89	4.77357
1139.52	4.71833
1141.15	5.19981
1142.78	5.58596
1144.41	4.29315
1146.04	3.99468
1147.66	3.84959
1149.29	4.66796
1150.92	5.35776
1152.55	5.52881
1154.17	5.73106
1155.8	6.11083
1157.43	5.43635
1159.05	5.4392
1160.68	4.27955
1162.3	3.7119
1163.93	3.28313
1165.55	2.92446
1167.17	3.75145
1168.8	4.25067
1170.42	4.64347
1172.05	5.47077
1173.67	5.95839
1175.29	6.55197
1176.91	7.02465
1178.54	7.4048
1180.16	7.8857
1181.78	8.06151
1183.4	8.4423
1185.02	8.66752
1186.64	8.37897
1188.26	8.37317
1189.88	8.84625
1191.5	8.1887
1193.12	8.50687
1194.74	8.19233
1196.36	8.57581
1197.97	8.68897
1199.59	9.70361
1201.21	10.064
1202.83	11.316
1204.44	11.6333
1206.06	12.6751
1207.68	14.2688
1209.29	15.01
1210.91	16.261
1212.52	16.5097
1214.14	17.2352
1215.75	18.6515
1217.37	20.9311
1218.98	21.6433
1220.59	23.3775
1222.21	24.5558
1223.82	25.1794
1225.43	25.3178
1227.05	26.6447
1228.66	27.4148
1230.27	28.6128
1231.88	29.1208
1233.49	29.2894
1235.1	30.1947
1236.72	31.0018
1238.33	32.4973
1239.94	33.6742
1241.55	33.5628
1243.16	34.5684
1244.76	34.759
1246.37	35.852
1247.98	36.4238
1249.59	37.0544
1251.2	37.666
1252.8	38.4356
1254.41	38.4675
1256.02	38.0298
1257.62	37.9875
1259.23	38.6227
1260.84	39.049
1262.44	38.9529
1264.05	38.6601
1265.66	38.1509
1267.26	37.4978
1268.86	37.7567
1270.47	37.6757
1272.07	37.1589
1273.67	37.1364
1275.28	37.6258
1276.88	37.9425
1278.48	37.6361
1280.09	38.0255
1281.69	37.7539
1283.29	38.8968
1284.89	39.3671
1286.49	40.5231
1288.09	40.9546
1289.69	41.4862
1291.29	42.0969
1292.89	41.3063
1294.49	41.7939
1296.09	41.8402
1297.69	42.1944
1299.29	41.6716
1300.89	42.6031
1302.49	42.6396
1304.08	43.0286
1305.68	43.6185
1307.28	44.3215
1308.88	45.3117
1310.47	46.9424
1312.07	48.5914
1313.66	49.3663
1315.26	50.6205
1316.85	50.6888
1318.45	52.1919
1320.04	52.2454
1321.64	52.0624
1323.23	52.6937
1324.83	52.6723
1326.42	53.7142
1328.01	53.604
1329.61	53.9258
1331.2	53.7199
1332.79	54.1206
1334.38	53.5165
1335.97	53.1407
1337.56	53.0422
1339.16	52.3165
1340.75	51.368
1342.34	49.0307
1343.93	48.4626
1345.52	48.1669
1347.11	47.2159
1348.7	45.604
1350.29	43.9527
1351.87	43.4379
1353.46	42.2904
1355.05	41.1523
1356.64	38.7794
1358.22	36.8964
1359.81	36.3186
1361.4	35.9951
1362.98	35.7541
1364.57	34.4808
1366.16	32.4567
1367.74	31.0377
1369.33	30.6907
1370.91	30.1455
1372.5	29.1207
1374.08	29.2644
1375.67	28.6021
1377.25	28.6013
1378.83	28.5061
1380.41	28.101
1382	28.1873
1383.58	28.84
1385.16	29.1669
1386.74	29.8931
1388.33	30.0059
1389.91	30.0727
1391.49	29.4035
1393.07	28.3758
1394.65	28.7111
1396.23	29.2356
1397.81	29.9099
1399.39	29.0687
1400.97	29.0862
1402.55	29.5709
1404.13	30.3327
1405.7	31.0302
1407.28	31.0238
1408.86	31.9119
1410.44	32.7742
1412.01	32.7307
1413.59	33.1045
1415.17	33.7242
1416.74	34.1479
1418.32	34.9093
1419.89	36.0209
1421.47	36.8119
1423.04	37.8503
1424.62	38.2433
1426.19	38.7883
1427.77	39.6183
1429.34	41.382
1430.91	41.9597
1432.49	42.1558
1434.06	42.6633
1435.63	43.7988
1437.2	45.4937
1438.78	46.8833
1440.35	47.8281
1441.92	48.0348
1443.49	48.6617
1445.06	49.4817
1446.63	50.7644
1448.2	51.0454
1449.77	50.9302
1451.34	50.4397
1452.91	49.8735
1454.48	48.9738
1456.05	48.2847
1457.62	47.5701
1459.18	46.8535
1460.75	46.8012
1462.32	45.5054
1463.89	43.2971
1465.45	41.8641
1467.02	39.7806
1468.59	37.6421
1470.15	35.3624
1471.72	34.1227
1473.28	32.8367
1474.85	31.1989
1476.41	29.3784
1477.98	27.6802
1479.54	26.2549
1481.1	25.0848
1482.67	23.524
1484.23	21.9816
1485.79	19.9138
1487.36	18.026
1488.92	16.2157
1490.48	14.3348
1492.04	13.3178
1493.61	11.672
1495.17	9.60618
1496.73	8.77399
1498.29	8.33353
1499.85	7.72109
1501.41	6.87402
1502.97	6.63726
1504.53	6.4956
1506.09	6.52991
1507.65	6.72177
1509.2	6.34779
1510.76	6.68835
1512.32	6.98226
1513.88	7.26494
1515.43	7.2064
1516.99	7.44124
1518.55	8.22897
1520.1	8.5331
1521.66	9.89223
1523.22	10.386
1524.77	10.4523
1526.33	11.5002
1527.88	11.7807
1529.44	11.9295
1530.99	12.6716
1532.54	13.3798
1534.1	14.2716
1535.65	16.165
1537.21	17.5464
1538.76	19.0126
1540.31	19.9146
1541.86	20.7429
1543.42	22.4432
1544.97	22.6255
1546.52	23.5418
1548.07	24.8557
1549.62	26.1211
1551.17	27.4049
1552.72	28.6619
1554.27	29.5339
1555.82	29.8315
1557.37	30.5321
1558.92	31.4777
1560.47	31.5441
1562.02	31.945
1563.56	32.4743
1565.11	33.2622
1566.66	34.3694
1568.21	34.6841
1569.75	34.9967
1571.3	35.9129
1572.85	36.4773
1574.39	38.2294
1575.94	39.6358
1577.49	40.4553
1579.03	40.8217
1580.57	42.216
1582.12	43.4865
1583.66	44.5273
1585.21	44.5287
1586.75	44.4552
1588.3	44.7161
1589.84	45.5986
1591.38	46.26
1592.92	46.0581
1594.47	46.0698
1596.01	45.4553
1597.55	44.9524
1599.09	44.1272
1600.63	42.4767
1602.17	42.148
1603.71	41.6597
1605.25	40.7543
1606.79	39.8923
1608.33	39.1739
1609.87	39.0845
1611.41	38.6763
1612.95	38.9459
1614.49	39.1932
1616.03	38.6608
1617.57	37.7956
1619.1	37.3137
1620.64	37.1554
1622.18	36.5283
1623.72	36.9522
1625.25	37.1992
1626.79	37.4476
1628.32	38.1474
1629.86	37.8293
1631.39	38.011
1632.93	39.1139
1634.46	40.245
1636	41.266
1637.53	41.8975
1639.07	42.4887
1640.6	43.5153
1642.13	44.9605
1643.67	46.2576
1645.2	46.8216
1646.73	47.3213
1648.26	48.4703
1649.8	49.2917
1651.33	50.5829
1652.86	51.6371
1654.39	52.7198
1655.92	53.1117
1657.45	54.09
1658.98	53.3859
1660.51	52.7791
1662.04	51.8025
1663.57	51.5503
1665.1	50.921
1666.63	50.9297
1668.16	49.3538
1669.68	47.5898
1671.21	46.508
1672.74	44.96
1674.27	43.9027
1675.79	42.224
1677.32	41.0059
1678.85	40.141
1680.37	38.6584
1681.9	37.5387
1683.42	35.6165
1684.95	34.1605
1686.47	33.7098
1688	31.7191
1689.52	30.8568
1691.05	29.5357
1692.57	27.6725
1694.09	26.3072
1695.62	24.8657
1697.14	24.1518
1698.66	23.3203
1700.18	22.3457
1701.71	21.575
1703.23	20.5367
1704.75	19.1404
1706.27	17.8272
1707.79	17.0245
1709.31	16.8702
1710.83	15.7812
1712.35	14.9838
1713.87	13.9001
1715.39	13.2455
1716.91	12.6826
1718.43	12.223
1719.95	10.5252
1721.47	9.44955
1722.99	8.89156
1724.5	8.96042
1726.02	8.58118
1727.54	8.13647
1729.06	7.79153
1730.57	7.28238
1732.09	6.0693
1733.61	5.2161
1735.12	4.16304
1736.64	3.54304
1738.15	3.13041
1739.67	3.28926
1741.18	3.16462
1742.7	3.3518
1744.21	2.66974
1745.72	2.65706
1747.24	2.3676
1748.75	2.20938
1750.26	2.21136
1751.77	2.39053
1753.29	2.48285
1754.8	2.4643
1756.31	2.54547
1757.82	2.41659
1759.33	1.97861
1760.84	1.83774
1762.36	2.28702
1763.87	2.08592
1765.38	2.55844
1766.89	2.63314
1768.4	2.68408
1769.91	2.55925
1771.41	2.42828
1772.92	2.85623
1774.43	2.74679
1775.94	2.71896
1777.45	2.62164
1778.95	2.23462
1780.46	1.87233
1781.97	1.89078
1783.48	1.76141
1784.98	1.95483
1786.49	1.69798
1787.99	1.4591
1789.5	0.981133
1791.01	0.816922
1792.51	0.707674
1794.01	0.618817
1795.52	0.556586
1797.02	1.09137
1798.53	1.08943
1800.03	1.19045
1801.53	0.544272
1803.04	0.373303
1804.54	0.462431
1806.04	-0.0495219
1807.54	0.118445
1809.05	0.290466
1810.55	0.661587
1812.05	1.22654
1813.55	1.81049
1815.05	2.45394
1816.55	2.78809
1818.05	3.06537
1819.55	2.97269
1821.05	3.28487
1822.55	3.12901
1824.05	3.40067
1825.55	3.6623
1827.05	3.93133
1828.55	3.71438
1830.04	3.66525
1831.54	3.67678
1833.04	3.32601
1834.54	3.38763
1836.03	3.80647
1837.53	3.87881
1839.03	4.24964
1840.52	4.36651
1842.02	4.62036
1843.51	4.92687
1845.01	4.87375
1846.5	4.73833
1848	4.88255
1849.49	4.65987
1850.99	4.15495
1852.48	3.8498
1853.97	3.51224
1855.47	2.98592
1856.96	2.60704
1858.45	1.98657
1859.94	1.64887
1861.44	1.35114
1862.93	1.12298
1864.42	0.802288
1865.91	1.02532
1867.4	1.04849
1868.89	0.648779
1870.38	0.928065
1871.87	0.952965
1873.36	0.962968
1874.85	0.923442
1876.34	0.618373
1877.83	1.17799
1879.32	1.46172
1880.81	1.33623
1882.3	1.3467
1882.57	1.33357
1884.07	1.25016
1885.56	1.5667
1887.06	1.23839
1888.55	1.69578
1890.04	1.71684
1891.54	1.73368
1893.03	1.90298
1894.52	2.41837
1896.02	2.49312
1897.51	2.73065
1899	2.71696
1900.49	2.79031
1901.98	3.34144
1903.47	3.78512
1904.96	4.69704
1906.45	4.99004
1907.94	5.88081
1909.43	6.48397
1910.92	6.11168
1912.41	6.97678
1913.9	7.11766
1915.39	7.51815
1916.88	7.51152
1918.37	7.53331
1919.85	7.39763
1921.34	7.86283
1922.83	8.65443
1924.32	8.37201
1925.8	8.73588
1927.29	8.58382
1928.78	8.26687
1930.26	8.36753
1931.75	8.38427
1933.23	8.57455
1934.72	8.63299
1936.2	8.83043
1937.69	9.01384
1939.17	9.52257
1940.66	9.4609
1942.14	9.3835
1943.63	9.57004
1945.11	9.93342
1946.59	10.3707
1948.07	9.90229
1949.56	9.90435
1951.04	9.35075
1952.52	9.39964
1954	8.9459
1955.48	8.7223
1956.96	8.80067
1958.45	8.49274
1959.93	8.53606
1961.41	8.49945
1962.89	8.8163
1964.37	9.04835
1965.85	9.10007
1967.32	9.70336
1968.8	9.76734
1970.28	9.92479
1971.76	9.73837
1973.24	10.6192
1974.72	10.9889
1976.19	11.5378
1977.67	11.4746
1979.15	11.1082
1980.63	10.3387
1982.1	10.7018
1983.58	10.7112
1985.05	10.8362
1986.53	11.9052
1988	12.0273
1989.48	12.5027
1990.95	12.4504
1992.43	12.3164
1993.9	12.6365
1995.38	12.8677
1996.85	12.6092
1998.32	12.2335
1999.8	12.8503
2001.27	12.7778
2002.74	13.074
2004.22	12.9425
2005.69	12.3556
2007.16	12.2761
2008.63	12.4081
2010.1	12.319
2011.57	12.4843
2013.04	12.4243
2014.51	12.0318
2015.98	11.7798
2017.45	11.9169
2018.92	12.2237
2020.39	11.8363
2021.86	11.4076
2023.33	11.5603
2024.8	11.8421
2026.27	12.2074
2027.74	12.0929
2029.2	11.2987
2030.67	11.315
2032.14	11.5708
2033.61	12.3381
2035.07	12.962
2036.54	12.8043
2038.01	13.0989
2039.47	12.5826
2040.94	12.6225
2042.4	12.3984
2043.87	12.4111
2045.33	11.9939
2046.8	12.3257
2048.26	11.9944
2049.72	12.162
2051.19	12.1336
2052.65	12.026
2054.12	12.5921
2055.58	13.2132
2057.04	13.3124
2058.5	13.3119
2059.97	13.2668
2061.43	13.5962
2062.89	13.4726
2064.35	13.8033
2065.81	14.2623
2067.27	14.7382
2068.73	14.9199
2070.19	14.8483
2071.65	14.7187
2073.11	14.1524
2074.57	13.4989
2076.03	13.3752
2077.49	13.144
2078.95	13.3876
2080.41	13.3226
2081.87	12.9417
2083.32	12.8611
2084.78	13.5715
2086.24	13.1923
2087.7	13.6095
2089.15	14.1608
2090.61	14.2447
2092.07	14.3656
2093.52	14.2244
2094.98	14.201
2096.43	13.8238
2097.89	13.6229
2099.34	13.1939
2100.8	12.3712
2102.25	11.563
2103.71	12.1985
2105.16	12.1679
2106.61	12.1249
2108.07	11.9337
2109.52	11.2284
2110.97	11.1885
2112.43	10.7256
2113.88	11.4808
2115.33	11.1273
2116.78	11.3875
2118.23	11.3427
2119.68	11.7591
2121.13	11.9632
2122.59	11.834
2124.04	11.9537
2125.49	12.453
2126.94	12.6646
2128.39	13.3907
2129.83	14.444
2131.28	14.908
2132.73	15.4958
2134.18	16.5502
