#Acq. time (s)=	45
#Accumulations=	2
#Range (cm-¹)=	200...3150
#Windows=	2
#Auto scanning=	Off
#Autofocus=	Off
#Macrospot=	Off
#AutoExposure=	Off
#Spike filter=	Multiple accum.
#Delay time (s)=	0
#Binning=	1
#Readout mode=	Signal
#DeNoise=	Off
#ICS correction=	On
#Dark correction=	Off
#Inst. Process=	Off
#Detector Gain=	Best Dynamic Range
#Detector ADC=	20 kHz       
#Detector temperature (°C)=	-69.85
#Instrument=	LabRAM HR Evol
#Detector=	Synapse
#Objective=	x100
#Grating=	600 gr/mm
#ND Filter=	100%
#Laser (nm)=	532 
#Hole=	100.021
#Range=	Auto
#Laser Pol.=	No
#Raman. Pol.=	No
#Laser Pol. (°)=	-0.0007625
#Raman Pol. (°)=	89.9995
#Collection=	Microscope
#StageXY=	Marzhauser
#StageZ=	Marzhauser
#X (µm)=	8965.9
#Y (µm)=	-3052.9
#Z (µm)=	-54.85
#Full time(mm:ss)=	3:18
#Project=	
#Sample=	
#Site=	
#Title=	Thy_00_07_39_2x_45s_532 nm_x100_100%_600 gr_mm
#Remark=	
#Date=	28.06.2022 12:57
#Acquired=	28.06.2022 12:57:37
#Base:Fit=	10.08.2022 10:07:56
#Base:Sub=	10.08.2022 10:08:40
#Filter:Polynom=	16.08.2022 10:26:06
#AxisType[0]=Intens
#AxisUnit[0]=Cnt
#AxisType[1]=Spectr
#AxisUnit[1]=1/cm
200.407	3.89268
202.221	1.98564
204.035	2.11689
205.849	2.17817
207.665	2.14823
209.478	2.00637
211.291	2.30839
213.104	2.27982
214.916	2.22055
216.73	1.50207
218.541	1.39968
220.352	2.03644
222.163	2.42968
223.973	3.22972
225.785	2.77629
227.595	3.07104
229.404	2.98677
231.213	3.43616
233.022	3.75714
234.83	3.57834
236.638	3.18311
238.448	2.86234
240.255	2.851
242.062	2.80673
243.868	3.37973
245.675	2.97418
247.48	3.05065
249.286	2.68127
251.091	2.5027
252.896	1.91619
254.702	1.62069
256.506	1.79997
258.31	2.46448
260.113	2.61549
261.916	3.09007
263.719	2.45689
265.521	2.67019
267.323	3.21671
269.125	2.7319
270.926	2.61698
272.727	2.76652
274.527	2.30205
276.328	3.39681
278.127	3.83837
279.927	4.68364
281.726	5.09811
283.525	4.49698
285.323	4.84303
287.121	5.76761
288.919	5.25767
290.716	6.46552
292.513	7.35612
294.31	7.09435
296.104	7.24153
297.9	6.65201
299.696	7.96799
301.491	8.81925
303.286	8.62724
305.081	8.35338
306.875	8.75377
308.669	10.0617
310.463	11.6093
312.256	11.5111
314.047	12.1419
315.839	11.9932
317.631	13.0964
319.423	12.5047
321.215	13.06
323.006	12.8485
324.794	12.6127
326.585	13.7091
328.375	14.3935
330.165	13.7335
331.954	12.5608
333.741	11.5559
335.53	11.0521
337.318	11.6225
339.106	10.6782
340.894	10.7271
342.679	10.6605
344.466	11.885
346.253	11.5404
348.039	11.8149
349.823	11.4115
351.608	11.301
353.393	10.8657
355.176	10.9927
356.961	10.4951
358.745	10.7935
360.529	11.4562
362.31	11.4209
364.093	11.19
365.876	12.4221
367.657	11.1899
369.439	11.3674
371.221	11.2721
373	10.0813
374.781	10.469
376.56	10.4292
378.34	10.2912
380.12	11.0516
381.898	10.1751
383.677	9.6552
385.456	9.0686
387.233	9.66226
389.011	10.9928
390.787	11.2874
392.565	10.5232
394.34	9.5399
396.117	9.96924
397.894	10.1527
399.668	9.86728
401.444	9.23288
403.217	8.74942
404.993	7.86367
406.766	8.63946
408.54	7.70145
410.312	8.26541
412.086	8.32736
413.858	8.42603
415.631	8.21668
417.402	7.12206
419.174	5.77585
420.944	6.37177
422.716	7.29557
424.486	8.14185
426.257	7.77397
428.025	6.84261
429.794	7.29155
431.564	7.32078
433.332	6.98851
435.101	5.30569
436.868	5.52533
438.637	4.85811
440.403	5.43168
442.169	5.18742
443.937	5.03468
445.703	5.55277
447.468	6.07056
449.234	5.53108
450.999	6.19319
452.765	6.77693
454.528	6.43294
456.292	6.16919
458.057	7.12788
459.819	7.46833
461.582	8.08149
463.344	8.9462
465.107	9.20678
466.868	9.71604
468.629	9.66445
470.392	10.4449
472.152	11.5119
473.912	12.5776
475.672	12.6726
477.433	12.8181
479.192	12.5534
480.951	12.5567
482.709	12.6378
484.469	14.2231
486.226	14.8483
487.984	15.1616
489.74	15.8228
491.499	16.2779
493.255	18.0385
495.011	19.4081
496.767	19.6073
498.522	20.5023
500.277	20.5793
502.033	20.1452
503.788	19.5901
505.541	20.7058
507.295	20.7292
509.048	20.8117
510.801	20.0039
512.553	19.414
514.308	18.1131
516.06	17.5887
517.811	18.0042
519.562	17.3277
521.313	16.473
523.063	16.3941
524.814	16.7866
526.563	17.3926
528.313	18.0171
530.062	17.7819
531.811	17.1701
533.559	17.1967
535.308	15.9707
537.055	15.6709
538.803	15.8735
540.55	14.501
542.297	13.1888
544.043	12.722
545.789	12.7368
547.535	13.6726
549.281	13.6113
551.026	13.4775
552.771	13.2112
554.515	13.3041
556.259	12.6254
558.003	13.1824
559.747	11.7383
561.49	10.9703
563.233	9.2449
564.975	10.1704
566.717	10.5412
568.459	11.154
570.2	10.7674
571.942	11.6651
573.68	11.1366
575.421	11.3982
577.161	11.0643
578.901	11.1118
580.64	10.9526
582.379	10.2773
584.118	10.1534
585.855	9.25741
587.593	8.17423
589.331	8.15866
591.068	8.53688
592.805	9.61201
594.54	7.8682
596.277	8.29883
598.013	7.60901
599.749	6.94418
601.484	6.01704
603.217	6.06064
604.952	5.47765
606.687	4.71048
608.421	4.80934
610.153	5.97176
611.886	5.1005
613.619	5.14985
615.35	4.24989
617.083	3.03915
618.815	2.46665
620.547	2.52374
622.276	2.2711
624.008	2.81743
625.738	3.04206
627.467	3.53747
629.197	4.16953
630.927	5.15682
632.655	7.61857
634.384	8.92764
636.113	8.97161
637.839	8.78721
639.568	8.95596
641.293	10.2039
643.021	10.5785
644.748	11.6862
646.473	12.1596
648.2	13.3422
649.924	14.6244
651.65	16.2671
653.376	17.3152
655.099	17.6576
656.824	19.0084
658.546	19.8744
660.271	19.2039
661.993	19.3177
663.716	19.4715
665.438	20.3979
667.161	21.3034
668.881	21.9228
670.604	22.4157
672.324	22.2517
674.045	22.8122
675.765	24.0383
677.486	23.8517
679.204	23.6729
680.925	22.7918
682.643	24.1296
684.361	23.4647
686.08	24.6681
687.797	25.7929
689.516	26.7053
691.232	28.3034
692.95	29.5839
694.666	29.6986
696.382	30.5497
698.099	29.6005
699.813	30.9887
701.528	31.475
703.244	32.1445
704.958	33.471
706.673	35.0874
708.387	36.4875
710.099	38.1867
711.814	40.7661
713.526	42.27
715.238	42.9039
716.949	43.7124
718.663	44.9443
720.374	45.5746
722.084	45.5228
723.796	46.1881
725.506	48.2742
727.216	48.5842
728.925	48.8701
730.636	50.0459
732.345	50.7624
734.053	51.6261
735.761	51.401
737.471	52.0057
739.178	53.2088
740.885	53.7426
742.592	54.8644
744.298	54.417
746.006	55.2349
747.712	56.4885
749.417	58.1646
751.122	59.2459
752.827	59.884
754.532	61.1851
756.236	61.7731
757.942	62.0148
759.645	63.3062
761.348	63.138
763.051	63.1171
764.753	64.6809
766.456	65.5528
768.158	67.8735
769.859	68.7725
771.56	70.3446
773.261	71.0549
774.964	71.559
776.664	72.3824
778.364	72.8386
780.064	73.5412
781.763	75.0465
783.462	74.5241
785.16	75.3422
786.859	74.5558
788.557	74.812
790.255	75.2726
791.952	76.2569
793.649	76.1479
795.346	75.8894
797.042	75.4033
798.738	74.4992
800.434	73.7631
802.127	73.766
803.823	73.6253
805.517	72.627
807.212	72.8261
808.906	73.9072
810.6	74.4666
812.293	74.0165
813.987	75.4727
815.68	75.7086
817.372	75.983
819.064	76.1415
820.754	75.6615
822.446	76.9452
824.137	77.0575
825.828	76.954
827.519	77.8705
829.209	77.8312
830.897	78.1424
832.587	77.1109
834.276	77.5601
835.966	76.8296
837.654	76.1353
839.341	76.0307
841.029	75.14
842.717	74.1157
844.404	73.7599
846.091	72.7414
847.776	72.994
849.463	72.5207
851.149	71.246
852.833	71.0799
854.519	69.7569
856.204	68.8818
857.889	67.521
859.572	65.8723
861.256	64.8969
862.94	62.7362
864.622	60.5037
866.305	58.8479
867.988	56.6805
869.669	55.3368
871.351	53.2186
873.033	51.5072
874.713	49.7003
876.395	46.9451
878.074	44.7143
879.755	43.6794
881.435	42.8033
883.114	42.6489
884.794	42.0645
886.471	41.6002
888.15	41.5766
889.829	41.2296
891.506	42.0162
893.184	42.2766
894.861	41.586
896.538	41.6746
898.214	42.0391
899.891	42.1222
901.566	42.9207
903.242	43.3032
904.916	43.7044
906.592	44.4617
908.266	45.4073
909.941	46.223
911.614	47.706
913.288	48.2893
914.961	48.2391
916.635	49.1657
918.306	50.1735
919.979	50.8084
921.651	52.2684
923.321	53.6481
924.994	54.1901
926.664	54.5122
928.336	54.9442
930.005	55.0007
931.674	55.0151
933.345	54.6817
935.014	54.1481
936.682	54.3609
938.352	54.1362
940.019	54.0296
941.687	53.3429
943.356	53.0884
945.022	52.3835
946.689	50.8512
948.357	49.0352
950.022	47.978
951.688	46.2862
953.355	44.8518
955.02	42.9666
956.684	41.5843
958.348	40.295
960.014	38.2589
961.678	37.453
963.341	37.0066
965.004	36.4361
966.669	36.3644
968.331	36.5693
969.993	36.6522
971.655	36.5588
973.316	35.4115
974.979	36.286
976.64	36.4272
978.3	36.0124
979.961	36.7024
981.62	36.1272
983.28	35.3302
984.941	36.1959
986.6	36.1888
988.259	36.1578
989.917	35.5374
991.575	35.5138
993.233	35.5833
994.89	35.7993
996.547	35.4019
998.204	34.6912
999.86	34.0462
1001.52	33.3314
1003.17	33.3836
1004.83	33.2149
1006.49	32.4128
1008.14	31.9667
1009.79	31.718
1011.45	30.5535
1013.1	29.2425
1014.76	28.693
1016.41	27.9754
1018.06	27.6815
1019.72	26.7266
1021.37	25.7798
1023.02	25.4087
1024.67	24.7046
1026.32	23.9373
1027.97	22.0302
1029.62	20.8554
1031.27	18.7999
1032.92	19.466
1034.57	19.1768
1036.22	18.8787
1037.87	18.6686
1039.52	18.8521
1041.17	18.7911
1042.82	18.879
1044.47	19.3604
1046.11	20.9943
1047.76	22.1368
1049.41	21.9425
1051.06	22.5293
1052.7	22.6735
1054.35	22.829
1055.99	23.3626
1057.64	23.9461
1059.28	22.5499
1060.93	22.855
1062.57	23.3147
1064.22	22.4433
1065.86	22.4998
1067.5	23.1116
1069.15	22.3105
1070.79	22.1198
1072.43	22.1004
1074.08	22.8757
1075.72	22.5326
1077.36	21.8277
1079	21.0168
1080.64	19.8258
1082.28	18.8384
1083.92	18.4829
1085.56	18.7339
1087.2	17.9761
1088.84	17.706
1090.48	17.9765
1092.12	18.2461
1093.76	18.1596
1095.39	19.2367
1097.03	20.6725
1098.67	21.5652
1100.31	23.0728
1101.94	23.5151
1103.58	24.7332
1105.22	24.9146
1106.85	24.2633
1108.49	23.4319
1110.12	23.8906
1111.76	24.7587
1113.39	24.3566
1115.03	24.8517
1116.66	24.8532
1118.29	24.3339
1119.93	24.3605
1121.56	23.4564
1123.19	22.9744
1124.82	22.5305
1126.46	21.8595
1128.09	21.6671
1129.72	21.4254
1131.35	20.4281
1132.98	20.826
1134.61	20.8894
1136.24	20.5621
1137.87	20.2829
1139.5	19.4354
1141.13	18.4256
1142.76	18.6749
1144.39	17.188
1146.01	16.1923
1147.64	16.3948
1149.27	16.4087
1150.9	16.6396
1152.53	16.4054
1154.15	15.7513
1155.78	14.3914
1157.4	12.7957
1159.03	12.0359
1160.65	10.8383
1162.28	9.8886
1163.9	9.35548
1165.53	8.41689
1167.15	8.17483
1168.78	8.28146
1170.4	9.87301
1172.02	10.7207
1173.65	11.3852
1175.27	11.236
1176.89	11.9928
1178.51	12.5682
1180.14	12.9043
1181.76	13.0307
1183.38	11.9101
1185	11.4449
1186.62	11.3568
1188.24	11.4123
1189.86	11.7667
1191.48	12.4584
1193.1	12.1848
1194.71	11.668
1196.33	12.4186
1197.95	13.081
1199.57	13.3767
1201.19	13.9615
1202.8	14.521
1204.42	15.7204
1206.04	15.9427
1207.65	16.3013
1209.27	17.1767
1210.88	18.3192
1212.5	19.3513
1214.12	21.0693
1215.73	22.7227
1217.35	23.5212
1218.96	24.4405
1220.57	25.6473
1222.19	26.9996
1223.8	29.3247
1225.41	30.7486
1227.03	32.8295
1228.64	34.0421
1230.25	35.4003
1231.86	35.9981
1233.47	35.7386
1235.08	36.0191
1236.69	36.357
1238.31	37.4103
1239.92	37.9262
1241.52	38.8611
1243.13	38.6392
1244.74	38.4688
1246.35	38.3757
1247.96	39.2689
1249.57	40.2312
1251.18	40.6441
1252.78	40.2814
1254.39	39.5259
1256	39.9256
1257.6	40.8607
1259.21	40.9106
1260.82	39.89
1262.42	39.2913
1264.03	39.7272
1265.63	40.9277
1267.24	41.2619
1268.84	41.005
1270.45	41.8822
1272.05	42.4756
1273.65	42.7424
1275.26	42.6351
1276.86	43.205
1278.46	43.2886
1280.06	43.9893
1281.67	44.8067
1283.27	45.9502
1284.87	46.7444
1286.47	46.7781
1288.07	47.7152
1289.67	49.1255
1291.27	50.4163
1292.87	52.4713
1294.47	53.3646
1296.07	54.0993
1297.67	55.2638
1299.27	56.7285
1300.87	58.2403
1302.47	58.5566
1304.06	59.2381
1305.66	59.5182
1307.26	60.137
1308.85	60.6203
1310.45	61.5048
1312.05	61.5229
1313.64	62.165
1315.24	63.414
1316.83	63.6035
1318.43	63.4464
1320.02	62.9376
1321.62	62.6629
1323.21	62.0015
1324.8	61.7265
1326.4	61.9172
1327.99	61.3775
1329.59	60.3861
1331.18	59.3944
1332.77	58.5579
1334.36	58.5717
1335.95	58.6744
1337.54	57.6746
1339.14	56.2286
1340.73	55.7066
1342.32	56.184
1343.91	56.5558
1345.5	55.5005
1347.09	54.2991
1348.67	53.2985
1350.26	52.6903
1351.85	51.464
1353.44	51.107
1355.03	50.937
1356.62	51.3554
1358.2	51.6237
1359.79	50.6739
1361.38	49.9092
1362.96	48.8659
1364.55	47.9575
1366.14	46.9603
1367.72	46.6539
1369.31	46.5867
1370.89	46.4963
1372.48	46.1301
1374.06	44.8237
1375.64	44.518
1377.23	43.7997
1378.81	42.2135
1380.39	40.8546
1381.98	39.8504
1383.56	39.2518
1385.14	38.5935
1386.72	38.7274
1388.3	38.3932
1389.89	37.7742
1391.47	37.3188
1393.05	37.124
1394.63	36.5134
1396.21	34.8582
1397.79	33.5444
1399.37	32.6821
1400.95	32.909
1402.52	32.2755
1404.1	31.399
1405.68	31.8557
1407.26	31.6625
1408.84	32.5435
1410.42	33.3827
1411.99	34.5415
1413.57	35.3989
1415.15	35.3463
1416.72	37.0579
1418.3	38.4517
1419.87	39.511
1421.45	40.7092
1423.02	42.2636
1424.6	43.4985
1426.17	45.5984
1427.75	47.8401
1429.32	49.3393
1430.89	51.9336
1432.47	55.3875
1434.04	57.0387
1435.61	58.8366
1437.18	60.609
1438.76	62.0966
1440.33	64.2219
1441.9	65.6585
1443.47	67.2612
1445.04	68.4136
1446.61	69.2536
1448.18	70.2798
1449.75	70.7682
1451.32	70.9215
1452.89	71.4394
1454.46	71.218
1456.03	70.4085
1457.6	70.4143
1459.16	69.615
1460.73	68.4502
1462.3	67.0855
1463.87	65.4214
1465.43	64.1339
1467	62.1242
1468.56	59.5658
1470.13	58.0445
1471.7	55.7461
1473.26	53.324
1474.83	50.3838
1476.39	48.1323
1477.96	46.6224
1479.52	44.4401
1481.08	41.872
1482.65	40.1518
1484.21	38.9806
1485.77	36.711
1487.34	34.72
1488.9	32.7199
1490.46	30.5798
1492.02	29.0633
1493.58	27.7974
1495.15	26.9845
1496.71	24.9386
1498.27	23.8445
1499.83	23.3385
1501.39	22.601
1502.95	21.3611
1504.51	20.9655
1506.07	20.9328
1507.63	20.1287
1509.18	21.2505
1510.74	21.3706
1512.3	20.3521
1513.86	20.4751
1515.41	20.8284
1516.97	21.3215
1518.53	21.4257
1520.08	21.5819
1521.64	22.5593
1523.2	23.19
1524.75	24.4042
1526.31	24.3866
1527.86	25.3616
1529.42	26.4188
1530.97	27.2857
1532.52	27.5844
1534.08	28.1776
1535.63	28.651
1537.19	27.9985
1538.74	28.3429
1540.29	29.2717
1541.84	29.8754
1543.4	31.6913
1544.95	32.7063
1546.5	33.0607
1548.05	34.498
1549.6	34.6773
1551.15	35.305
1552.7	35.238
1554.25	35.4644
1555.8	36.3444
1557.35	36.6368
1558.9	38.2216
1560.45	39.1446
1562	40.4119
1563.54	40.1786
1565.09	40.9224
1566.64	41.7621
1568.19	42.0247
1569.73	42.9455
1571.28	42.9322
1572.83	42.9169
1574.37	43.0488
1575.92	43.227
1577.47	43.7465
1579.01	44.4375
1580.56	45.1714
1582.1	46.241
1583.64	46.7277
1585.19	46.6514
1586.73	47.6366
1588.28	47.2331
1589.82	47.0926
1591.36	47.8945
1592.9	48.7647
1594.45	48.9369
1595.99	49.023
1597.53	49.2982
1599.07	49.6875
1600.61	49.5007
1602.15	49.8148
1603.69	49.2747
1605.23	49.3731
1606.77	48.8082
1608.31	48.751
1609.85	47.6165
1611.39	46.9363
1612.93	47.0208
1614.47	45.8208
1616.01	45.9078
1617.55	45.82
1619.08	45.0476
1620.62	45.549
1622.16	45.0201
1623.7	45.1115
1625.23	45.4342
1626.77	44.3253
1628.3	43.9426
1629.84	43.8823
1631.37	43.9902
1632.91	44.7075
1634.44	44.8026
1635.98	45.2627
1637.51	45.3902
1639.05	45.2749
1640.58	45.3628
1642.11	46.7256
1643.65	47.6759
1645.18	48.2179
1646.71	48.5931
1648.24	48.7188
1649.78	49.5134
1651.31	50.4411
1652.84	51.0556
1654.37	51.774
1655.9	52.0908
1657.43	51.7731
1658.96	51.7483
1660.49	51.2638
1662.02	51.4847
1663.55	51.8809
1665.08	51.027
1666.61	51.2626
1668.14	51.5905
1669.66	51.1221
1671.19	51.3556
1672.72	50.7218
1674.25	50.0406
1675.77	49.4098
1677.3	48.5286
1678.83	47.602
1680.35	45.983
1681.88	44.1607
1683.4	43.2865
1684.93	42.2454
1686.45	40.2718
1687.98	38.7207
1689.5	37.7756
1691.03	35.8015
1692.55	35.1407
1694.07	33.7557
1695.6	32.7275
1697.12	31.496
1698.64	29.4326
1700.17	27.214
1701.69	25.191
1703.21	23.6923
1704.73	22.8067
1706.25	21.8986
1707.77	20.4194
1709.29	19.9195
1710.81	18.9026
1712.33	18.4675
1713.85	17.8807
1715.37	17.0044
1716.89	17.513
1718.41	17.4495
1719.93	15.8306
1721.45	13.8779
1722.97	12.334
1724.49	11.9702
1726	11.9613
1727.52	11.435
1729.04	10.7442
1730.55	10.371
1732.07	10.1329
1733.59	9.53468
1735.1	9.37742
1736.62	8.91712
1738.13	8.72724
1739.65	7.95036
1741.16	7.06415
1742.68	7.22983
1744.19	7.02228
1745.7	6.73632
1747.22	6.83116
1748.73	5.9961
1750.24	5.85382
1751.76	5.89842
1753.27	5.07715
1754.78	5.32262
1756.29	5.45996
1757.8	5.22124
1759.31	5.41499
1760.83	5.41384
1762.34	4.82462
1763.85	4.92282
1765.36	5.28343
1766.87	4.91885
1768.38	4.11443
1769.89	3.57321
1771.39	3.40111
1772.9	3.09149
1774.41	3.45621
1775.92	3.31419
1777.43	4.29614
1778.94	4.52137
1780.44	4.13179
1781.95	4.04148
1783.46	4.01003
1784.96	4.65585
1786.47	4.56128
1787.97	4.98805
1789.48	4.97832
1790.99	5.10005
1792.49	5.86926
1794	5.3185
1795.5	4.68141
1797	5.02286
1798.51	5.75866
1800.01	6.61327
1801.51	6.53136
1803.02	6.15391
1804.52	6.1511
1806.02	5.69133
1807.53	5.64792
1809.03	5.83546
1810.53	5.54308
1812.03	5.37533
1813.53	5.42106
1815.03	5.32676
1816.53	5.72854
1818.03	5.97573
1819.53	5.99391
1821.03	6.55619
1822.53	6.88286
1824.03	6.64077
1825.53	6.28956
1827.03	6.42083
1828.53	6.04381
1830.02	6.38039
1831.52	5.99679
1833.02	6.05181
1834.52	5.98503
1836.01	5.4621
1837.51	5.03784
1839.01	5.08604
1840.5	4.76484
1842	4.66818
1843.49	4.7543
1844.99	5.7368
1846.48	6.546
1847.98	6.79439
1849.47	6.65841
1850.97	6.70295
1852.46	6.82004
1853.95	6.5126
1855.45	6.00568
1856.94	5.76422
1858.43	5.62988
1859.93	5.56148
1861.42	5.8646
1862.91	6.15475
1864.4	5.79754
1865.89	5.53503
1867.38	5.2295
1868.87	4.7947
1870.36	4.28128
1871.85	4.04457
1873.34	4.235
1874.83	3.62821
1876.32	3.29453
1877.81	3.17176
1879.3	3.56114
1880.79	3.44588
1882.28	3.57704
1882.52	3.27352
1884.02	3.24368
1885.51	2.71635
1887.01	2.73561
1888.5	2.16988
1889.99	2.30067
1891.49	2.37831
1892.98	2.60782
1894.47	2.80408
1895.97	2.32229
1897.46	1.83403
1898.95	2.34115
1900.44	2.88313
1901.93	3.29232
1903.42	3.93911
1904.91	4.07788
1906.4	4.34856
1907.89	3.71676
1909.38	4.12974
1910.87	4.53471
1912.36	4.98904
1913.85	4.77872
1915.34	5.36202
1916.83	6.07991
1918.32	5.78446
1919.8	5.54491
1921.29	4.909
1922.78	5.24856
1924.27	5.17564
1925.75	4.79502
1927.24	4.38999
1928.73	3.67777
1930.21	3.45782
1931.7	2.97236
1933.18	3.12047
1934.67	3.39201
1936.15	3.01921
1937.64	2.62408
1939.12	2.56483
1940.61	2.42286
1942.09	2.12546
1943.57	1.67632
1945.06	2.45032
1946.54	2.21689
1948.02	1.76467
1949.51	2.35826
1950.99	2.06466
1952.47	2.10807
1953.95	1.34208
1955.43	0.916036
1956.91	1.08456
1958.4	1.37915
1959.88	1.08518
1961.36	1.8217
1962.84	1.31293
1964.32	2.01975
1965.8	2.29305
1967.27	2.09402
1968.75	2.08648
1970.23	2.23267
1971.71	2.7507
1973.19	3.36243
1974.67	3.35511
1976.14	3.61881
1977.62	3.61963
1979.1	3.82437
1980.58	3.90799
1982.05	4.32428
1983.53	4.938
1985	4.45245
1986.48	4.23068
1987.95	4.25554
1989.43	4.63359
1990.9	5.0835
1992.38	4.6373
1993.85	4.90556
1995.33	4.759
1996.8	5.06242
1998.27	4.60815
1999.75	4.69836
2001.22	4.59712
2002.69	5.30688
2004.16	5.45102
2005.64	5.5167
2007.11	6.04997
2008.58	6.48556
2010.05	6.75527
2011.52	6.81476
2012.99	6.81217
2014.46	7.06785
2015.93	7.54766
2017.4	7.50284
2018.87	8.04953
2020.34	8.15953
2021.81	8.71868
2023.28	8.73178
2024.75	8.28913
2026.22	8.74448
2027.69	8.41867
2029.15	8.44944
2030.62	8.44831
2032.09	8.26138
2033.56	8.12166
2035.02	7.7141
2036.49	6.85108
2037.96	6.97848
2039.42	6.29347
2040.89	6.3478
2042.35	5.69706
2043.82	5.74944
2045.28	5.88001
2046.75	6.33019
2048.21	6.31948
2049.67	6.4316
2051.14	6.14809
2052.6	5.95195
2054.07	5.64454
2055.53	5.50271
2056.99	5.25021
2058.45	5.16148
2059.92	5.35635
2061.38	5.32942
2062.84	5.72318
2064.3	5.77041
2065.76	5.07945
2067.22	5.55548
2068.68	5.68193
2070.14	6.4111
2071.6	6.6423
2073.06	6.89435
2074.52	6.6258
2075.98	7.30954
2077.44	6.90108
2078.9	7.06517
2080.36	7.57615
2081.82	7.45827
2083.27	6.96996
2084.73	7.17155
2086.19	7.35788
2087.65	7.36945
2089.1	7.09169
2090.56	6.47998
2092.02	6.70518
2093.47	6.95401
2094.93	6.55522
2096.38	6.2649
2097.84	5.858
2099.29	6.01284
2100.75	5.11004
2102.2	5.09556
2103.66	5.2748
2105.11	4.95831
2106.56	5.01055
2108.02	5.11701
2109.47	5.20021
2110.92	4.88571
2112.38	5.20517
2113.83	6.14803
2115.28	5.99678
2116.73	7.07282
2118.18	7.51186
2119.63	7.36525
2121.09	6.86666
2122.54	6.79161
2123.99	6.42354
2125.44	6.05835
2126.89	5.52075
2128.34	5.65184
2129.79	5.55502
2131.23	5.86942
2132.68	6.06236
2134.13	6.15749
2135.58	6.66995
2137.03	6.34697
2138.48	6.17995
