#Acq. time (s)=	45
#Accumulations=	2
#Range (cm-¹)=	200...3150
#Windows=	2
#Auto scanning=	Off
#Autofocus=	Off
#Macrospot=	Off
#AutoExposure=	Off
#Spike filter=	Multiple accum.
#Delay time (s)=	0
#Binning=	1
#Readout mode=	Signal
#DeNoise=	Off
#ICS correction=	On
#Dark correction=	Off
#Inst. Process=	Off
#Detector Gain=	Best Dynamic Range
#Detector ADC=	20 kHz       
#Detector temperature (°C)=	-69.85
#Instrument=	LabRAM HR Evol
#Detector=	Synapse
#Objective=	x100
#Grating=	600 gr/mm
#ND Filter=	100%
#Laser (nm)=	532 
#Hole=	100.021
#Range=	Auto
#Laser Pol.=	No
#Raman. Pol.=	No
#Laser Pol. (°)=	-0.0007625
#Raman Pol. (°)=	89.9995
#Collection=	Microscope
#StageXY=	Marzhauser
#StageZ=	Marzhauser
#X (µm)=	8968.1
#Y (µm)=	-3055.8
#Z (µm)=	-54.85
#Full time(mm:ss)=	3:18
#Project=	
#Sample=	
#Site=	
#Title=	Thy_00_07_38_2x_45s_532 nm_x100_100%_600 gr_mm
#Remark=	
#Date=	28.06.2022 12:53
#Acquired=	28.06.2022 12:53:47
#Base:Fit=	10.08.2022 10:07:56
#Base:Sub=	10.08.2022 10:08:40
#Filter:Polynom=	16.08.2022 10:26:06
#AxisType[0]=Intens
#AxisUnit[0]=Cnt
#AxisType[1]=Spectr
#AxisUnit[1]=1/cm
200.407	55.4646
202.221	51.5803
204.035	46.5456
205.849	43.6251
207.665	41.4511
209.478	39.1441
211.291	36.611
213.104	33.8602
214.916	31.3324
216.73	28.9332
218.541	26.4498
220.352	24.2749
222.163	22.2779
223.973	18.8488
225.785	16.895
227.595	15.0899
229.404	14.6681
231.213	13.748
233.022	12.9724
234.83	12.1579
236.638	10.4724
238.448	9.87738
240.255	9.00517
242.062	8.28535
243.868	7.60964
245.675	7.88054
247.48	7.73848
249.286	7.85788
251.091	7.88017
252.896	6.88513
254.702	7.09802
256.506	8.00151
258.31	7.88655
260.113	7.82755
261.916	8.58143
263.719	8.62189
265.521	9.08184
267.323	8.64762
269.125	8.77467
270.926	8.77519
272.727	8.59786
274.527	8.76366
276.328	7.99767
278.127	8.67396
279.927	8.38563
281.726	8.98492
283.525	9.69799
285.323	10.6737
287.121	10.8915
288.919	11.1706
290.716	11.5863
292.513	12.187
294.31	12.8763
296.104	12.8355
297.9	12.1788
299.696	11.8772
301.491	12.0388
303.286	11.8532
305.081	12.1004
306.875	11.9344
308.669	11.1545
310.463	10.7619
312.256	10.7782
314.047	10.6676
315.839	12.1057
317.631	12.3399
319.423	12.3785
321.215	11.8691
323.006	11.1511
324.794	10.3264
326.585	9.44634
328.375	10.1784
330.165	10.4273
331.954	11.0224
333.741	10.6422
335.53	10.963
337.318	9.9717
339.106	9.5825
340.894	9.07985
342.679	8.51752
344.466	8.86631
346.253	9.41951
348.039	8.35376
349.823	7.81514
351.608	7.26517
353.393	6.70149
355.176	6.00211
356.961	5.23673
358.745	4.93973
360.529	4.51785
362.31	4.18451
364.093	4.287
365.876	3.11234
367.657	4.09884
369.439	3.58716
371.221	3.95405
373	3.6403
374.781	3.15648
376.56	3.48692
378.34	3.79779
380.12	2.81166
381.898	3.55926
383.677	4.6056
385.456	5.14755
387.233	4.72694
389.011	4.7677
390.787	4.33786
392.565	4.54484
394.34	4.04112
396.117	3.40428
397.894	3.55251
399.668	4.43526
401.444	4.41485
403.217	4.37542
404.993	4.74529
406.766	4.17526
408.54	3.33889
410.312	4.44376
412.086	4.54115
413.858	5.31498
415.631	6.79221
417.402	7.58089
419.174	7.96215
420.944	7.89076
422.716	7.44654
424.486	7.9275
426.257	8.21685
428.025	8.35543
429.794	8.72926
431.564	8.56339
433.332	8.13984
435.101	8.01073
436.868	7.03058
438.637	7.60136
440.403	7.50408
442.169	7.77585
443.937	8.55902
445.703	10.0271
447.468	10.8469
449.234	12.6149
450.999	14.0786
452.765	14.8982
454.528	16.5691
456.292	18.7855
458.057	19.6037
459.819	20.7782
461.582	21.2919
463.344	23.0488
465.107	23.7987
466.868	24.7948
468.629	25.3464
470.392	26.977
472.152	27.522
473.912	27.2153
475.672	28.1163
477.433	27.792
479.192	27.1493
480.951	28.0696
482.709	27.6136
484.469	28.0674
486.226	29.1518
487.984	29.1282
489.74	29.0299
491.499	29.9197
493.255	30.1265
495.011	29.9091
496.767	30.1727
498.522	31.268
500.277	30.7391
502.033	30.677
503.788	29.4987
505.541	27.3905
507.295	26.7191
509.048	25.3083
510.801	24.0944
512.553	22.2623
514.308	20.3164
516.06	18.175
517.811	17.1545
519.562	15.1573
521.313	14.1073
523.063	14.2067
524.814	13.3225
526.563	12.2934
528.313	11.1189
530.062	11.3708
531.811	11.2192
533.559	11.1754
535.308	10.5082
537.055	11.0854
538.803	11.1919
540.55	10.5427
542.297	11.8725
544.043	11.3364
545.789	11.4264
547.535	10.9195
549.281	10.3699
551.026	11.0861
552.771	10.5766
554.515	11.4369
556.259	11.4941
558.003	11.7558
559.747	12.4092
561.49	13.0866
563.233	13.3602
564.975	12.3673
566.717	13.2279
568.459	14.2164
570.2	14.1744
571.942	14.2398
573.68	14.1684
575.421	13.6396
577.161	13.6999
578.901	14.0037
580.64	13.836
582.379	14.0291
584.118	14.2362
585.855	13.808
587.593	13.8099
589.331	13.4141
591.068	12.4525
592.805	12.7369
594.54	12.7857
596.277	12.6396
598.013	11.7804
599.749	11.1977
601.484	10.2498
603.217	9.90251
604.952	9.12365
606.687	7.30845
608.421	6.97769
610.153	6.04078
611.886	5.62434
613.619	6.53074
615.35	6.85559
617.083	6.41606
618.815	6.09357
620.547	5.62831
622.276	5.98874
624.008	6.24089
625.738	6.1749
627.467	7.01584
629.197	8.0191
630.927	6.79394
632.655	6.78871
634.384	7.0775
636.113	7.73825
637.839	8.80604
639.568	9.36099
641.293	9.70309
643.021	9.86987
644.748	9.85433
646.473	10.6699
648.2	10.5643
649.924	10.4889
651.65	10.8539
653.376	10.4709
655.099	9.5299
656.824	8.97878
658.546	8.23767
660.271	8.02258
661.993	8.37107
663.716	9.21394
665.438	10.0952
667.161	10.6636
668.881	11.0845
670.604	11.5872
672.324	12.5223
674.045	14.4397
675.765	15.2767
677.486	15.5251
679.204	16.4376
680.925	16.5088
682.643	17.0634
684.361	16.979
686.08	18.1729
687.797	18.5377
689.516	19.383
691.232	19.2886
692.95	19.8816
694.666	22.238
696.382	22.8387
698.099	23.9363
699.813	25.0735
701.528	24.8562
703.244	24.1595
704.958	25.3467
706.673	25.6981
708.387	26.7509
710.099	26.9413
711.814	27.9937
713.526	29.74
715.238	30.3971
716.949	31.329
718.663	32.4062
720.374	33.5693
722.084	34.1968
723.796	35.2535
725.506	35.111
727.216	35.7022
728.925	36.4241
730.636	37.6039
732.345	38.8576
734.053	38.8383
735.761	39.8159
737.471	40.5135
739.178	41.3092
740.885	42.0372
742.592	43.8306
744.298	45.6501
746.006	47.3781
747.712	48.3283
749.417	50.1505
751.122	51.8024
752.827	53.2883
754.532	54.5373
756.236	56.795
757.942	58.0486
759.645	59.1865
761.348	59.3826
763.051	59.6005
764.753	61.5029
766.456	62.9294
768.158	64.531
769.859	64.9476
771.56	65.7377
773.261	66.145
774.964	67.1443
776.664	67.2971
778.364	68.1966
780.064	68.9934
781.763	68.6171
783.462	68.5201
785.16	68.2868
786.859	68.3146
788.557	67.8562
790.255	68.3347
791.952	68.0248
793.649	68.3264
795.346	69.53
797.042	70.111
798.738	71.0638
800.434	71.1564
802.127	71.0063
803.823	70.3243
805.517	70.697
807.212	71.1181
808.906	70.8875
810.6	71.7093
812.293	72.8671
813.987	72.8018
815.68	74.441
817.372	75.068
819.064	76.3599
820.754	77.4342
822.446	78.5248
824.137	79.578
825.828	79.5645
827.519	81.5955
829.209	82.0728
830.897	82.3835
832.587	83.3055
834.276	84.4829
835.966	85.0757
837.654	85.3539
839.341	85.9589
841.029	85.4097
842.717	84.6666
844.404	85.3782
846.091	85.6922
847.776	85.1907
849.463	85.1573
851.149	83.2445
852.833	81.6818
854.519	80.979
856.204	80.0257
857.889	79.4063
859.572	78.7032
861.256	76.6551
862.94	75.01
864.622	73.2153
866.305	72.5003
867.988	70.1813
869.669	68.3317
871.351	67.3026
873.033	64.4805
874.713	63.2285
876.395	62.9216
878.074	62.6227
879.755	61.3936
881.435	58.8779
883.114	57.5669
884.794	55.5222
886.471	53.7469
888.15	53.4641
889.829	53.7679
891.506	53.0752
893.184	52.6154
894.861	52.7324
896.538	51.5521
898.214	51.6166
899.891	53.3134
901.566	53.3705
903.242	54.8181
904.916	55.3057
906.592	57.0007
908.266	57.8513
909.941	59.3396
911.614	61.9025
913.288	62.6972
914.961	63.7348
916.635	64.6023
918.306	64.7279
919.979	65.8194
921.651	66.3163
923.321	66.6288
924.994	65.6379
926.664	66.7359
928.336	67.2895
930.005	67.1166
931.674	66.284
933.345	65.7811
935.014	65.401
936.682	65.0197
938.352	64.3008
940.019	62.4335
941.687	61.6777
943.356	61.3031
945.022	59.1476
946.689	57.1458
948.357	55.7387
950.022	54.9671
951.688	52.4644
953.355	50.7903
955.02	49.7079
956.684	47.6816
958.348	47.115
960.014	44.4956
961.678	41.395
963.341	38.023
965.004	36.8517
966.669	36.8881
968.331	36.2591
969.993	36.0785
971.655	36.2744
973.316	35.319
974.979	33.8706
976.64	34.0039
978.3	34.0013
979.961	33.4512
981.62	33.5694
983.28	33.1768
984.941	32.9372
986.6	32.5995
988.259	32.1208
989.917	32.1657
991.575	31.8762
993.233	32.2701
994.89	31.0395
996.547	30.2901
998.204	30.1397
999.86	30.1116
1001.52	30.0305
1003.17	30.2537
1004.83	30.5384
1006.49	30.7571
1008.14	30.769
1009.79	31.1699
1011.45	31.6804
1013.1	31.5002
1014.76	31.2549
1016.41	31.4364
1018.06	31.6043
1019.72	30.8561
1021.37	31.522
1023.02	32.0505
1024.67	32.6974
1026.32	32.7211
1027.97	31.9013
1029.62	32.0788
1031.27	32.2888
1032.92	32.1872
1034.57	31.4739
1036.22	30.5895
1037.87	30.1092
1039.52	29.221
1041.17	29.161
1042.82	29.0002
1044.47	29.8221
1046.11	30.0325
1047.76	31.5545
1049.41	32.6988
1051.06	32.4345
1052.7	32.5348
1054.35	33.3674
1055.99	33.6266
1057.64	33.4159
1059.28	33.6321
1060.93	33.8153
1062.57	33.3476
1064.22	34.295
1065.86	35.5368
1067.5	35.6449
1069.15	35.1969
1070.79	35.9094
1072.43	36.3517
1074.08	36.7698
1075.72	36.6815
1077.36	37.1734
1079	39.3625
1080.64	39.8387
1082.28	39.7619
1083.92	40.0392
1085.56	41.0461
1087.2	41.5916
1088.84	42.2304
1090.48	43.4656
1092.12	44.8746
1093.76	46.6142
1095.39	47.7801
1097.03	49.6905
1098.67	50.3734
1100.31	50.3521
1101.94	51.1359
1103.58	52.3063
1105.22	53.1447
1106.85	53.1454
1108.49	52.7036
1110.12	52.8823
1111.76	52.225
1113.39	52.3751
1115.03	51.8943
1116.66	51.5451
1118.29	52.016
1119.93	51.8424
1121.56	51.9618
1123.19	51.9749
1124.82	51.4227
1126.46	50.2764
1128.09	48.6025
1129.72	48.243
1131.35	47.1874
1132.98	45.8022
1134.61	45.3032
1136.24	44.3475
1137.87	42.2656
1139.5	40.6728
1141.13	39.3055
1142.76	38.4978
1144.39	36.3088
1146.01	35.1334
1147.64	32.874
1149.27	29.4412
1150.9	27.6565
1152.53	25.2216
1154.15	23.2109
1155.78	20.1269
1157.4	17.2709
1159.03	16.093
1160.65	14.6792
1162.28	11.8888
1163.9	9.70395
1165.53	8.60738
1167.15	7.40333
1168.78	6.49404
1170.4	6.41124
1172.02	6.12105
1173.65	6.34287
1175.27	6.52416
1176.89	7.00766
1178.51	6.5031
1180.14	5.80633
1181.76	5.33963
1183.38	5.35555
1185	5.56101
1186.62	6.13911
1188.24	5.54873
1189.86	5.3377
1191.48	4.99051
1193.1	5.00398
1194.71	5.68657
1196.33	6.44225
1197.95	6.60092
1199.57	7.21169
1201.19	6.58624
1202.8	7.2237
1204.42	7.23447
1206.04	7.23511
1207.65	8.44475
1209.27	8.60528
1210.88	10.2116
1212.5	11.1441
1214.12	12.2353
1215.73	13.1745
1217.35	14.6611
1218.96	15.744
1220.57	16.5952
1222.19	17.5898
1223.8	19.7168
1225.41	20.4308
1227.03	21.0879
1228.64	21.5098
1230.25	21.9183
1231.86	23.337
1233.47	24.264
1235.08	25.8947
1236.69	26.2863
1238.31	27.6585
1239.92	29.3309
1241.52	29.9428
1243.13	30.1273
1244.74	30.3372
1246.35	31.576
1247.96	32.6339
1249.57	33.9533
1251.18	34.8355
1252.78	35.807
1254.39	36.5072
1256	36.4262
1257.6	36.1533
1259.21	35.1605
1260.82	34.3039
1262.42	32.955
1264.03	33.6682
1265.63	33.8034
1267.24	32.6251
1268.84	31.5275
1270.45	30.9269
1272.05	30.6821
1273.65	30.6872
1275.26	30.3997
1276.86	30.5827
1278.46	28.9743
1280.06	29.5372
1281.67	28.7718
1283.27	28.8014
1284.87	28.4323
1286.47	29.0814
1288.07	29.9877
1289.67	28.9678
1291.27	29.7091
1292.87	30.3852
1294.47	30.8824
1296.07	31.912
1297.67	33.7989
1299.27	34.1712
1300.87	36.0484
1302.47	38.3782
1304.06	39.6139
1305.66	41.0774
1307.26	43.0902
1308.85	45.9085
1310.45	48.5315
1312.05	51.5323
1313.64	53.659
1315.24	55.6495
1316.83	57.5825
1318.43	60.277
1320.02	62.7267
1321.62	64.9823
1323.21	66.4547
1324.8	68.3038
1326.4	69.476
1327.99	70.3078
1329.59	70.8199
1331.18	71.5684
1332.77	71.8599
1334.36	71.9752
1335.95	71.1166
1337.54	71.2669
1339.14	70.4622
1340.73	69.9405
1342.32	70.2922
1343.91	70.5306
1345.5	69.5252
1347.09	68.5664
1348.67	68.3636
1350.26	67.4832
1351.85	65.6757
1353.44	65.1243
1355.03	63.5603
1356.62	62.1629
1358.2	60.9236
1359.79	60.0491
1361.38	58.8908
1362.96	58.3522
1364.55	57.0479
1366.14	56.7178
1367.72	54.5081
1369.31	52.6173
1370.89	51.5731
1372.48	50.1471
1374.06	49.2125
1375.64	49.2578
1377.23	48.8561
1378.81	48.151
1380.39	48.585
1381.98	48.425
1383.56	48.1215
1385.14	48.6374
1386.72	48.8545
1388.3	48.855
1389.89	48.5743
1391.47	49.1125
1393.05	48.5508
1394.63	48.7787
1396.21	48.732
1397.79	48.3572
1399.37	47.985
1400.95	47.1251
1402.52	45.3996
1404.1	44.1645
1405.68	43.0008
1407.26	42.1799
1408.84	41.0281
1410.42	41.1392
1411.99	40.5262
1413.57	39.9589
1415.15	39.1597
1416.72	39.9568
1418.3	39.3077
1419.87	39.914
1421.45	42.0613
1423.02	43.0266
1424.6	44.6826
1426.17	46.0939
1427.75	48.1995
1429.32	50.5741
1430.89	52.2268
1432.47	55.2066
1434.04	56.2966
1435.61	58.1985
1437.18	61.081
1438.76	62.5612
1440.33	63.7187
1441.9	63.671
1443.47	64.3992
1445.04	64.9007
1446.61	65.0322
1448.18	65.4922
1449.75	66.0712
1451.32	66.1522
1452.89	67.0721
1454.46	67.3335
1456.03	66.5875
1457.6	65.9843
1459.16	64.9347
1460.73	62.5446
1462.3	59.8051
1463.87	57.0295
1465.43	55.1965
1467	52.6583
1468.56	49.9126
1470.13	48.2413
1471.7	44.9023
1473.26	42.0895
1474.83	39.3384
1476.39	36.6063
1477.96	33.5639
1479.52	29.4798
1481.08	26.0747
1482.65	23.283
1484.21	20.3072
1485.77	17.4108
1487.34	14.7013
1488.9	12.6348
1490.46	9.4341
1492.02	7.01064
1493.58	5.20494
1495.15	4.2484
1496.71	3.59367
1498.27	3.47528
1499.83	4.2511
1501.39	3.61825
1502.95	3.22076
1504.51	3.41867
1506.07	3.77968
1507.63	3.38937
1509.18	2.90396
1510.74	3.83432
1512.3	4.25835
1513.86	4.74787
1515.41	5.80539
1516.97	5.28057
1518.53	5.3589
1520.08	6.48805
1521.64	7.34155
1523.2	7.59645
1524.75	8.82219
1526.31	8.42091
1527.86	9.5041
1529.42	10.79
1530.97	11.9452
1532.52	12.0058
1534.08	12.2089
1535.63	12.504
1537.19	12.9858
1538.74	12.7389
1540.29	13.55
1541.84	14.105
1543.4	14.8934
1544.95	15.9307
1546.5	16.6885
1548.05	17.7674
1549.6	18.649
1551.15	19.2558
1552.7	20.0989
1554.25	20.7262
1555.8	21.0546
1557.35	21.4657
1558.9	21.9964
1560.45	22.7147
1562	23.4036
1563.54	24.0222
1565.09	24.2764
1566.64	24.879
1568.19	25.7039
1569.73	27.0443
1571.28	28.1792
1572.83	28.644
1574.37	29.7879
1575.92	30.3056
1577.47	31.1102
1579.01	31.5874
1580.56	32.1095
1582.1	33.246
1583.64	33.5027
1585.19	33.8515
1586.73	35.0872
1588.28	36.0957
1589.82	36.1691
1591.36	36.401
1592.9	36.9066
1594.45	37.6437
1595.99	39.2438
1597.53	39.2489
1599.07	39.1316
1600.61	39.8532
1602.15	39.8514
1603.69	39.8454
1605.23	40.1158
1606.77	39.4415
1608.31	38.5174
1609.85	38.5386
1611.39	38.4054
1612.93	38.1204
1614.47	38.0064
1616.01	37.411
1617.55	36.5856
1619.08	36.7819
1620.62	36.3992
1622.16	36.4217
1623.7	35.7269
1625.23	35.5098
1626.77	36.09
1628.3	35.9655
1629.84	36.0185
1631.37	36.3533
1632.91	36.5934
1634.44	36.6388
1635.98	36.6431
1637.51	37.4053
1639.05	37.1341
1640.58	36.7545
1642.11	36.7069
1643.65	36.8439
1645.18	37.6178
1646.71	37.9639
1648.24	38.1668
1649.78	38.6402
1651.31	39.4782
1652.84	39.4455
1654.37	40.008
1655.9	40.5134
1657.43	40.2444
1658.96	40.4421
1660.49	39.9024
1662.02	40.2359
1663.55	40.4138
1665.08	40.5457
1666.61	40.1644
1668.14	39.9538
1669.66	39.7488
1671.19	39.3179
1672.72	38.44
1674.25	36.8875
1675.77	36.5283
1677.3	35.7057
1678.83	33.9508
1680.35	32.8574
1681.88	31.3344
1683.4	30.3719
1684.93	29.7469
1686.45	28.2277
1687.98	26.4851
1689.5	25.2042
1691.03	24.1809
1692.55	22.203
1694.07	19.7163
1695.6	19.0089
1697.12	17.2669
1698.64	16.2558
1700.17	15.3116
1701.69	15.0425
1703.21	15.1574
1704.73	14.1535
1706.25	12.8974
1707.77	12.6255
1709.29	12.0816
1710.81	11.1201
1712.33	10.2194
1713.85	9.80311
1715.37	8.9746
1716.89	8.53402
1718.41	8.71876
1719.93	9.05855
1721.45	9.3539
1722.97	9.41513
1724.49	9.21818
1726	8.87528
1727.52	8.4645
1729.04	8.11706
1730.55	8.13143
1732.07	7.50659
1733.59	7.39628
1735.1	7.38159
1736.62	6.97453
1738.13	7.07508
1739.65	6.66727
1741.16	7.10083
1742.68	5.97026
1744.19	6.05202
1745.7	5.94123
1747.22	5.6554
1748.73	5.86799
1750.24	5.5646
1751.76	5.46668
1753.27	4.98249
1754.78	4.34802
1756.29	4.28045
1757.8	4.11426
1759.31	3.17509
1760.83	2.72305
1762.34	2.39445
1763.85	2.8007
1765.36	2.80014
1766.87	2.65982
1768.38	2.08758
1769.89	2.12554
1771.39	2.82375
1772.9	2.82911
1774.41	2.61005
1775.92	3.17605
1777.43	3.94812
1778.94	4.11852
1780.44	3.75347
1781.95	4.52418
1783.46	4.61644
1784.96	4.86897
1786.47	4.87977
1787.97	4.85657
1789.48	5.36861
1790.99	5.17855
1792.49	5.19357
1794	5.43892
1795.5	4.97231
1797	4.9695
1798.51	4.70199
1800.01	4.29456
1801.51	4.29496
1803.02	4.64592
1804.52	4.80065
1806.02	4.99891
1807.53	4.83971
1809.03	4.76499
1810.53	4.6648
1812.03	4.95126
1813.53	5.0917
1815.03	5.3751
1816.53	5.78947
1818.03	5.29349
1819.53	5.83268
1821.03	5.42904
1822.53	5.41252
1824.03	5.79647
1825.53	5.5797
1827.03	6.10266
1828.53	6.01225
1830.02	6.59406
1831.52	6.75012
1833.02	6.71187
1834.52	6.5453
1836.01	6.90425
1837.51	7.13971
1839.01	7.37314
1840.5	7.00292
1842	6.72502
1843.49	6.59418
1844.99	6.78138
1846.48	7.14349
1847.98	6.86349
1849.47	6.49214
1850.97	6.72661
1852.46	6.73666
1853.95	6.1635
1855.45	5.60346
1856.94	5.26116
1858.43	4.76565
1859.93	4.7121
1861.42	4.03891
1862.91	3.74816
1864.4	3.926
1865.89	3.88804
1867.38	3.54228
1868.87	3.27268
1870.36	3.38857
1871.85	3.29942
1873.34	3.40664
1874.83	3.82631
1876.32	4.27062
1877.81	4.38658
1879.3	4.55127
1880.79	3.8958
1882.28	4.02304
1882.52	4.73823
1884.02	4.55721
1885.51	4.32496
1887.01	3.88561
1888.5	3.40762
1889.99	3.83736
1891.49	3.60269
1892.98	3.20274
1894.47	2.90808
1895.97	3.15955
1897.46	3.60703
1898.95	3.01209
1900.44	2.9467
1901.93	2.82425
1903.42	3.66807
1904.91	3.25526
1906.4	3.49729
1907.89	3.09769
1909.38	3.16289
1910.87	3.47248
1912.36	3.17454
1913.85	2.78386
1915.34	2.27257
1916.83	2.01983
1918.32	1.88872
1919.8	1.91752
1921.29	1.37528
1922.78	1.4835
1924.27	1.58428
1925.75	1.34394
1927.24	1.05199
1928.73	1.10588
1930.21	1.38623
1931.7	2.1944
1933.18	2.19908
1934.67	2.60709
1936.15	2.78933
1937.64	2.9611
1939.12	2.51767
1940.61	1.90216
1942.09	2.4271
1943.57	2.91073
1945.06	3.1972
1946.54	3.6667
1948.02	3.72816
1949.51	3.50094
1950.99	3.32276
1952.47	3.51494
1953.95	3.38818
1955.43	3.96207
1956.91	3.80068
1958.4	3.1391
1959.88	3.47432
1961.36	3.54445
1962.84	3.43567
1964.32	3.7685
1965.8	3.15682
1967.27	3.15126
1968.75	3.44934
1970.23	3.53856
1971.71	3.71775
1973.19	3.49747
1974.67	4.33663
1976.14	4.87803
1977.62	4.87197
1979.1	4.78088
1980.58	4.83629
1982.05	4.49282
1983.53	4.06102
1985	3.31821
1986.48	3.34804
1987.95	3.21457
1989.43	2.77439
1990.9	2.7101
1992.38	2.9306
1993.85	3.3239
1995.33	3.31612
1996.8	2.37853
1998.27	1.71063
1999.75	1.91642
2001.22	1.34289
2002.69	1.30508
2004.16	1.76932
2005.64	2.14605
2007.11	1.45543
2008.58	1.44746
2010.05	1.73934
2011.52	2.04897
2012.99	2.32731
2014.46	2.274
2015.93	2.89097
2017.4	2.91862
2018.87	3.27452
2020.34	3.08573
2021.81	3.11038
2023.28	2.94778
2024.75	3.37746
2026.22	3.76096
2027.69	3.84934
2029.15	4.01272
2030.62	4.08265
2032.09	4.29194
2033.56	4.73011
2035.02	4.98148
2036.49	5.17178
2037.96	5.50917
2039.42	6.32322
2040.89	6.8989
2042.35	7.07247
2043.82	7.28758
2045.28	7.32562
2046.75	6.8948
2048.21	6.87149
2049.67	6.42457
2051.14	6.25405
2052.6	6.35756
2054.07	5.74019
2055.53	5.39633
2056.99	4.70799
2058.45	4.60031
2059.92	4.94557
2061.38	4.15963
2062.84	3.48812
2064.3	3.23879
2065.76	2.99855
2067.22	3.1332
2068.68	2.58856
2070.14	1.54894
2071.6	1.73283
2073.06	2.21315
2074.52	1.71897
2075.98	2.46786
2077.44	2.49567
2078.9	2.55477
2080.36	2.28719
2081.82	2.07858
2083.27	1.71716
2084.73	1.29139
2086.19	1.20244
2087.65	0.855886
2089.1	1.06822
2090.56	1.44428
2092.02	1.50726
2093.47	1.1927
2094.93	1.24081
2096.38	1.04308
2097.84	1.16713
2099.29	1.47771
2100.75	1.49351
2102.2	2.00772
2103.66	2.43022
2105.11	2.64123
2106.56	2.69013
2108.02	2.76855
2109.47	2.90847
2110.92	2.74509
2112.38	3.25282
2113.83	2.82342
2115.28	3.26746
2116.73	3.31993
2118.18	3.19004
2119.63	2.93941
2121.09	3.06381
2122.54	3.26508
2123.99	3.58764
2125.44	3.73849
2126.89	3.99126
2128.34	4.15336
2129.79	4.20779
2131.23	4.91359
2132.68	5.21922
2134.13	5.73638
2135.58	5.44876
2137.03	5.77683
2138.48	6.03728
