#Acq. time (s)=	45
#Accumulations=	2
#Range (cm-¹)=	200...3150
#Windows=	2
#Auto scanning=	Off
#Autofocus=	Off
#Macrospot=	Off
#AutoExposure=	Off
#Spike filter=	Multiple accum.
#Delay time (s)=	0
#Binning=	1
#Readout mode=	Signal
#DeNoise=	Off
#ICS correction=	On
#Dark correction=	Off
#Inst. Process=	Off
#Detector Gain=	Best Dynamic Range
#Detector ADC=	20 kHz       
#Detector temperature (°C)=	-69.85
#Instrument=	LabRAM HR Evol
#Detector=	Synapse
#Objective=	x100
#Grating=	600 gr/mm
#ND Filter=	100%
#Laser (nm)=	532 
#Hole=	100.021
#Range=	Auto
#Laser Pol.=	No
#Raman. Pol.=	No
#Laser Pol. (°)=	-0.0007625
#Raman Pol. (°)=	89.9995
#Collection=	Microscope
#StageXY=	Marzhauser
#StageZ=	Marzhauser
#X (µm)=	2212.6
#Y (µm)=	1214.8
#Z (µm)=	442.55
#Full time(mm:ss)=	3:18
#Project=	
#Sample=	
#Site=	
#Title=	Thy_10_08_26_2x_45s_532 nm_x100_100%_600 gr_mm
#Remark=	
#Date=	05.07.2022 16:05
#Acquired=	05.07.2022 16:05:26
#Base:Fit=	10.08.2022 09:46:25
#Base:Sub=	10.08.2022 09:46:49
#Filter:Polynom=	16.08.2022 10:24:56
#AxisType[0]=Intens
#AxisUnit[0]=Cnt
#AxisType[1]=Spectr
#AxisUnit[1]=1/cm
200.43	-0.458699
202.244	-1.28787
204.059	-1.47536
205.873	0.398204
207.688	1.99593
209.501	2.9813
211.314	3.27791
213.127	3.26977
214.941	3.60937
216.753	3.48233
218.564	2.66572
220.375	2.90751
222.186	2.61676
223.999	1.91852
225.809	2.44214
227.618	3.19741
229.428	4.1205
231.236	4.11774
233.045	4.10019
234.855	4.5967
236.663	4.47227
238.471	5.55662
240.278	6.06375
242.085	5.67006
243.891	6.47858
245.698	6.8193
247.503	7.40458
249.309	8.13331
251.116	7.61403
252.921	7.56792
254.725	8.99445
256.529	9.48368
258.333	9.60858
260.136	10.3166
261.939	11.6053
263.742	11.4254
265.544	11.4351
267.346	11.2226
269.148	12.2773
270.949	12.5326
272.75	12.699
274.55	13.9265
276.351	15.264
278.15	15.7926
279.95	16.0609
281.749	16.3649
283.548	15.6628
285.346	16.092
287.144	16.9982
288.942	17.8757
290.739	17.7394
292.536	18.4783
294.333	18.2435
296.129	17.0834
297.925	17.0477
299.721	16.6954
301.514	17.0809
303.309	17.8994
305.104	18.6222
306.898	18.3458
308.692	18.8365
310.486	19.0901
312.279	19.4123
314.072	19.9225
315.862	20.7558
317.654	20.2605
319.446	19.5013
321.238	18.5211
323.029	19.5337
324.819	19.8338
326.608	19.321
328.398	20.5004
330.188	20.3015
331.977	19.7639
333.766	20.1754
335.553	19.945
337.341	20.1649
339.129	19.733
340.917	18.3183
342.704	18.2755
344.489	18.1989
346.275	17.6936
348.062	17.2436
349.845	17.3745
351.631	16.9379
353.416	15.7726
355.201	14.9778
356.984	14.37
358.768	15.0236
360.552	13.6733
362.333	13.9741
364.116	14.0215
365.899	13.6044
367.68	12.0432
369.462	11.734
371.243	10.9289
373.023	10.7339
374.804	11.66
376.585	11.3391
378.363	10.0432
380.143	9.26914
381.923	9.56903
383.7	8.78212
385.479	8.61635
387.256	8.99003
389.034	8.8908
390.812	9.28708
392.588	10.2619
394.365	9.63402
396.14	9.40417
397.916	9.15025
399.691	7.6066
401.467	7.83781
403.24	7.43845
405.015	6.64514
406.788	6.28764
408.563	6.70999
410.335	6.82002
412.109	7.21851
413.88	6.22273
415.654	6.66771
417.424	7.19254
419.197	6.16928
420.967	5.89281
422.739	5.99925
424.508	6.2166
426.279	6.16119
428.048	6.31577
429.819	6.14464
431.587	6.11458
433.356	6.07556
435.124	6.61149
436.891	6.36873
438.66	6.28084
440.426	5.82849
442.194	5.65712
443.96	6.01243
445.725	6.60278
447.492	7.38715
449.257	6.78945
451.021	6.62667
452.787	6.7558
454.551	7.70076
456.314	7.40766
458.079	8.32533
459.842	8.85163
461.604	10.0666
463.368	10.0855
465.13	9.44786
466.891	9.79073
468.654	10.2983
470.415	10.5197
472.175	11.4532
473.935	12.3528
475.696	13.2823
477.456	13.8146
479.215	15.1783
480.973	15.418
482.733	14.9607
484.491	15.2322
486.249	14.8747
488.006	15.2469
489.765	16.5912
491.522	16.8409
493.278	17.0518
495.034	17.8753
496.789	18.4215
498.544	18.7226
500.301	19.54
502.056	20.6458
503.81	21.9288
505.564	21.7748
507.317	21.9112
509.071	22.2361
510.825	22.7077
512.578	23.0556
514.33	23.5453
516.082	23.4938
517.833	23.1362
519.585	22.5031
521.335	23.5072
523.086	24.1588
524.836	22.9225
526.586	22.2478
528.335	21.5805
530.085	21.2571
531.835	20.559
533.584	20.6605
535.332	19.7089
537.08	18.4286
538.827	18.384
540.574	18.9787
542.321	18.7514
544.068	18.1722
545.814	17.7576
547.56	16.654
549.305	14.7321
551.05	12.9988
552.795	12.2269
554.54	11.672
556.282	10.4058
558.025	10.4885
559.769	10.2803
561.512	9.03643
563.255	9.21732
564.997	9.71244
566.739	9.51125
568.481	8.20563
570.223	6.98742
571.964	6.0005
573.705	5.70612
575.443	5.3809
577.183	4.75391
578.923	4.31037
580.663	3.19685
582.402	3.39495
584.141	4.28096
585.879	4.14789
587.615	4.56013
589.353	4.27949
591.09	4.57765
592.828	3.0898
594.564	2.98987
596.299	2.29284
598.035	2.25014
599.771	2.02231
601.506	2.31761
603.242	2.63231
604.974	3.21118
606.709	4.31345
608.443	4.86653
610.177	3.85076
611.908	3.3181
613.642	4.01942
615.374	5.23959
617.105	5.89271
618.837	6.73421
620.569	7.891
622.3	7.33151
624.03	8.41107
625.761	9.34153
627.491	9.25851
629.219	10.7344
630.949	11.7128
632.677	11.7154
634.406	12.4383
636.135	13.2999
637.861	15.4887
639.59	17.0556
641.318	17.5845
643.043	19.4098
644.77	21.1431
646.495	22.0204
648.222	22.6416
649.948	24.77
651.672	26.3632
653.398	27.2628
655.121	26.8087
656.846	27.4344
658.569	28.477
660.293	29.5978
662.015	30.0838
663.738	30.3216
665.46	30.7048
667.183	30.9939
668.903	32.1508
670.626	32.3852
672.346	31.5953
674.067	32.0943
675.787	31.8796
677.508	32.3819
679.226	32.2033
680.947	32.1993
682.665	31.4912
684.385	31.7552
686.102	32.0188
687.821	31.2317
689.538	30.7901
691.254	30.1084
692.972	29.628
694.688	29.3009
696.406	29.5201
698.121	30.042
699.835	29.8186
701.552	30.354
703.266	29.3565
704.98	29.735
706.695	29.6772
708.409	30.2978
710.121	31.7498
711.836	32.7113
713.548	33.8995
715.26	35.6328
716.973	35.6156
718.685	35.8097
720.396	36.341
722.108	37.0886
723.818	38.912
725.528	39.1834
727.238	40.3014
728.949	42.7874
730.658	43.1369
732.367	44.8818
734.075	45.5
735.785	47.6928
737.493	48.7098
739.2	49.6461
740.907	49.6094
742.614	51.5041
744.322	53.1361
746.028	54.1327
747.734	54.5873
749.439	55.5191
751.144	56.8661
752.849	58.0331
754.555	59.3199
756.26	61.501
757.963	63.3177
759.667	64.401
761.37	65.2278
763.073	65.6794
764.775	66.4884
766.477	66.2804
768.179	67.8341
769.883	68.4102
771.584	69.2047
773.285	69.4498
774.986	70.5874
776.686	71.876
778.386	73.1882
780.085	74.7648
781.785	75.7196
783.484	76.2687
785.182	77.6628
786.881	79.76
788.579	80.2468
790.276	80.8116
791.974	81.2281
793.671	81.8037
795.367	82.3254
797.064	82.9746
798.76	83.9506
800.456	84.3183
802.151	84.2366
803.846	84.4073
805.541	85.5241
807.234	86.7666
808.928	87.7956
810.622	88.3141
812.315	89.2711
814.008	89.5381
815.701	89.3747
817.394	90.2743
819.086	89.7771
820.778	90.9235
822.468	90.2322
824.159	89.6357
825.85	89.1069
827.541	87.9999
829.231	88.502
830.921	87.7957
832.609	87.2588
834.298	87.4459
835.987	86.376
837.676	86.0874
839.364	85.5686
841.051	84.4153
842.738	83.1048
844.426	81.1289
846.113	80.1358
847.798	79.8316
849.484	78.9104
851.171	77.6152
852.857	76.3331
854.54	74.8004
856.226	73.819
857.911	72.3845
859.593	71.968
861.278	71.087
862.961	70.0296
864.645	68.1268
866.327	67.0815
868.01	65.2614
869.692	64.7122
871.373	63.2355
873.055	61.4684
874.735	60.4369
876.416	60.2287
878.097	60.1214
879.776	60.5035
881.457	60.7036
883.135	61.0508
884.815	59.7806
886.495	59.5463
888.172	59.0412
889.851	59.778
891.528	59.4961
893.206	59.3573
894.882	58.8944
896.56	58.9432
898.237	59.1655
899.912	58.7385
901.589	58.1307
903.263	57.1703
904.94	57.8068
906.614	57.4771
908.289	57.4884
909.962	58.1038
911.635	57.7798
913.31	58.8147
914.982	57.6686
916.656	57.1112
918.328	56.9401
920.001	56.0364
921.672	55.9161
923.345	54.9894
925.015	54.4661
926.685	53.7592
928.357	52.8325
930.026	53.5557
931.698	53.4027
933.366	52.5146
935.035	52.7647
936.705	53.2725
938.373	53.1443
940.041	51.682
941.71	50.612
943.377	50.1719
945.044	47.8466
946.712	46.8199
948.378	46.343
950.044	46.4133
951.709	45.2166
953.376	45.1781
955.041	44.5595
956.706	43.6064
958.372	42.3694
960.036	40.5019
961.699	39.569
963.362	39.7118
965.027	39.3242
966.69	38.414
968.352	37.6188
970.014	37.8534
971.676	37.6106
973.339	38.117
975	38.4509
976.661	37.7933
978.322	38.4389
979.982	38.9415
981.642	38.6153
983.303	37.8725
984.962	38.0644
986.621	37.9446
988.28	37.7119
989.938	37.0493
991.596	36.2659
993.254	35.5391
994.911	34.4034
996.57	34.5311
998.227	33.4875
999.884	33.1454
1001.54	33.0711
1003.2	32.4218
1004.85	31.8399
1006.51	31.1381
1008.16	31.518
1009.82	30.0692
1011.47	30.5584
1013.12	30.1908
1014.78	28.7462
1016.43	28.4399
1018.08	28.2632
1019.74	26.7881
1021.39	24.9072
1023.04	24.0068
1024.69	23.5817
1026.34	23.3326
1028	21.6413
1029.65	22.2893
1031.3	21.951
1032.95	20.8534
1034.6	20.6955
1036.25	20.43
1037.9	20.0954
1039.54	19.9111
1041.19	19.5719
1042.84	20.0626
1044.49	20.783
1046.14	22.1355
1047.78	21.6705
1049.43	21.9491
1051.08	22.0834
1052.72	22.2577
1054.37	22.3159
1056.02	22.5326
1057.66	23.0458
1059.31	21.5916
1060.95	21.9177
1062.6	21.5457
1064.24	20.8988
1065.88	21.1966
1067.53	21.256
1069.17	21.1586
1070.81	20.4447
1072.45	21.4577
1074.1	20.7591
1075.74	21.4074
1077.38	21.6854
1079.02	21.5143
1080.66	20.88
1082.3	21.0823
1083.94	20.9543
1085.58	20.3478
1087.22	20.829
1088.86	20.968
1090.5	21.0071
1092.14	20.1242
1093.78	21.238
1095.42	20.8977
1097.05	20.661
1098.69	21.3273
1100.33	21.3845
1101.96	20.1748
1103.6	20.2469
1105.24	20.5557
1106.87	20.6376
1108.51	20.5777
1110.14	20.3063
1111.78	20.3361
1113.41	20.0724
1115.05	19.6344
1116.68	19.2223
1118.31	18.4499
1119.95	17.8809
1121.58	16.8568
1123.21	15.8423
1124.85	15.6995
1126.48	14.0502
1128.11	14.1662
1129.74	13.31
1131.37	12.7823
1133	11.7203
1134.63	10.5654
1136.26	9.969
1137.89	9.34656
1139.52	9.15238
1141.15	8.66014
1142.78	8.78856
1144.41	8.22497
1146.04	7.88039
1147.66	8.62004
1149.29	8.35979
1150.92	8.23804
1152.55	7.84847
1154.17	8.98964
1155.8	7.83278
1157.43	7.70041
1159.05	6.89304
1160.68	5.78141
1162.3	5.45752
1163.93	4.73059
1165.55	4.87284
1167.17	5.1451
1168.8	6.22313
1170.42	6.20114
1172.05	6.41866
1173.67	6.91252
1175.29	6.8193
1176.91	6.66539
1178.54	6.66722
1180.16	7.22819
1181.78	7.33711
1183.4	6.94566
1185.02	8.24566
1186.64	8.93967
1188.26	9.64388
1189.88	10.0407
1191.5	10.4071
1193.12	10.8015
1194.74	10.7286
1196.36	9.5649
1197.97	9.85025
1199.59	11.2709
1201.21	12.6888
1202.83	14.4834
1204.44	15.7998
1206.06	16.9347
1207.68	17.336
1209.29	19.2635
1210.91	20.2762
1212.52	21.22
1214.14	22.3671
1215.75	23.902
1217.37	25.9238
1218.98	27.1846
1220.59	28.4038
1222.21	29.0661
1223.82	30.4515
1225.43	32.8228
1227.05	35.3943
1228.66	37.3792
1230.27	38.5262
1231.88	40.4995
1233.49	41.7203
1235.1	42.667
1236.72	43.31
1238.33	43.9381
1239.94	45.8962
1241.55	46.9464
1243.16	48.6671
1244.76	49.8681
1246.37	52.1404
1247.98	52.7958
1249.59	54.3225
1251.2	54.4715
1252.8	54.9476
1254.41	54.1481
1256.02	54.4355
1257.62	54.6489
1259.23	54.9934
1260.84	54.5995
1262.44	54.7286
1264.05	54.3855
1265.66	55.2652
1267.26	54.9444
1268.86	55.1726
1270.47	55.0785
1272.07	54.534
1273.67	54.2931
1275.28	53.4184
1276.88	53.2551
1278.48	54.4864
1280.09	55.1803
1281.69	54.6478
1283.29	53.9515
1284.89	53.9935
1286.49	54.1923
1288.09	55.2427
1289.69	54.8261
1291.29	55.6551
1292.89	55.51
1294.49	54.7365
1296.09	55.1036
1297.69	55.1939
1299.29	55.1586
1300.89	56.3417
1302.49	58.0343
1304.08	59.7936
1305.68	61.4987
1307.28	62.2423
1308.88	62.9266
1310.47	64.4086
1312.07	64.5636
1313.66	65.1056
1315.26	65.8204
1316.85	66.7964
1318.45	68.0438
1320.04	69.9051
1321.64	70.1257
1323.23	70.6929
1324.83	70.6431
1326.42	70.7418
1328.01	70.085
1329.61	70.365
1331.2	69.8934
1332.79	68.4771
1334.38	67.8633
1335.97	67.7416
1337.56	66.5717
1339.16	66.0243
1340.75	64.4829
1342.34	64.537
1343.93	64.1816
1345.52	63.5065
1347.11	62.1235
1348.7	61.0027
1350.29	59.568
1351.87	59.0565
1353.46	57.7232
1355.05	56.3773
1356.64	54.7385
1358.22	53.3066
1359.81	52.0715
1361.4	50.9498
1362.98	49.5751
1364.57	49.6684
1366.16	48.8173
1367.74	47.7343
1369.33	45.2761
1370.91	45.122
1372.5	43.1735
1374.08	41.8743
1375.67	41.6631
1377.25	40.1862
1378.83	39.29
1380.41	38.9705
1382	37.8284
1383.58	37.2123
1385.16	37.0707
1386.74	35.9715
1388.33	35.376
1389.91	34.872
1391.49	33.866
1393.07	35.0327
1394.65	33.9602
1396.23	33.2397
1397.81	32.9185
1399.39	31.5761
1400.97	30.2627
1402.55	30.1061
1404.13	29.7193
1405.7	29.86
1407.28	30.1768
1408.86	30.305
1410.44	30.3368
1412.01	30.2868
1413.59	31.891
1415.17	32.0877
1416.74	33.7774
1418.32	34.9781
1419.89	36.1276
1421.47	38.1036
1423.04	40.1761
1424.62	42.4833
1426.19	45.1399
1427.77	47.7132
1429.34	50.65
1430.91	54.3654
1432.49	56.0704
1434.06	57.9996
1435.63	59.7106
1437.2	61.5479
1438.78	63.7871
1440.35	66.02
1441.92	68.5773
1443.49	71.0481
1445.06	72.2987
1446.63	73.1513
1448.2	73.3533
1449.77	74.2435
1451.34	73.9948
1452.91	74.1751
1454.48	73.7958
1456.05	72.443
1457.62	70.8533
1459.18	69.0413
1460.75	66.7842
1462.32	65.2017
1463.89	62.9326
1465.45	60.606
1467.02	57.6298
1468.59	54.7309
1470.15	51.1532
1471.72	47.2783
1473.28	43.2111
1474.85	39.1685
1476.41	35.9008
1477.98	32.4116
1479.54	29.8418
1481.1	27.6153
1482.67	24.1027
1484.23	20.4456
1485.79	17.4632
1487.36	15.089
1488.92	12.6491
1490.48	10.4919
1492.04	8.89701
1493.61	7.26526
1495.17	5.96271
1496.73	4.10505
1498.29	3.80797
1499.85	3.8725
1501.41	4.1354
1502.97	4.00159
1504.53	3.30324
1506.09	2.73876
1507.65	2.63205
1509.2	2.71204
1510.76	2.22324
1512.32	2.47461
1513.88	3.61889
1515.43	3.97807
1516.99	4.76447
1518.55	6.46474
1520.1	7.60666
1521.66	7.82836
1523.22	9.02914
1524.77	9.22814
1526.33	9.9041
1527.88	10.9866
1529.44	11.1839
1530.99	12.0784
1532.54	12.1286
1534.1	11.9877
1535.65	12.4037
1537.21	13.6708
1538.76	14.0529
1540.31	15.2664
1541.86	15.8018
1543.42	16.7955
1544.97	17.5262
1546.52	18.7212
1548.07	19.1513
1549.62	21.4943
1551.17	23.2468
1552.72	22.9221
1554.27	24.9412
1555.82	25.9156
1557.37	27.6863
1558.92	28.8681
1560.47	28.7953
1562.02	29.6787
1563.56	31.1917
1565.11	32.7358
1566.66	33.7815
1568.21	35.3995
1569.75	36.6784
1571.3	38.4329
1572.85	38.904
1574.39	40.607
1575.94	42.4236
1577.49	43.9604
1579.03	44.821
1580.57	46.0775
1582.12	47.1452
1583.66	47.915
1585.21	49.0372
1586.75	49.9378
1588.3	50.316
1589.84	50.3976
1591.38	50.5055
1592.92	50.1526
1594.47	50.279
1596.01	50.3885
1597.55	50.5303
1599.09	49.5555
1600.63	48.8942
1602.17	47.792
1603.71	47.9392
1605.25	47.0364
1606.79	46.252
1608.33	45.9713
1609.87	45.2989
1611.41	45.2518
1612.95	45.004
1614.49	44.5381
1616.03	43.6488
1617.57	44.0648
1619.1	43.4833
1620.64	44.1251
1622.18	45.0429
1623.72	44.352
1625.25	44.5084
1626.79	45.267
1628.32	44.6825
1629.86	44.7044
1631.39	45.933
1632.93	45.9726
1634.46	47.1063
1636	47.3382
1637.53	47.4796
1639.07	49.0843
1640.6	50.9724
1642.13	52.728
1643.67	54.8643
1645.2	56.4768
1646.73	58.0606
1648.26	59.4939
1649.8	60.4327
1651.33	62.8013
1652.86	63.2869
1654.39	63.6122
1655.92	62.8434
1657.45	63.5023
1658.98	63.4947
1660.51	63.5634
1662.04	63.3786
1663.57	62.4613
1665.1	61.8074
1666.63	61.7212
1668.16	61.6788
1669.68	60.6616
1671.21	59.2742
1672.74	58.1019
1674.27	57.2844
1675.79	55.4873
1677.32	53.771
1678.85	52.1911
1680.37	50.7217
1681.9	47.8271
1683.42	45.3102
1684.95	42.9672
1686.47	40.7954
1688	38.5105
1689.52	35.4263
1691.05	32.542
1692.57	30.0561
1694.09	28.0356
1695.62	25.001
1697.14	23.4483
1698.66	21.3784
1700.18	17.8908
1701.71	17.1979
1703.23	16.4608
1704.75	14.4281
1706.27	12.8165
1707.79	12.2804
1709.31	11.9557
1710.83	10.9813
1712.35	9.58164
1713.87	8.82005
1715.39	8.34843
1716.91	7.70322
1718.43	6.74464
1719.95	6.28634
1721.47	5.30039
1722.99	4.61731
1724.5	3.87674
1726.02	3.40143
1727.54	3.13633
1729.06	2.28096
1730.57	2.29528
1732.09	2.40456
1733.61	3.31542
1735.12	2.9004
1736.64	3.14008
1738.15	2.66964
1739.67	2.71312
1741.18	2.71272
1742.7	3.02389
1744.21	2.1743
1745.72	1.52467
1747.24	1.44943
1748.75	1.59105
1750.26	1.35674
1751.77	0.97
1753.29	0.0488905
1754.8	-0.0839342
1756.31	-0.2892
1757.82	-0.849471
1759.33	-0.713033
1760.84	-0.19671
1762.36	0.302981
1763.87	-0.271248
1765.38	-0.207047
1766.89	-0.486903
1768.4	-0.291943
1769.91	-0.224703
1771.41	0.169398
1772.92	0.516094
1774.43	0.732649
1775.94	1.0114
1777.45	2.60687
1778.95	2.72722
1780.46	2.25574
1781.97	3.37213
1783.48	3.94819
1784.98	3.6854
1786.49	2.80689
1787.99	2.92819
1789.5	3.02303
1791.01	3.05743
1792.51	2.84626
1794.01	2.97274
1795.52	3.45231
1797.02	3.82845
1798.53	3.86303
1800.03	3.95011
1801.53	3.76798
1803.04	4.15012
1804.54	4.04471
1806.04	3.6295
1807.54	3.04794
1809.05	2.54952
1810.55	1.45939
1812.05	1.65191
1813.55	1.079
1815.05	0.885775
1816.55	0.859868
1818.05	1.02642
1819.55	0.945527
1821.05	1.43123
1822.55	1.41955
1824.05	1.72587
1825.55	1.94635
1827.05	2.38857
1828.55	2.56163
1830.04	2.9152
1831.54	3.31974
1833.04	2.91678
1834.54	3.04585
1836.03	3.42434
1837.53	3.23905
1839.03	2.96211
1840.52	3.33489
1842.02	3.62491
1843.51	4.39872
1845.01	4.45343
1846.5	4.55649
1848	4.27799
1849.49	4.96708
1850.99	5.73472
1852.48	6.0315
1853.97	5.93342
1855.47	6.82989
1856.96	7.17512
1858.45	7.04827
1859.94	7.4625
1861.44	7.88316
1862.93	7.55143
1864.42	7.12835
1865.91	7.46872
1867.4	7.6059
1868.89	8.06529
1870.38	8.31577
1871.87	8.36865
1873.36	8.94991
1874.85	9.11586
1876.34	9.28577
1877.83	9.3217
1879.32	8.94864
1880.81	8.89114
1882.3	9.26116
1882.57	9.67425
1884.07	10.2151
1885.56	10.3304
1887.06	10.8647
1888.55	11.508
1890.04	11.6872
1891.54	12.0106
1893.03	12.7918
1894.52	13.1832
1896.02	12.8036
1897.51	13.3586
1899	12.9565
1900.49	12.1695
1901.98	11.8255
1903.47	12.1157
1904.96	12.3035
1906.45	11.7024
1907.94	12.0369
1909.43	11.9323
1910.92	12.4176
1912.41	12.2319
1913.9	12.6399
1915.39	12.4276
1916.88	12.2029
1918.37	12.0415
1919.85	12.0669
1921.34	12.0183
1922.83	12.064
1924.32	11.9171
1925.8	11.9185
1927.29	11.8718
1928.78	11.866
1930.26	11.1104
1931.75	11.114
1933.23	11.066
1934.72	10.9419
1936.2	10.0984
1937.69	10.5391
1939.17	11.0272
1940.66	10.339
1942.14	10.3757
1943.63	10.3813
1945.11	10.9289
1946.59	11.3688
1948.07	10.7796
1949.56	10.9406
1951.04	10.6361
1952.52	10.9817
1954	11.5448
1955.48	11.5325
1956.96	11.634
1958.45	11.5997
1959.93	11.561
1961.41	12.1615
1962.89	11.6257
1964.37	11.2248
1965.85	11.473
1967.32	10.8542
1968.8	10.2421
1970.28	9.25353
1971.76	9.21893
1973.24	8.71875
1974.72	8.20818
1976.19	8.60752
1977.67	8.76788
1979.15	8.19101
1980.63	7.64151
1982.1	7.69783
1983.58	7.68887
1985.05	8.16812
1986.53	8.18528
1988	8.7291
1989.48	8.2168
1990.95	8.48597
1992.43	8.7819
1993.9	8.60414
1995.38	9.237
1996.85	9.88631
1998.32	10.4878
1999.8	11.6374
2001.27	12.0769
2002.74	13.0912
2004.22	13.5748
2005.69	14.2047
2007.16	14.2969
2008.63	14.9935
2010.1	14.9974
2011.57	15.3536
2013.04	15.9721
2014.51	16.2537
2015.98	17.3396
2017.45	17.7251
2018.92	18.2244
2020.39	18.0422
2021.86	18.7499
2023.33	19.4123
2024.8	20.0018
2026.27	20.3918
2027.74	20.1036
2029.2	19.5713
2030.67	19.4992
2032.14	19.7953
2033.61	19.6
2035.07	18.9964
2036.54	18.665
2038.01	18.4306
2039.47	18.3992
2040.94	17.8314
2042.4	17.713
2043.87	17.6729
2045.33	17.1503
2046.8	16.3113
2048.26	15.3332
2049.72	14.5485
2051.19	14.1832
2052.65	14.0857
2054.12	13.8104
2055.58	13.8034
2057.04	13.8849
2058.5	14.2964
2059.97	14.4198
2061.43	13.8298
2062.89	14.3181
2064.35	14.7386
2065.81	15.2111
2067.27	15.5259
2068.73	16.786
2070.19	17.3873
2071.65	18.5337
2073.11	18.9628
2074.57	18.8934
2076.03	19.2749
2077.49	19.227
2078.95	19.4952
2080.41	19.7858
2081.87	20.3643
2083.32	19.9057
2084.78	20.6737
2086.24	21.3065
2087.7	21.3515
2089.15	22.3465
2090.61	22.8212
2092.07	23.5977
2093.52	23.9222
2094.98	24.3449
2096.43	24.4448
2097.89	24.4801
2099.34	23.3657
2100.8	22.9793
2102.25	23.2679
2103.71	23.6704
2105.16	23.6188
2106.61	23.1215
2108.07	22.7603
2109.52	22.4478
2110.97	22.4658
2112.43	22.6841
2113.88	22.3473
2115.33	22.3266
2116.78	22.3849
2118.23	21.3469
2119.68	21.1199
2121.13	21.6618
2122.59	22.1011
2124.04	22.4004
2125.49	22.8158
2126.94	22.5898
2128.39	22.8582
2129.83	22.9656
2131.28	23.5463
2132.73	24.1429
2134.18	24.7544
2135.63	25.6022
2137.08	25.3371
