#Acq. time (s)=	45
#Accumulations=	2
#Range (cm-¹)=	200...3150
#Windows=	2
#Auto scanning=	Off
#Autofocus=	Off
#Macrospot=	Off
#AutoExposure=	Off
#Spike filter=	Multiple accum.
#Delay time (s)=	0
#Binning=	1
#Readout mode=	Signal
#DeNoise=	Off
#ICS correction=	On
#Dark correction=	Off
#Inst. Process=	Off
#Detector Gain=	Best Dynamic Range
#Detector ADC=	20 kHz       
#Detector temperature (°C)=	-69.85
#Instrument=	LabRAM HR Evol
#Detector=	Synapse
#Objective=	x100
#Grating=	600 gr/mm
#ND Filter=	100%
#Laser (nm)=	532 
#Hole=	100.021
#Range=	Auto
#Laser Pol.=	No
#Raman. Pol.=	No
#Laser Pol. (°)=	-0.0007625
#Raman Pol. (°)=	89.9995
#Collection=	Microscope
#StageXY=	Marzhauser
#StageZ=	Marzhauser
#X (µm)=	265.6
#Y (µm)=	1684.6
#Z (µm)=	426.9
#Full time(mm:ss)=	3:18
#Project=	
#Sample=	
#Site=	
#Title=	Thy_40_11_46_2x_45s_532 nm_x100_100%_600 gr_mm
#Remark=	
#Date=	05.07.2022 13:16
#Acquired=	05.07.2022 13:16:46
#Base:Fit=	10.08.2022 10:01:35
#Base:Sub=	10.08.2022 10:01:52
#Filter:Polynom=	16.08.2022 10:21:53
#AxisType[0]=Intens
#AxisUnit[0]=Cnt
#AxisType[1]=Spectr
#AxisUnit[1]=1/cm
200.43	21.1751
202.244	19.3103
204.059	16.9553
205.873	15.3508
207.688	13.7332
209.501	12.8786
211.314	12.581
213.127	11.4737
214.941	10.9981
216.753	10.762
218.564	9.66185
220.375	8.62954
222.186	8.04531
223.999	7.74011
225.809	7.92889
227.618	7.72263
229.428	6.38562
231.236	5.40317
233.045	5.05069
234.855	4.29487
236.663	3.93839
238.471	3.99535
240.278	3.66694
242.085	3.20274
243.891	3.27118
245.698	2.53018
247.503	2.77705
249.309	2.60341
251.116	3.42148
252.921	3.17113
254.725	3.53313
256.529	3.03447
258.333	3.23876
260.136	3.29124
261.939	2.93958
263.742	2.74573
265.544	1.28223
267.346	0.391413
269.148	1.30204
270.949	2.04887
272.75	3.06872
274.55	3.90122
276.351	4.55047
278.15	4.49142
279.95	5.74525
281.749	6.13634
283.548	6.33976
285.346	6.81361
287.144	7.50252
288.942	7.92185
290.739	7.90497
292.536	9.40202
294.333	10.5423
296.129	11.7218
297.925	12.4958
299.721	13.8263
301.514	13.1752
303.309	13.7354
305.104	14.8514
306.898	14.9709
308.692	15.086
310.486	15.6679
312.279	16.4853
314.072	16.8146
315.862	16.8629
317.654	17.4191
319.446	17.8762
321.238	18.9233
323.029	19.8532
324.819	19.7227
326.608	20.6827
328.398	20.9888
330.188	20.6881
331.977	20.5282
333.766	20.0413
335.553	19.1559
337.341	18.8642
339.129	18.1043
340.917	18.4575
342.704	17.4307
344.489	16.6896
346.275	16.0157
348.062	15.6302
349.845	15.0449
351.631	14.8486
353.416	14.8962
355.201	14.2367
356.984	14.5659
358.768	14.0777
360.552	12.2235
362.333	12.2148
364.116	11.463
365.899	10.6504
367.68	10.2164
369.462	10.1205
371.243	9.93558
373.023	8.99718
374.804	8.89506
376.585	8.94346
378.363	8.47837
380.143	8.03989
381.923	7.77567
383.7	7.75159
385.479	7.77617
387.256	7.35774
389.034	7.96909
390.812	7.19416
392.588	8.03351
394.365	7.94181
396.14	7.87545
397.916	8.04268
399.691	8.42266
401.467	9.6223
403.24	10.3689
405.015	11.4173
406.788	12.6746
408.563	12.073
410.335	12.3513
412.109	12.9943
413.88	12.4
415.654	13.3557
417.424	13.1178
419.197	13.0932
420.967	12.7911
422.739	12.1691
424.508	13.0333
426.279	13.8071
428.048	15.136
429.819	15.4638
431.587	15.235
433.356	15.078
435.124	15.9188
436.891	15.9853
438.66	16.1582
440.426	16.2371
442.194	15.0619
443.96	14.2672
445.725	14.2369
447.492	13.6791
449.257	14.1173
451.021	14.8176
452.787	14.3824
454.551	14.8174
456.314	15.9212
458.079	16.0692
459.842	16.64
461.604	17.4061
463.368	18.6984
465.13	18.8527
466.891	19.198
468.654	19.1218
470.415	19.4643
472.175	20.1103
473.935	20.2785
475.696	20.7543
477.456	20.9726
479.215	20.753
480.973	22.0282
482.733	22.435
484.491	22.7343
486.249	23.3988
488.006	24.2923
489.765	25.0445
491.522	25.6805
493.278	25.5107
495.034	25.8872
496.789	26.0501
498.544	26.8781
500.301	26.5524
502.056	27.0955
503.81	27.6651
505.564	28.1098
507.317	27.6932
509.071	27.789
510.825	28.6352
512.578	29.2852
514.33	29.0651
516.082	28.3932
517.833	27.6706
519.585	27.2215
521.335	26.9773
523.086	27.4851
524.836	26.6268
526.586	25.8642
528.335	24.5378
530.085	23.6111
531.835	22.7027
533.584	22.8986
535.332	22.3651
537.08	21.9015
538.827	20.7297
540.574	20.759
542.321	20.6143
544.068	20.6389
545.814	20.3847
547.56	20.1363
549.305	20.4203
551.05	19.7303
552.795	18.3254
554.54	18.1525
556.282	17.3645
558.025	17.5116
559.769	17.8969
561.512	17.0087
563.255	16.4917
564.997	15.4474
566.739	15.4834
568.481	16.1372
570.223	14.9573
571.964	14.7407
573.705	14.158
575.443	13.4835
577.183	12.5001
578.923	12.1117
580.663	10.3254
582.402	11.3841
584.141	10.4612
585.879	9.24918
587.615	9.31837
589.353	9.6313
591.09	8.9496
592.828	8.43374
594.564	7.22274
596.299	6.63697
598.035	5.57863
599.771	4.38769
601.506	4.67275
603.242	5.32566
604.974	5.4656
606.709	5.33865
608.443	5.89167
610.177	5.84355
611.908	5.77562
613.642	5.84753
615.374	6.21654
617.105	7.18723
618.837	6.31614
620.569	7.25762
622.3	7.4634
624.03	7.26378
625.761	7.72217
627.491	9.08945
629.219	9.78566
630.949	10.5621
632.677	11.1268
634.406	12.5042
636.135	13.3457
637.861	13.2266
639.59	13.7068
641.318	15.0875
643.043	16.0826
644.77	16.6763
646.495	16.9931
648.222	15.8361
649.948	15.8464
651.672	16.4329
653.398	16.9985
655.121	16.7817
656.846	15.532
658.569	16.1499
660.293	15.9305
662.015	15.4428
663.738	16.2171
665.46	16.7438
667.183	16.7493
668.903	17.8662
670.626	16.9329
672.346	16.3153
674.067	16.8662
675.787	16.7787
677.508	16.3819
679.226	16.1719
680.947	17.4686
682.665	18.4616
684.385	19.8105
686.102	21.8537
687.821	23.4044
689.538	24.6567
691.254	24.6105
692.972	25.7155
694.688	26.8617
696.406	27.2189
698.121	28.4344
699.835	29.0322
701.552	29.929
703.266	30.9462
704.98	30.2728
706.695	32.316
708.409	33.8347
710.121	35.3551
711.836	37.5537
713.548	38.8404
715.26	40.1431
716.973	41.4951
718.685	42.5715
720.396	44.7001
722.108	45.7837
723.818	47.5908
725.528	48.3581
727.238	50.0582
728.949	50.9314
730.658	50.8381
732.367	51.73
734.075	51.899
735.785	53.6509
737.493	54.8033
739.2	55.1547
740.907	55.6386
742.614	55.7315
744.322	56.8893
746.028	58.5078
747.734	59.8611
749.439	61.1268
751.144	61.4912
752.849	62.0794
754.555	62.5464
756.26	63.1368
757.963	63.1892
759.667	63.8426
761.37	64.8454
763.073	64.9541
764.775	66.5517
766.477	68.1338
768.179	67.7509
769.883	68.0564
771.584	69.0455
773.285	69.3564
774.986	70.5913
776.686	70.3598
778.386	71.4166
780.085	72.2595
781.785	73.1746
783.484	74.6303
785.182	76.3421
786.881	77.6716
788.579	77.8892
790.276	78.7362
791.974	80.6106
793.671	82.1648
795.367	83.5665
797.064	84.7305
798.76	85.5189
800.456	86.8293
802.151	86.9022
803.846	88.7839
805.541	89.6676
807.234	89.927
808.928	90.4644
810.622	89.8582
812.315	90.4774
814.008	90.4979
815.701	90.2025
817.394	90.3925
819.086	90.0593
820.778	90.5127
822.468	90.28
824.159	89.8748
825.85	89.7427
827.541	88.8199
829.231	88.7229
830.921	89.23
832.609	88.474
834.298	87.5056
835.987	86.4886
837.676	85.1553
839.364	84.5583
841.051	84.1066
842.738	82.6517
844.426	81.1989
846.113	80.4295
847.798	78.9262
849.484	78.7015
851.171	77.6226
852.857	75.7875
854.54	75.5835
856.226	74.6985
857.911	73.3908
859.593	72.9426
861.278	71.4294
862.961	71.4104
864.645	70.5388
866.327	70.1366
868.01	69.3081
869.692	69.0203
871.373	67.2695
873.055	65.9933
874.735	65.9789
876.416	65.657
878.097	65.4867
879.776	65.1477
881.457	64.0868
883.135	63.2254
884.815	62.8876
886.495	61.714
888.172	61.5447
889.851	60.1088
891.528	60.4443
893.206	59.557
894.882	59.5618
896.56	59.4896
898.237	58.8907
899.912	57.8044
901.589	57.6963
903.263	57.5926
904.94	57.6281
906.614	56.7016
908.289	55.5044
909.962	54.741
911.635	54.8258
913.31	55.195
914.982	55.2572
916.656	54.3935
918.328	53.4294
920.001	52.3629
921.672	53.0171
923.345	53.3043
925.015	52.9412
926.685	51.2616
928.357	50.4474
930.026	49.6505
931.698	48.2957
933.366	47.5807
935.035	47.2772
936.705	47.1175
938.373	46.7117
940.041	45.5876
941.71	45.1145
943.377	44.9117
945.044	43.6701
946.712	43.1431
948.378	43.7094
950.044	43.5058
951.709	43.21
953.376	43.0765
955.041	42.8541
956.706	43.5988
958.372	43.2172
960.036	42.9364
961.699	41.6054
963.362	40.6619
965.027	40.8065
966.69	40.9115
968.352	40.8444
970.014	41.1985
971.676	41.5397
973.339	41.6709
975	42.971
976.661	43.027
978.322	44.2838
979.982	44.7607
981.642	45.4396
983.303	46.2516
984.962	47.1626
986.621	46.8048
988.28	46.6958
989.938	46.6974
991.596	46.7242
993.254	46.6248
994.911	47.8533
996.57	46.8883
998.227	46.873
999.884	46.8702
1001.54	47.9857
1003.2	48.7789
1004.85	49.1977
1006.51	49.217
1008.16	48.9097
1009.82	48.8943
1011.47	48.6466
1013.12	48.5415
1014.78	47.9848
1016.43	48.7268
1018.08	48.7307
1019.74	48.2604
1021.39	48.1959
1023.04	48.5476
1024.69	48.5982
1026.34	48.1317
1028	48.1024
1029.65	48.6838
1031.3	49.1625
1032.95	47.8861
1034.6	47.4545
1036.25	47.2017
1037.9	46.7988
1039.54	45.6422
1041.19	44.6129
1042.84	44.412
1044.49	43.7558
1046.14	43.3749
1047.78	43.6284
1049.43	42.5917
1051.08	42.0176
1052.72	41.8866
1054.37	40.6728
1056.02	40.7927
1057.66	41.3406
1059.31	40.3528
1060.95	39.7303
1062.6	38.7743
1064.24	36.8636
1065.88	35.7894
1067.53	34.6339
1069.17	32.7291
1070.81	32.2829
1072.45	31.6255
1074.1	30.5026
1075.74	30.7238
1077.38	30.6616
1079.02	30.4005
1080.66	31.1504
1082.3	31.0839
1083.94	29.8328
1085.58	28.8993
1087.22	27.9491
1088.86	28.3164
1090.5	28.2066
1092.14	27.6661
1093.78	26.7982
1095.42	26.679
1097.05	25.8102
1098.69	25.4083
1100.33	25.4305
1101.96	25.6525
1103.6	26.6426
1105.24	26.5153
1106.87	25.089
1108.51	25.0054
1110.14	24.4887
1111.78	24.191
1113.41	24.1886
1115.05	23.8123
1116.68	23.0549
1118.31	23.0892
1119.95	22.2545
1121.58	20.9859
1123.21	20.0837
1124.85	19.249
1126.48	18.7099
1128.11	17.7202
1129.74	17.6927
1131.37	17.5058
1133	17.1849
1134.63	17.0686
1136.26	17.1783
1137.89	16.3389
1139.52	15.3583
1141.15	14.2037
1142.78	12.4844
1144.41	11.7481
1146.04	11.5016
1147.66	11.1187
1149.29	10.0562
1150.92	9.77079
1152.55	9.86868
1154.17	9.51129
1155.8	9.30887
1157.43	9.22604
1159.05	8.48786
1160.68	9.11974
1162.3	8.92014
1163.93	8.82034
1165.55	7.74688
1167.17	9.13219
1168.8	9.68216
1170.42	10.8995
1172.05	11.7122
1173.67	11.5472
1175.29	12.0752
1176.91	12.0609
1178.54	12.7764
1180.16	13.8016
1181.78	15.0914
1183.4	15.5781
1185.02	16.2863
1186.64	16.3104
1188.26	16.5344
1189.88	17.5468
1191.5	16.884
1193.12	18.164
1194.74	18.9144
1196.36	19.6661
1197.97	20.1094
1199.59	21.5821
1201.21	22.9144
1202.83	23.6592
1204.44	25.2841
1206.06	27.2883
1207.68	28.8691
1209.29	30.197
1210.91	31.8563
1212.52	32.7011
1214.14	33.8192
1215.75	34.6324
1217.37	35.3982
1218.98	36.1285
1220.59	37.942
1222.21	38.6339
1223.82	39.8355
1225.43	42.1098
1227.05	43.8828
1228.66	46.148
1230.27	48.0744
1231.88	51.2581
1233.49	52.92
1235.1	53.97
1236.72	55.0099
1238.33	56.4452
1239.94	58.7247
1241.55	61.2401
1243.16	62.6508
1244.76	64.2502
1246.37	64.6909
1247.98	67.1594
1249.59	68.1499
1251.2	70.2074
1252.8	71.2416
1254.41	72.0154
1256.02	74.048
1257.62	75.6578
1259.23	76.651
1260.84	77.5401
1262.44	78.1892
1264.05	78.5269
1265.66	79.5648
1267.26	80.1381
1268.86	79.8138
1270.47	79.2509
1272.07	78.8703
1273.67	80.3117
1275.28	80.7217
1276.88	81.4773
1278.48	80.7778
1280.09	82.0834
1281.69	82.7714
1283.29	82.436
1284.89	82.7995
1286.49	83.2805
1288.09	83.6054
1289.69	83.624
1291.29	83.0839
1292.89	83.01
1294.49	83.8986
1296.09	84.4916
1297.69	85.1351
1299.29	85.6763
1300.89	85.2354
1302.49	84.7139
1304.08	85.5322
1305.68	85.9716
1307.28	86.1724
1308.88	87.4893
1310.47	86.2064
1312.07	86.7041
1313.66	85.9891
1315.26	85.5169
1316.85	85.5687
1318.45	86.5325
1320.04	86.6379
1321.64	86.5646
1323.23	86.4022
1324.83	86.4069
1326.42	85.4043
1328.01	85.0002
1329.61	84.2404
1331.2	83.6548
1332.79	82.6143
1334.38	81.895
1335.97	80.8947
1337.56	79.1019
1339.16	77.7543
1340.75	76.9908
1342.34	75.3794
1343.93	73.4306
1345.52	71.5126
1347.11	69.0949
1348.7	66.7512
1350.29	65.2278
1351.87	64.5119
1353.46	64.0542
1355.05	61.7745
1356.64	60.133
1358.22	58.2304
1359.81	57.441
1361.4	55.9039
1362.98	53.9345
1364.57	52.3792
1366.16	50.7307
1367.74	49.5018
1369.33	48.4096
1370.91	47.1276
1372.5	46.8899
1374.08	46.1406
1375.67	45.6365
1377.25	44.4192
1378.83	44.1178
1380.41	43.7791
1382	43.7829
1383.58	44.3852
1385.16	44.0589
1386.74	44.4428
1388.33	45.0403
1389.91	44.3556
1391.49	44.6165
1393.07	44.0995
1394.65	43.775
1396.23	43.4532
1397.81	44.9589
1399.39	44.886
1400.97	46.1325
1402.55	46.0574
1404.13	45.5345
1405.7	45.0482
1407.28	44.9995
1408.86	45.133
1410.44	46.1
1412.01	47.2864
1413.59	48.7766
1415.17	49.7244
1416.74	50.9078
1418.32	52.4664
1419.89	53.6899
1421.47	54.2341
1423.04	55.867
1424.62	56.7996
1426.19	59.7439
1427.77	62.3088
1429.34	65.0944
1430.91	67.3759
1432.49	69.2899
1434.06	70.9586
1435.63	72.8669
1437.2	74.9636
1438.78	77.2659
1440.35	78.9546
1441.92	79.9815
1443.49	81.2258
1445.06	81.383
1446.63	82.2755
1448.2	82.6175
1449.77	82.8878
1451.34	82.9975
1452.91	82.8592
1454.48	82.0701
1456.05	81.1234
1457.62	80.256
1459.18	78.2741
1460.75	76.5131
1462.32	74.6165
1463.89	71.733
1465.45	69.3538
1467.02	66.3893
1468.59	63.1971
1470.15	59.8052
1471.72	56.7306
1473.28	54.4719
1474.85	51.4622
1476.41	49.047
1477.98	44.8425
1479.54	41.7318
1481.1	37.5844
1482.67	34.505
1484.23	31.5097
1485.79	29.9
1487.36	29.0208
1488.92	27.9424
1490.48	24.8357
1492.04	23.244
1493.61	20.7229
1495.17	20.2275
1496.73	19.6745
1498.29	18.7949
1499.85	17.5341
1501.41	17.9489
1502.97	17.2065
1504.53	17.6766
1506.09	17.414
1507.65	17.2986
1509.2	17.3667
1510.76	17.2549
1512.32	17.733
1513.88	17.2769
1515.43	17.866
1516.99	17.5658
1518.55	18.1422
1520.1	18.026
1521.66	19.0488
1523.22	18.928
1524.77	19.7972
1526.33	19.8062
1527.88	20.3417
1529.44	20.5723
1530.99	21.6004
1532.54	20.8529
1534.1	22.367
1535.65	23.6431
1537.21	24.6436
1538.76	26.2988
1540.31	27.7624
1541.86	29.369
1543.42	31.0743
1544.97	32.6805
1546.52	34.7293
1548.07	36.5231
1549.62	38.2675
1551.17	41.0885
1552.72	42.6395
1554.27	45.0317
1555.82	47.6635
1557.37	50.2387
1558.92	52.5948
1560.47	55.409
1562.02	58.0544
1563.56	60.819
1565.11	62.3571
1566.66	62.6854
1568.21	63.1357
1569.75	64.7093
1571.3	65.8142
1572.85	67.3515
1574.39	67.7957
1575.94	69.3209
1577.49	70.5599
1579.03	72.3277
1580.57	72.0902
1582.12	73.0087
1583.66	74.0234
1585.21	74.5533
1586.75	73.9739
1588.3	73.9908
1589.84	74.5571
1591.38	74.7129
1592.92	74.9092
1594.47	75.2688
1596.01	75.7391
1597.55	75.1051
1599.09	75.0759
1600.63	74.1824
1602.17	72.8956
1603.71	72.3091
1605.25	72.2136
1606.79	71.6538
1608.33	71.672
1609.87	70.774
1611.41	71.9715
1612.95	71.5727
1614.49	71.6109
1616.03	71.9248
1617.57	72.3441
1619.1	71.9106
1620.64	72.8293
1622.18	73.815
1623.72	74.8272
1625.25	75.6565
1626.79	76.5796
1628.32	78.5725
1629.86	79.7217
1631.39	81.9129
1632.93	83.3672
1634.46	84.4724
1636	86.4038
1637.53	87.8112
1639.07	88.489
1640.6	89.8514
1642.13	91.5245
1643.67	92.6625
1645.2	93.8541
1646.73	95.3087
1648.26	96.4884
1649.8	97.5325
1651.33	99.2967
1652.86	100.236
1654.39	100.887
1655.92	101.295
1657.45	101.174
1658.98	101.981
1660.51	101.706
1662.04	101.078
1663.57	100.054
1665.1	99.3225
1666.63	98.7487
1668.16	97.737
1669.68	95.5599
1671.21	93.4223
1672.74	90.6812
1674.27	88.3357
1675.79	85.5559
1677.32	82.6265
1678.85	78.1902
1680.37	75.4689
1681.9	71.8229
1683.42	68.4963
1684.95	64.729
1686.47	60.149
1688	57.4252
1689.52	53.0452
1691.05	49.5401
1692.57	45.8104
1694.09	43.2044
1695.62	39.6859
1697.14	37.0548
1698.66	33.3627
1700.18	30.3862
1701.71	27.4496
1703.23	25.5005
1704.75	23.7537
1706.27	21.4125
1707.79	19.5799
1709.31	17.1155
1710.83	15.3187
1712.35	13.6913
1713.87	12.1014
1715.39	12.2754
1716.91	12.1937
1718.43	11.3633
1719.95	9.86072
1721.47	9.04502
1722.99	8.67613
1724.5	8.54422
1726.02	8.7167
1727.54	8.91867
1729.06	9.18182
1730.57	9.43684
1732.09	9.44585
1733.61	9.84966
1735.12	9.52521
1736.64	9.59826
1738.15	10.0072
1739.67	10.2043
1741.18	9.91999
1742.7	10.7898
1744.21	10.564
1745.72	10.3922
1747.24	10.1313
1748.75	10.0507
1750.26	9.98309
1751.77	9.79454
1753.29	8.98633
1754.8	8.35285
1756.31	8.51945
1757.82	8.15495
1759.33	7.64056
1760.84	6.65531
1762.36	6.34149
1763.87	6.48224
1765.38	5.40148
1766.89	5.4327
1768.4	5.03121
1769.91	5.0878
1771.41	4.13979
1772.92	3.59943
1774.43	3.37199
1775.94	3.275
1777.45	2.87199
1778.95	2.91877
1780.46	2.22943
1781.97	1.52085
1783.48	0.963024
1784.98	0.525163
1786.49	0.437375
1787.99	0.83114
1789.5	0.954593
1791.01	1.75577
1792.51	0.89272
1794.01	0.611928
1795.52	0.931612
1797.02	1.10876
1798.53	0.986279
1800.03	0.635013
1801.53	0.292055
1803.04	0.631235
1804.54	1.08934
1806.04	1.19093
1807.54	1.73069
1809.05	2.31396
1810.55	2.39812
1812.05	2.7923
1813.55	2.64771
1815.05	2.33761
1816.55	1.96511
1818.05	2.5177
1819.55	2.04443
1821.05	2.13813
1822.55	1.96227
1824.05	2.29843
1825.55	2.18089
1827.05	2.59578
1828.55	2.04698
1830.04	2.01089
1831.54	2.24702
1833.04	1.91847
1834.54	1.66842
1836.03	1.97595
1837.53	2.24091
1839.03	1.67172
1840.52	1.77076
1842.02	1.64879
1843.51	1.6937
1845.01	2.05355
1846.5	1.66461
1848	1.35346
1849.49	1.7515
1850.99	2.1327
1852.48	1.53554
1853.97	1.2968
1855.47	0.953091
1856.96	1.05947
1858.45	1.21204
1859.94	1.78371
1861.44	1.84684
1862.93	2.00805
1864.42	1.4741
1865.91	1.91253
1867.4	1.37125
1868.89	2.00942
1870.38	2.37575
1871.87	1.8101
1873.36	2.41938
1874.85	3.00165
1876.34	3.87176
1877.83	4.56171
1879.32	4.74491
1880.81	4.93963
1882.3	5.32971
1882.57	5.13314
1884.07	5.26695
1885.56	5.0715
1887.06	5.21999
1888.55	4.82789
1890.04	5.06719
1891.54	5.06615
1893.03	4.92894
1894.52	4.85196
1896.02	4.46278
1897.51	4.92231
1899	4.68237
1900.49	4.63732
1901.98	3.57424
1903.47	3.3987
1904.96	3.42834
1906.45	3.81839
1907.94	4.15871
1909.43	3.53741
1910.92	2.61096
1912.41	2.62362
1913.9	2.86206
1915.39	2.87492
1916.88	2.80148
1918.37	2.76443
1919.85	2.63587
1921.34	2.1188
1922.83	2.5036
1924.32	2.04311
1925.8	1.34355
1927.29	1.38422
1928.78	1.48778
1930.26	2.61545
1931.75	2.81969
1933.23	2.86704
1934.72	1.88101
1936.2	1.45675
1937.69	0.849454
1939.17	1.70656
1940.66	1.98597
1942.14	2.75981
1943.63	2.03029
1945.11	2.32823
1946.59	3.15835
1948.07	2.77764
1949.56	2.21037
1951.04	1.89613
1952.52	1.66714
1954	2.29588
1955.48	2.66697
1956.96	2.00865
1958.45	1.65262
1959.93	1.24084
1961.41	0.532402
1962.89	0.621413
1964.37	0.507019
1965.85	0.363432
1967.32	0.464802
1968.8	0.648235
1970.28	1.2591
1971.76	2.47291
1973.24	2.10834
1974.72	2.00721
1976.19	1.81908
1977.67	2.62425
1979.15	2.59978
1980.63	2.96579
1982.1	2.39439
1983.58	1.79245
1985.05	2.09184
1986.53	2.69735
1988	2.74588
1989.48	3.79751
1990.95	4.39861
1992.43	5.13745
1993.9	5.16074
1995.38	5.09275
1996.85	5.76643
1998.32	6.36881
1999.8	6.44742
2001.27	6.9962
2002.74	7.26445
2004.22	7.91672
2005.69	7.6259
2007.16	7.03384
2008.63	7.26207
2010.1	7.16051
2011.57	7.27636
2013.04	8.07975
2014.51	7.56902
2015.98	7.19872
2017.45	6.79093
2018.92	7.69724
2020.39	6.98759
2021.86	6.48746
2023.33	6.00306
2024.8	6.06716
2026.27	5.97391
2027.74	5.91976
2029.2	5.39733
2030.67	5.21086
2032.14	4.83968
2033.61	5.98629
2035.07	6.4391
2036.54	7.56003
2038.01	7.40249
2039.47	8.42265
2040.94	8.51254
2042.4	9.71014
2043.87	9.42918
2045.33	9.87924
2046.8	10.1249
2048.26	10.5124
2049.72	11.2672
2051.19	11.166
2052.65	10.9903
2054.12	11.6916
2055.58	11.8677
2057.04	12.092
2058.5	12.8107
2059.97	13.487
2061.43	14.1157
2062.89	14.4034
2064.35	14.3547
2065.81	14.4291
2067.27	14.4035
2068.73	15.1277
2070.19	15.8906
2071.65	17.0257
2073.11	17.139
2074.57	17.9968
2076.03	18.9557
2077.49	19.7777
2078.95	20.3179
2080.41	20.3082
2081.87	21.3957
2083.32	21.3118
2084.78	22.1534
2086.24	23.037
2087.7	22.5146
2089.15	23.5949
2090.61	23.9865
2092.07	24.2218
2093.52	24.1222
2094.98	24.9413
2096.43	25.4845
2097.89	26.4107
2099.34	27.5186
2100.8	28.7882
2102.25	30.39
2103.71	31.4923
2105.16	33.1206
2106.61	34.7814
2108.07	35.2085
2109.52	36.1323
2110.97	37.156
2112.43	38.5602
2113.88	39.4814
2115.33	40.9662
2116.78	42.0812
2118.23	44.4626
2119.68	46.1854
2121.13	47.1223
2122.59	48.9977
2124.04	50.5303
2125.49	52.5864
2126.94	54.9201
2128.39	57.1648
2129.83	59.2652
2131.28	61.5508
2132.73	63.3743
2134.18	65.3308
