#Acq. time (s)=	45
#Accumulations=	2
#Range (cm-¹)=	200...3150
#Windows=	2
#Auto scanning=	Off
#Autofocus=	Off
#Macrospot=	Off
#AutoExposure=	Off
#Spike filter=	Multiple accum.
#Delay time (s)=	0
#Binning=	1
#Readout mode=	Signal
#DeNoise=	Off
#ICS correction=	On
#Dark correction=	Off
#Inst. Process=	Off
#Detector Gain=	Best Dynamic Range
#Detector ADC=	20 kHz       
#Detector temperature (°C)=	-69.85
#Instrument=	LabRAM HR Evol
#Detector=	Synapse
#Objective=	x100
#Grating=	600 gr/mm
#ND Filter=	100%
#Laser (nm)=	532 
#Hole=	100.021
#Range=	Auto
#Laser Pol.=	No
#Raman. Pol.=	No
#Laser Pol. (°)=	-0.0007625
#Raman Pol. (°)=	89.9995
#Collection=	Microscope
#StageXY=	Marzhauser
#StageZ=	Marzhauser
#X (µm)=	1956.2
#Y (µm)=	-46.2
#Z (µm)=	425.15
#Full time(mm:ss)=	3:18
#Project=	
#Sample=	
#Site=	
#Title=	Thy_40_11_23_2x_45s_532 nm_x100_100%_600 gr_mm
#Remark=	
#Date=	05.07.2022 11:29
#Acquired=	05.07.2022 11:29:56
#Base:Fit=	10.08.2022 10:01:35
#Base:Sub=	10.08.2022 10:01:52
#Filter:Polynom=	16.08.2022 10:21:53
#AxisType[0]=Intens
#AxisUnit[0]=Cnt
#AxisType[1]=Spectr
#AxisUnit[1]=1/cm
200.43	3.22802
202.244	3.81533
204.059	3.79794
205.873	3.75055
207.688	4.00281
209.501	3.8747
211.314	3.52739
213.127	3.4411
214.941	2.68783
216.753	4.0287
218.564	3.73532
220.375	2.82037
222.186	2.0165
223.999	1.79037
225.809	1.50411
227.618	1.73661
229.428	1.90769
231.236	1.3584
233.045	0.757869
234.855	0.921194
236.663	1.09077
238.471	0.8296
240.278	0.269468
242.085	-0.503438
243.891	-0.312311
245.698	-0.621118
247.503	0.298309
249.309	0.396626
251.116	0.117607
252.921	1.10858
254.725	0.788478
256.529	0.350921
258.333	0.293382
260.136	0.552065
261.939	0.76044
263.742	0.865478
265.544	1.06706
267.346	1.95376
269.148	2.83145
270.949	2.10671
272.75	1.94128
274.55	2.16423
276.351	2.07587
278.15	2.65418
279.95	3.51501
281.749	3.87794
283.548	3.95043
285.346	4.34648
287.144	3.98913
288.942	4.75402
290.739	6.03613
292.536	5.51657
294.333	5.88404
296.129	5.94683
297.925	6.40887
299.721	6.47205
301.514	6.96021
303.309	7.63547
305.104	8.26724
306.898	8.93642
308.692	7.92283
310.486	8.24316
312.279	8.39586
314.072	8.80966
315.862	9.20804
317.654	9.83998
319.446	10.2491
321.238	10.256
323.029	10.5051
324.819	11.4253
326.608	11.8909
328.398	12.2405
330.188	12.1352
331.977	12.7915
333.766	13.3871
335.553	13.5419
337.341	14.617
339.129	14.3216
340.917	14.1533
342.704	14.8013
344.489	15.5229
346.275	15.8726
348.062	15.9786
349.845	15.5105
351.631	15.0303
353.416	15.0577
355.201	14.3845
356.984	14.0418
358.768	13.822
360.552	12.6433
362.333	12.8257
364.116	13.2325
365.899	13.3118
367.68	13.652
369.462	12.6114
371.243	11.1757
373.023	10.4347
374.804	9.7698
376.585	9.22962
378.363	8.95627
380.143	8.69795
381.923	7.68059
383.7	7.90582
385.479	7.47342
387.256	7.74554
389.034	7.21805
390.812	6.76999
392.588	6.22952
394.365	5.67852
396.14	5.31595
397.916	5.75481
399.691	6.07577
401.467	5.50406
403.24	5.9567
405.015	6.62246
406.788	7.40785
408.563	7.46915
410.335	8.02064
412.109	8.16547
413.88	9.73284
415.654	10.3875
417.424	10.2025
419.197	10.4788
420.967	11.1207
422.739	11.1774
424.508	12.1542
426.279	12.6382
428.048	12.8377
429.819	13.5843
431.587	15.0443
433.356	16.3107
435.124	15.7705
436.891	16.118
438.66	15.9087
440.426	16.3338
442.194	16.4193
443.96	16.1563
445.725	18.0274
447.492	18.6746
449.257	18.9109
451.021	19.6236
452.787	20.6453
454.551	20.4403
456.314	20.7417
458.079	20.9068
459.842	21.3621
461.604	22.0577
463.368	23.2834
465.13	24.2039
466.891	25.2242
468.654	25.307
470.415	26.3083
472.175	26.3631
473.935	26.3074
475.696	25.8638
477.456	25.904
479.215	25.2116
480.973	25.6564
482.733	26.0071
484.491	26.9202
486.249	26.7331
488.006	26.2514
489.765	26.4648
491.522	26.9115
493.278	26.8234
495.034	26.576
496.789	25.7208
498.544	25.9771
500.301	26.443
502.056	27.1441
503.81	26.6129
505.564	25.8929
507.317	25.7924
509.071	25.3814
510.825	25.5035
512.578	24.6422
514.33	24.111
516.082	24.0961
517.833	23.5347
519.585	22.7768
521.335	21.8536
523.086	21.1312
524.836	20.8421
526.586	20.0169
528.335	20.3196
530.085	20.0722
531.835	20.7161
533.584	20.7449
535.332	19.996
537.08	20.5915
538.827	21.0875
540.574	21.232
542.321	21.2164
544.068	21.7655
545.814	21.5574
547.56	21.0583
549.305	21.6435
551.05	23.1189
552.795	21.9787
554.54	21.8398
556.282	21.4196
558.025	21.4928
559.769	19.8911
561.512	18.5487
563.255	17.2239
564.997	17.9342
566.739	17.2385
568.481	16.4587
570.223	16.1407
571.964	15.573
573.705	14.4429
575.443	13.8616
577.183	13.9874
578.923	12.125
580.663	11.5075
582.402	11.4575
584.141	10.8801
585.879	11.2843
587.615	11.6276
589.353	10.0667
591.09	8.8105
592.828	7.60957
594.564	7.42753
596.299	6.9602
598.035	6.02397
599.771	4.84607
601.506	4.40506
603.242	4.04337
604.974	4.52807
606.709	4.57158
608.443	5.07947
610.177	6.23096
611.908	6.5251
613.642	7.23374
615.374	7.31689
617.105	6.89709
618.837	7.23491
620.569	7.7619
622.3	7.92307
624.03	8.43396
625.761	8.58509
627.491	8.77383
629.219	9.60025
630.949	10.0906
632.677	10.5202
634.406	10.582
636.135	11.3719
637.861	11.6724
639.59	11.7783
641.318	13.0219
643.043	13.183
644.77	13.3298
646.495	13.6501
648.222	13.1589
649.948	14.067
651.672	14.689
653.398	14.3526
655.121	14.6789
656.846	15.1157
658.569	14.7783
660.293	15.0431
662.015	14.9053
663.738	15.3794
665.46	15.2676
667.183	17.0271
668.903	18.1347
670.626	17.9531
672.346	19.3277
674.067	19.5569
675.787	19.3297
677.508	19.8074
679.226	21.3753
680.947	22.4695
682.665	22.9397
684.385	22.9056
686.102	23.8764
687.821	24.6908
689.538	26.2898
691.254	27.3558
692.972	27.879
694.688	29.3045
696.406	30.8585
698.121	30.5677
699.835	30.0992
701.552	30.819
703.266	31.1547
704.98	32.3019
706.695	33.7613
708.409	33.8098
710.121	34.9397
711.836	37.2467
713.548	37.8387
715.26	39.3954
716.973	40.0257
718.685	41.0016
720.396	41.6413
722.108	43.1849
723.818	44.6875
725.528	46.1019
727.238	46.1016
728.949	46.3163
730.658	46.8246
732.367	47.5868
734.075	47.8409
735.785	49.7302
737.493	50.682
739.2	51.4778
740.907	52.0214
742.614	52.6768
744.322	53.313
746.028	54.4224
747.734	55.1644
749.439	56.712
751.144	57.9803
752.849	58.9055
754.555	59.4358
756.26	59.8372
757.963	60.4771
759.667	60.2831
761.37	60.7895
763.073	61.1017
764.775	61.8028
766.477	62.3971
768.179	63.2835
769.883	63.4299
771.584	64.6181
773.285	66.2721
774.986	67.5597
776.686	68.9857
778.386	70.9567
780.085	72.1451
781.785	73.0223
783.484	72.6909
785.182	74.0879
786.881	76.3423
788.579	76.8336
790.276	77.5225
791.974	78.1871
793.671	78.7128
795.367	79.8403
797.064	80.7572
798.76	80.7568
800.456	81.8556
802.151	82.7996
803.846	83.7364
805.541	84.4691
807.234	85.9656
808.928	86.076
810.622	85.973
812.315	85.6864
814.008	86.9897
815.701	88.4691
817.394	89.7837
819.086	89.7079
820.778	90.3864
822.468	89.8729
824.159	89.1532
825.85	89.4933
827.541	89.889
829.231	88.407
830.921	88.2911
832.609	87.2829
834.298	86.7583
835.987	85.547
837.676	84.1452
839.364	82.9562
841.051	82.2963
842.738	81.0665
844.426	80.0116
846.113	78.0331
847.798	77.0515
849.484	76.173
851.171	75.6075
852.857	73.7676
854.54	71.7535
856.226	71.721
857.911	71.9173
859.593	70.7426
861.278	69.8021
862.961	68.2921
864.645	66.6278
866.327	65.2038
868.01	63.4228
869.692	62.4425
871.373	60.6083
873.055	58.9369
874.735	57.041
876.416	56.2623
878.097	55.1838
879.776	52.9686
881.457	52.2142
883.135	52.0255
884.815	52.199
886.495	51.5666
888.172	50.3368
889.851	50.0663
891.528	50.0667
893.206	47.9813
894.882	47.8316
896.56	47.5412
898.237	48.1551
899.912	47.9917
901.589	46.8131
903.263	46.4446
904.94	46.8884
906.614	45.9696
908.289	45.793
909.962	46.7044
911.635	46.2773
913.31	46.1002
914.982	46.0328
916.656	46.1804
918.328	46.3285
920.001	46.5697
921.672	45.9695
923.345	46.512
925.015	46.7891
926.685	46.1976
928.357	45.2695
930.026	44.6053
931.698	46.2017
933.366	45.9708
935.035	45.9715
936.705	46.3961
938.373	47.0306
940.041	47.8573
941.71	46.9672
943.377	45.8008
945.044	45.382
946.712	44.7156
948.378	44.6336
950.044	44.6377
951.709	43.4063
953.376	43.3501
955.041	42.4815
956.706	42.1782
958.372	41.228
960.036	41.2678
961.699	40.4506
963.362	40.0392
965.027	40.2141
966.69	39.8088
968.352	39.8601
970.014	39.3569
971.676	39.0196
973.339	38.9164
975	38.3721
976.661	36.7788
978.322	36.994
979.982	36.2616
981.642	36.228
983.303	36.0486
984.962	35.4281
986.621	36.6034
988.28	35.5157
989.938	35.2382
991.596	35.855
993.254	36.6506
994.911	36.4504
996.57	36.2304
998.227	35.0499
999.884	35.1247
1001.54	34.5696
1003.2	34.3081
1004.85	34.1774
1006.51	35.196
1008.16	35.0314
1009.82	34.3435
1011.47	34.6353
1013.12	35.0953
1014.78	35.6582
1016.43	34.8801
1018.08	34.9603
1019.74	34.9311
1021.39	34.7511
1023.04	33.8541
1024.69	33.1385
1026.34	33.4586
1028	34.4363
1029.65	34.5961
1031.3	35.2144
1032.95	35.8885
1034.6	35.3588
1036.25	36.2437
1037.9	34.5874
1039.54	34.1726
1041.19	33.1798
1042.84	31.8439
1044.49	31.2915
1046.14	31.2726
1047.78	31.3467
1049.43	31.7039
1051.08	31.6624
1052.72	31.185
1054.37	30.2627
1056.02	29.8485
1057.66	29.736
1059.31	29.5265
1060.95	29.4624
1062.6	29.2033
1064.24	28.7532
1065.88	29.4822
1067.53	29.0974
1069.17	29.5664
1070.81	28.766
1072.45	29.3296
1074.1	29.5689
1075.74	29.3844
1077.38	28.6462
1079.02	27.5065
1080.66	27.8031
1082.3	28.331
1083.94	28.3201
1085.58	29.447
1087.22	30.6335
1088.86	30.3751
1090.5	30.0575
1092.14	29.286
1093.78	29.9084
1095.42	29.4335
1097.05	29.6386
1098.69	29.5726
1100.33	29.3916
1101.96	29.1643
1103.6	29.6198
1105.24	28.8697
1106.87	28.9161
1108.51	28.5641
1110.14	28.2077
1111.78	27.2127
1113.41	25.8745
1115.05	24.8948
1116.68	23.8882
1118.31	22.7875
1119.95	20.7089
1121.58	20.7282
1123.21	19.5497
1124.85	18.809
1126.48	18.5472
1128.11	18.1742
1129.74	17.6297
1131.37	16.0277
1133	15.5116
1134.63	15.4887
1136.26	14.6647
1137.89	14.188
1139.52	14.1668
1141.15	13.3895
1142.78	12.2668
1144.41	11.2538
1146.04	9.79428
1147.66	9.59154
1149.29	7.84835
1150.92	7.1484
1152.55	6.80542
1154.17	6.37128
1155.8	6.15908
1157.43	5.39875
1159.05	5.39232
1160.68	5.36346
1162.3	5.29035
1163.93	4.78832
1165.55	4.45247
1167.17	5.31381
1168.8	5.21377
1170.42	4.49038
1172.05	4.41356
1173.67	3.31654
1175.29	3.63123
1176.91	4.48726
1178.54	4.48407
1180.16	3.79042
1181.78	3.94766
1183.4	4.17358
1185.02	4.43414
1186.64	3.73739
1188.26	4.2665
1189.88	3.42928
1191.5	3.65791
1193.12	3.70861
1194.74	3.46113
1196.36	4.22942
1197.97	4.89193
1199.59	5.17251
1201.21	5.94006
1202.83	6.18813
1204.44	7.12689
1206.06	7.74439
1207.68	8.46848
1209.29	9.71758
1210.91	10.8228
1212.52	11.9511
1214.14	13.6237
1215.75	14.181
1217.37	15.2988
1218.98	16.2306
1220.59	17.8898
1222.21	18.0513
1223.82	18.5268
1225.43	19.5869
1227.05	21.1736
1228.66	22.581
1230.27	24.1836
1231.88	25.8375
1233.49	27.3237
1235.1	28.7684
1236.72	30.2454
1238.33	31.4103
1239.94	32.6447
1241.55	33.6605
1243.16	35.2168
1244.76	36.9098
1246.37	38.1656
1247.98	40.0074
1249.59	41.2371
1251.2	41.4197
1252.8	41.9319
1254.41	42.979
1256.02	44.829
1257.62	46.3898
1259.23	46.4955
1260.84	47.8467
1262.44	49.2257
1264.05	50.0819
1265.66	50.6222
1267.26	51.406
1268.86	52.1879
1270.47	52.0289
1272.07	53.8525
1273.67	55.2153
1275.28	55.4622
1276.88	56.2673
1278.48	57.0996
1280.09	57.5412
1281.69	58.3919
1283.29	58.8487
1284.89	60.147
1286.49	59.8356
1288.09	61.2975
1289.69	62.0222
1291.29	62.883
1292.89	63.0628
1294.49	63.7642
1296.09	64.2019
1297.69	65.4087
1299.29	65.2918
1300.89	65.7821
1302.49	66.0467
1304.08	67.3758
1305.68	68.0487
1307.28	68.2997
1308.88	68.2161
1310.47	68.8742
1312.07	69.3121
1313.66	69.5572
1315.26	69.3197
1316.85	69.325
1318.45	68.9259
1320.04	68.7698
1321.64	68.6254
1323.23	68.4196
1324.83	67.2475
1326.42	66.5851
1328.01	66.5789
1329.61	65.1371
1331.2	64.3118
1332.79	64.074
1334.38	64.0303
1335.97	63.3064
1337.56	62.2499
1339.16	60.8444
1340.75	60.5049
1342.34	59.3681
1343.93	58.1499
1345.52	56.436
1347.11	54.9828
1348.7	53.6923
1350.29	52.222
1351.87	50.9502
1353.46	48.8964
1355.05	46.915
1356.64	45.5647
1358.22	44.9964
1359.81	44.2094
1361.4	42.8858
1362.98	41.5209
1364.57	40.5946
1366.16	39.6084
1367.74	39.5728
1369.33	38.7819
1370.91	38.2546
1372.5	37.6097
1374.08	37.9942
1375.67	36.6779
1377.25	36.6802
1378.83	36.6432
1380.41	37.0331
1382	37.2114
1383.58	36.4586
1385.16	35.1448
1386.74	34.6677
1388.33	34.4991
1389.91	33.7859
1391.49	33.4717
1393.07	32.5693
1394.65	32.0286
1396.23	32.4839
1397.81	31.5047
1399.39	30.9507
1400.97	30.5918
1402.55	30.0557
1404.13	30
1405.7	30.7582
1407.28	31.1391
1408.86	29.9418
1410.44	30.5152
1412.01	30.8817
1413.59	31.9428
1415.17	32.2278
1416.74	32.9397
1418.32	33.5455
1419.89	35.044
1421.47	36.5518
1423.04	37.0392
1424.62	38.9298
1426.19	40.5216
1427.77	42.0996
1429.34	44.6007
1430.91	47.4509
1432.49	49.2119
1434.06	51.7222
1435.63	53.9172
1437.2	56.6616
1438.78	58.1151
1440.35	59.0088
1441.92	61.0038
1443.49	62.3976
1445.06	63.7359
1446.63	64.5569
1448.2	65.1757
1449.77	65.1708
1451.34	65.2511
1452.91	65.1014
1454.48	63.7753
1456.05	63.7221
1457.62	62.8349
1459.18	61.4597
1460.75	60.1544
1462.32	58.5838
1463.89	56.5527
1465.45	54.7248
1467.02	52.5418
1468.59	50.7725
1470.15	48.991
1471.72	46.6306
1473.28	44.748
1474.85	42.2455
1476.41	39.5911
1477.98	37.1501
1479.54	35.5449
1481.1	32.8252
1482.67	30.8562
1484.23	28.7379
1485.79	26.065
1487.36	22.9012
1488.92	21.8861
1490.48	20.9395
1492.04	19.0002
1493.61	17.2922
1495.17	15.9922
1496.73	15.1732
1498.29	15.0834
1499.85	14.291
1501.41	13.3632
1502.97	13.9373
1504.53	13.1718
1506.09	13.7879
1507.65	15.111
1509.2	14.7343
1510.76	15.0007
1512.32	16.1802
1513.88	16.2518
1515.43	15.8635
1516.99	15.9795
1518.55	15.7357
1520.1	17.1602
1521.66	17.5924
1523.22	17.8529
1524.77	18.6591
1526.33	19.4097
1527.88	20.1194
1529.44	20.6072
1530.99	21.2698
1532.54	22.4265
1534.1	23.4279
1535.65	24.3296
1537.21	25.3272
1538.76	26.5261
1540.31	26.9553
1541.86	27.3974
1543.42	28.4415
1544.97	29.8651
1546.52	31.1465
1548.07	31.636
1549.62	32.2929
1551.17	33.216
1552.72	33.3905
1554.27	33.5866
1555.82	34.3379
1557.37	34.5307
1558.92	33.7454
1560.47	34.4202
1562.02	34.7932
1563.56	35.1244
1565.11	35.6496
1566.66	36.7287
1568.21	37.1372
1569.75	36.5855
1571.3	37.6199
1572.85	38.4276
1574.39	39.7538
1575.94	39.742
1577.49	40.7946
1579.03	42.2299
1580.57	42.4362
1582.12	43.9349
1583.66	45.8714
1585.21	46.7179
1586.75	47.245
1588.3	48.2353
1589.84	48.2232
1591.38	48.5774
1592.92	48.5903
1594.47	50.1824
1596.01	50.8988
1597.55	52.2082
1599.09	51.0606
1600.63	51.4181
1602.17	51.9674
1603.71	52.5149
1605.25	51.8505
1606.79	51.465
1608.33	51.83
1609.87	52.0758
1611.41	51.3563
1612.95	51.4096
1614.49	51.1464
1616.03	51.0801
1617.57	50.8509
1619.1	50.7735
1620.64	51.0986
1622.18	51.7806
1623.72	51.6797
1625.25	52.3652
1626.79	52.2076
1628.32	52.9625
1629.86	53.6453
1631.39	54.3817
1632.93	56.1998
1634.46	56.4075
1636	57.2231
1637.53	58.3184
1639.07	59.3416
1640.6	60.16
1642.13	61.3275
1643.67	61.6658
1645.2	62.9255
1646.73	62.8909
1648.26	63.8346
1649.8	65.1345
1651.33	66.3596
1652.86	66.7864
1654.39	68.514
1655.92	69.0753
1657.45	68.9205
1658.98	69.8172
1660.51	69.7487
1662.04	68.6014
1663.57	68.1672
1665.1	67.2764
1666.63	65.7126
1668.16	64.966
1669.68	63.5309
1671.21	63.4416
1672.74	61.1016
1674.27	58.9196
1675.79	57.0107
1677.32	56.367
1678.85	54.3251
1680.37	52.5105
1681.9	49.4902
1683.42	47.2931
1684.95	44.9155
1686.47	42.1192
1688	39.6318
1689.52	37.6949
1691.05	36.0754
1692.57	34.3117
1694.09	33.2144
1695.62	31.2275
1697.14	29.5294
1698.66	28.1777
1700.18	26.0836
1701.71	24.4072
1703.23	22.9256
1704.75	22.0872
1706.27	20.5111
1707.79	19.0158
1709.31	17.6902
1710.83	16.12
1712.35	14.5525
1713.87	13.8788
1715.39	13.3252
1716.91	12.3349
1718.43	11.3862
1719.95	10.2956
1721.47	9.7831
1722.99	8.57549
1724.5	8.71047
1726.02	9.32607
1727.54	9.50162
1729.06	8.68891
1730.57	9.09488
1732.09	8.23123
1733.61	8.5126
1735.12	8.49267
1736.64	8.12182
1738.15	7.6471
1739.67	7.22211
1741.18	7.16442
1742.7	6.90382
1744.21	7.33786
1745.72	7.00559
1747.24	6.9251
1748.75	6.51986
1750.26	7.17099
1751.77	6.98797
1753.29	6.44034
1754.8	5.6005
1756.31	5.15642
1757.82	4.43023
1759.33	4.1679
1760.84	4.65248
1762.36	5.187
1763.87	5.27701
1765.38	5.44108
1766.89	6.00206
1768.4	5.75987
1769.91	5.77207
1771.41	4.61656
1772.92	4.59604
1774.43	4.61849
1775.94	4.81729
1777.45	4.85781
1778.95	5.05396
1780.46	4.05782
1781.97	4.18412
1783.48	4.19024
1784.98	3.84116
1786.49	3.53731
1787.99	3.08199
1789.5	2.94061
1791.01	2.15104
1792.51	2.20845
1794.01	1.71974
1795.52	2.07505
1797.02	1.96415
1798.53	1.93281
1800.03	2.1447
1801.53	2.73089
1803.04	2.77029
1804.54	2.33972
1806.04	2.93064
1807.54	2.39075
1809.05	2.46198
1810.55	1.5977
1812.05	1.44195
1813.55	1.40574
1815.05	1.08803
1816.55	1.34308
1818.05	1.03825
1819.55	1.23155
1821.05	1.02943
1822.55	1.29959
1824.05	1.64539
1825.55	1.21169
1827.05	1.39635
1828.55	1.65485
1830.04	1.27381
1831.54	1.2088
1833.04	1.73294
1834.54	2.18855
1836.03	2.14988
1837.53	1.94121
1839.03	1.7491
1840.52	1.99116
1842.02	2.07647
1843.51	1.51501
1845.01	1.01803
1846.5	0.740457
1848	1.28873
1849.49	1.1575
1850.99	1.28082
1852.48	0.337044
1853.97	0.323589
1855.47	-0.0603524
1856.96	-0.148631
1858.45	-0.246677
1859.94	-0.185623
1861.44	0.316405
1862.93	0.441756
1864.42	0.969472
1865.91	1.07324
1867.4	1.2786
1868.89	0.9041
1870.38	1.29531
1871.87	1.51318
1873.36	1.47012
1874.85	1.95357
1876.34	2.59636
1877.83	2.85358
1879.32	2.98641
1880.81	3.21706
1882.3	3.23062
1882.57	3.32622
1884.07	3.31359
1885.56	3.8097
1887.06	4.09511
1888.55	4.47109
1890.04	5.2208
1891.54	5.37958
1893.03	5.65449
1894.52	5.23994
1896.02	5.66604
1897.51	6.04156
1899	6.36554
1900.49	6.95319
1901.98	6.83516
1903.47	6.9088
1904.96	7.4113
1906.45	7.87672
1907.94	7.33125
1909.43	7.21293
1910.92	7.62137
1912.41	7.51352
1913.9	6.99808
1915.39	6.50545
1916.88	6.38985
1918.37	6.10492
1919.85	5.98132
1921.34	5.89799
1922.83	5.13074
1924.32	4.56788
1925.8	4.38003
1927.29	4.67724
1928.78	3.78997
1930.26	3.72055
1931.75	3.85312
1933.23	3.89007
1934.72	3.75341
1936.2	2.89319
1937.69	2.40909
1939.17	1.79632
1940.66	1.73261
1942.14	2.04726
1943.63	2.16049
1945.11	2.13414
1946.59	1.7578
1948.07	1.73288
1949.56	1.53221
1951.04	1.25866
1952.52	0.803811
1954	0.611063
1955.48	0.172634
1956.96	0.102505
1958.45	-0.401101
1959.93	-0.517764
1961.41	-0.370847
1962.89	0.266024
1964.37	0.201509
1965.85	0.176257
1967.32	0.981275
1968.8	1.23608
1970.28	2.16137
1971.76	2.16363
1973.24	2.4807
1974.72	2.88961
1976.19	3.18396
1977.67	3.19912
1979.15	2.71215
1980.63	2.58863
1982.1	3.09982
1983.58	3.7068
1985.05	3.91302
1986.53	3.38309
1988	3.46912
1989.48	3.12381
1990.95	3.52308
1992.43	3.46181
1993.9	3.61017
1995.38	3.91944
1996.85	4.24741
1998.32	4.69902
1999.8	5.09845
2001.27	5.03834
2002.74	4.72125
2004.22	5.09233
2005.69	5.38093
2007.16	5.28487
2008.63	5.04577
2010.1	5.03428
2011.57	5.16592
2013.04	5.67335
2014.51	6.18305
2015.98	5.94672
2017.45	5.77053
2018.92	5.11019
2020.39	5.06087
2021.86	4.24255
2023.33	4.05046
2024.8	3.47245
2026.27	2.93299
2027.74	3.09593
2029.2	3.34446
2030.67	3.68857
2032.14	3.47014
2033.61	4.48802
2035.07	5.09758
2036.54	5.67635
2038.01	5.44155
2039.47	6.26611
2040.94	6.24814
2042.4	5.7908
2043.87	6.16973
2045.33	6.49368
2046.8	7.55449
2048.26	7.99906
2049.72	8.2532
2051.19	8.78006
2052.65	9.29133
2054.12	10.0711
2055.58	11.0396
2057.04	10.9661
2058.5	11.1553
2059.97	11.1344
2061.43	11.8467
2062.89	12.0056
2064.35	13.1654
2065.81	13.6498
2067.27	14.2139
2068.73	15.1497
2070.19	15.7532
2071.65	16.3692
2073.11	16.41
2074.57	17.2788
2076.03	17.6275
2077.49	18.3133
2078.95	18.982
2080.41	19.0418
2081.87	19.4149
2083.32	19.7945
2084.78	20.3296
2086.24	20.7427
2087.7	21.0764
2089.15	20.851
2090.61	21.2726
2092.07	21.5988
2093.52	22.4165
2094.98	23.158
2096.43	23.9697
2097.89	24.4545
2099.34	25.7776
2100.8	27.3309
2102.25	28.5591
2103.71	29.3716
2105.16	30.2597
2106.61	31.7009
2108.07	32.1931
2109.52	33.7544
2110.97	35.2745
2112.43	36.9346
2113.88	37.3765
2115.33	38.7564
2116.78	40.1093
2118.23	40.7573
2119.68	42.1742
2121.13	43.2982
2122.59	44.6982
2124.04	45.8812
2125.49	47.0092
2126.94	48.2313
2128.39	49.6526
2129.83	51.1057
2131.28	52.6224
