#Acq. time (s)=	45
#Accumulations=	2
#Range (cm-¹)=	200...3150
#Windows=	2
#Auto scanning=	Off
#Autofocus=	Off
#Macrospot=	Off
#AutoExposure=	Off
#Spike filter=	Multiple accum.
#Delay time (s)=	0
#Binning=	1
#Readout mode=	Signal
#DeNoise=	Off
#ICS correction=	On
#Dark correction=	Off
#Inst. Process=	Off
#Detector Gain=	Best Dynamic Range
#Detector ADC=	20 kHz       
#Detector temperature (°C)=	-69.85
#Instrument=	LabRAM HR Evol
#Detector=	Synapse
#Objective=	x100
#Grating=	600 gr/mm
#ND Filter=	100%
#Laser (nm)=	532 
#Hole=	100.021
#Range=	Auto
#Laser Pol.=	No
#Raman. Pol.=	No
#Laser Pol. (°)=	-0.0007625
#Raman Pol. (°)=	89.9995
#Collection=	Microscope
#StageXY=	Marzhauser
#StageZ=	Marzhauser
#X (µm)=	254.5
#Y (µm)=	1691.2
#Z (µm)=	427.7
#Full time(mm:ss)=	3:18
#Project=	
#Sample=	
#Site=	
#Title=	Thy_40_11_47_2x_45s_532 nm_x100_100%_600 gr_mm
#Remark=	
#Date=	05.07.2022 13:21
#Acquired=	05.07.2022 13:21:00
#Base:Fit=	10.08.2022 10:01:35
#Base:Sub=	10.08.2022 10:01:52
#Filter:Polynom=	16.08.2022 10:21:53
#AxisType[0]=Intens
#AxisUnit[0]=Cnt
#AxisType[1]=Spectr
#AxisUnit[1]=1/cm
200.43	12.6545
202.244	12.1511
204.059	11.7488
205.873	10.4023
207.688	9.58398
209.501	8.5111
211.314	7.98809
213.127	7.38516
214.941	6.89271
216.753	6.01419
218.564	5.11462
220.375	4.72998
222.186	4.31558
223.999	4.00381
225.809	3.30438
227.618	3.2107
229.428	3.18117
231.236	2.70419
233.045	1.70336
234.855	1.8262
236.663	1.5632
238.471	1.49988
240.278	1.66298
242.085	1.92608
243.891	2.80108
245.698	3.02702
247.503	3.68037
249.309	4.49618
251.116	4.3003
252.921	3.64217
254.725	3.97273
256.529	3.33489
258.333	4.7961
260.136	4.81156
261.939	4.32029
263.742	4.9687
265.544	4.16179
267.346	3.78728
269.148	3.64302
270.949	2.98652
272.75	2.72667
274.55	3.69754
276.351	3.76214
278.15	3.4055
279.95	3.41955
281.749	4.75534
283.548	4.02535
285.346	4.46635
287.144	4.41632
288.942	5.28271
290.739	5.45562
292.536	6.05242
294.333	6.52594
296.129	7.14205
297.925	6.52154
299.721	7.25707
301.514	8.29166
303.309	7.91683
305.104	8.29139
306.898	8.33319
308.692	8.53049
310.486	8.30184
312.279	8.70876
314.072	8.81839
315.862	8.50555
317.654	8.47602
319.446	7.97846
321.238	7.57882
323.029	6.93013
324.819	8.07503
326.608	8.21941
328.398	8.87113
330.188	9.01614
331.977	9.36781
333.766	9.57348
335.553	9.33715
337.341	9.48343
339.129	8.97102
340.917	7.52115
342.704	7.29611
344.489	8.04039
346.275	7.31395
348.062	8.12776
349.845	7.9198
351.631	7.62967
353.416	7.71837
355.201	6.93001
356.984	7.55476
358.768	7.97094
360.552	7.90159
362.333	7.89882
364.116	7.6521
365.899	8.6603
367.68	8.7402
369.462	9.39063
371.243	9.67314
373.023	8.57589
374.804	9.1303
376.585	9.55423
378.363	11.0471
380.143	10.2172
381.923	10.6448
383.7	10.2205
385.479	9.78229
387.256	10.6221
389.034	11.0385
390.812	10.6786
392.588	10.4719
394.365	10.6117
396.14	9.8004
397.916	9.66883
399.691	9.27048
401.467	9.7736
403.24	9.2389
405.015	8.27728
406.788	7.63369
408.563	7.24388
410.335	7.73341
412.109	7.55113
413.88	9.02505
415.654	8.88078
417.424	8.85615
419.197	9.29709
420.967	9.87801
422.739	9.64081
424.508	9.3579
426.279	9.25801
428.048	9.18386
429.819	9.42719
431.587	9.68046
433.356	10.2515
435.124	9.26378
436.891	10.4692
438.66	9.81781
440.426	9.52236
442.194	9.4132
443.96	9.57467
445.725	10.0825
447.492	10.339
449.257	9.83807
451.021	9.77973
452.787	9.74437
454.551	9.70829
456.314	8.89368
458.079	9.38722
459.842	9.00974
461.604	9.01304
463.368	9.3954
465.13	9.73527
466.891	9.54125
468.654	9.33732
470.415	10.2636
472.175	10.1423
473.935	10.6211
475.696	11.4436
477.456	11.1458
479.215	12.7426
480.973	13.571
482.733	13.5824
484.491	13.5568
486.249	14.0477
488.006	13.9279
489.765	13.9257
491.522	13.5149
493.278	13.3309
495.034	14.012
496.789	15.1958
498.544	15.7936
500.301	16.0244
502.056	17.2575
503.81	16.9074
505.564	17.2595
507.317	17.2398
509.071	16.015
510.825	15.0865
512.578	14.8542
514.33	15.5527
516.082	15.3622
517.833	15.5699
519.585	14.3933
521.335	14.8344
523.086	14.4135
524.836	14.5124
526.586	13.9116
528.335	13.9741
530.085	13.3172
531.835	13.3697
533.584	12.1524
535.332	11.9466
537.08	10.764
538.827	10.5342
540.574	10.7749
542.321	10.6984
544.068	11.2667
545.814	11.0518
547.56	10.3427
549.305	9.84355
551.05	9.98755
552.795	10.7
554.54	10.3738
556.282	11.8475
558.025	12.1717
559.769	12.5995
561.512	12.798
563.255	12.9817
564.997	12.9188
566.739	13.644
568.481	12.7957
570.223	11.9689
571.964	11.2594
573.705	10.1852
575.443	9.64565
577.183	9.15753
578.923	9.14704
580.663	9.85995
582.402	10.3269
584.141	10.7612
585.879	10.28
587.615	10.058
589.353	9.98791
591.09	9.50192
592.828	8.97502
594.564	8.22378
596.299	8.02752
598.035	8.01729
599.771	8.05042
601.506	8.84452
603.242	8.57064
604.974	8.80007
606.709	8.01555
608.443	8.17311
610.177	8.02466
611.908	7.36905
613.642	7.39445
615.374	7.14592
617.105	7.15597
618.837	7.2925
620.569	6.39192
622.3	6.82447
624.03	6.54856
625.761	6.84893
627.491	6.8294
629.219	7.49556
630.949	7.21469
632.677	7.03713
634.406	8.68779
636.135	9.59865
637.861	10.3611
639.59	11.6311
641.318	11.5935
643.043	13.2106
644.77	13.6428
646.495	13.7054
648.222	13.67
649.948	13.5498
651.672	13.8689
653.398	15.6556
655.121	15.8457
656.846	15.8938
658.569	16.1829
660.293	17.2081
662.015	18.8432
663.738	20.4904
665.46	21.5729
667.183	22.8831
668.903	23.7718
670.626	24.7187
672.346	24.6203
674.067	24.9217
675.787	26.6865
677.508	27.0862
679.226	28.2228
680.947	29.4296
682.665	30.7167
684.385	30.8934
686.102	31.9274
687.821	34.2011
689.538	34.5481
691.254	34.6857
692.972	35.8197
694.688	37.0021
696.406	37.7998
698.121	37.0541
699.835	38.1024
701.552	37.8225
703.266	37.9624
704.98	37.9344
706.695	37.9977
708.409	39.0124
710.121	39.9188
711.836	39.8905
713.548	41.3059
715.26	42.8294
716.973	43.2242
718.685	44.0182
720.396	45.5271
722.108	46.0353
723.818	46.8685
725.528	48.2065
727.238	48.3964
728.949	49.6328
730.658	49.6046
732.367	49.7699
734.075	50.5419
735.785	51.2642
737.493	52.7604
739.2	54.3876
740.907	55.1263
742.614	55.1492
744.322	56.1448
746.028	56.7953
747.734	57.1315
749.439	56.986
751.144	57.4865
752.849	59.4048
754.555	60.3627
756.26	60.8678
757.963	61.715
759.667	63.3877
761.37	65.1967
763.073	66.3617
764.775	68.0689
766.477	69.4932
768.179	71.4874
769.883	72.1533
771.584	74.0281
773.285	75.232
774.986	75.3882
776.686	76.5716
778.386	78.6648
780.085	78.0668
781.785	77.7739
783.484	77.9997
785.182	79.5445
786.881	79.0789
788.579	79.3141
790.276	79.8724
791.974	81.2504
793.671	82.2705
795.367	82.9598
797.064	83.2823
798.76	84.4842
800.456	84.6015
802.151	84.5693
803.846	84.0345
805.541	84.0867
807.234	83.4983
808.928	82.4993
810.622	81.2067
812.315	80.9921
814.008	80.6582
815.701	80.6232
817.394	80.4832
819.086	79.3075
820.778	79.4972
822.468	79.3792
824.159	79.1937
825.85	78.1013
827.541	76.5529
829.231	76.2099
830.921	75.3711
832.609	74.7222
834.298	73.7172
835.987	75.051
837.676	75.2747
839.364	73.9566
841.051	73.8008
842.738	73.1136
844.426	73.0556
846.113	72.8803
847.798	72.3961
849.484	72.2521
851.171	71.5729
852.857	70.0363
854.54	68.838
856.226	68.1941
857.911	67.1453
859.593	67.3571
861.278	66.5089
862.961	64.5547
864.645	63.0148
866.327	62.2245
868.01	61.105
869.692	61.3298
871.373	60.4566
873.055	60.7268
874.735	60.6751
876.416	60.9518
878.097	59.7294
879.776	58.7854
881.457	57.5248
883.135	56.2435
884.815	55.083
886.495	54.1768
888.172	52.6855
889.851	51.5467
891.528	51.1233
893.206	50.5308
894.882	50.4321
896.56	51.1094
898.237	50.3597
899.912	49.5667
901.589	48.8892
903.263	48.1696
904.94	48.6858
906.614	47.8982
908.289	47.1858
909.962	46.6549
911.635	46.3635
913.31	46.0344
914.982	45.3606
916.656	44.6411
918.328	44.4014
920.001	44.6412
921.672	44.5722
923.345	44.0901
925.015	44.3914
926.685	43.2416
928.357	43.1281
930.026	42.1021
931.698	41.0178
933.366	40.6334
935.035	39.3965
936.705	39.0585
938.373	38.8597
940.041	37.8028
941.71	37.2089
943.377	37.3695
945.044	35.7196
946.712	35.2461
948.378	35.5999
950.044	34.5529
951.709	35.6439
953.376	37.4469
955.041	36.9521
956.706	37.0701
958.372	35.702
960.036	35.1975
961.699	33.1771
963.362	32.6369
965.027	32.3915
966.69	32.1854
968.352	31.3782
970.014	30.8367
971.676	30.124
973.339	29.9363
975	30.0346
976.661	29.9753
978.322	30.1342
979.982	29.6125
981.642	28.4091
983.303	28.0267
984.962	28.5443
986.621	28.5055
988.28	29.1863
989.938	27.9555
991.596	27.3571
993.254	27.9746
994.911	27.7349
996.57	27.9079
998.227	28.0797
999.884	28.204
1001.54	28.4017
1003.2	28.6706
1004.85	29.7024
1006.51	28.8837
1008.16	27.8643
1009.82	26.5544
1011.47	26.2741
1013.12	26.2941
1014.78	26.7469
1016.43	26.4296
1018.08	27.3704
1019.74	27.013
1021.39	26.901
1023.04	26.9125
1024.69	27.3958
1026.34	27.5083
1028	27.4271
1029.65	28.051
1031.3	27.199
1032.95	27.4784
1034.6	27.7836
1036.25	26.6134
1037.9	25.5221
1039.54	24.2346
1041.19	23.2363
1042.84	22.0437
1044.49	21.3052
1046.14	21.4525
1047.78	21.2748
1049.43	20.6035
1051.08	18.994
1052.72	18.6096
1054.37	18.1727
1056.02	17.7711
1057.66	17.3379
1059.31	16.8953
1060.95	16.1044
1062.6	15.1399
1064.24	14.2612
1065.88	13.9734
1067.53	13.8273
1069.17	12.9178
1070.81	12.3928
1072.45	11.6636
1074.1	12.2802
1075.74	12.6058
1077.38	11.9751
1079.02	12.3821
1080.66	12.3846
1082.3	12.4654
1083.94	12.6479
1085.58	12.3939
1087.22	12.7796
1088.86	12.4272
1090.5	12.3677
1092.14	12.3687
1093.78	12.3093
1095.42	12.0408
1097.05	12.193
1098.69	11.4653
1100.33	12.0611
1101.96	11.0204
1103.6	11.8547
1105.24	12.0628
1106.87	13.1661
1108.51	13.6501
1110.14	13.952
1111.78	13.8369
1113.41	12.5595
1115.05	13.7286
1116.68	13.1455
1118.31	13.0913
1119.95	12.7851
1121.58	12.1317
1123.21	12.7371
1124.85	11.5944
1126.48	12.1022
1128.11	11.6334
1129.74	11.3412
1131.37	10.4359
1133	9.58725
1134.63	9.39629
1136.26	9.22185
1137.89	8.70949
1139.52	8.04214
1141.15	7.94663
1142.78	7.74657
1144.41	7.46584
1146.04	6.79935
1147.66	6.43453
1149.29	6.16039
1150.92	5.80353
1152.55	5.85508
1154.17	5.21314
1155.8	4.57195
1157.43	4.10277
1159.05	4.6418
1160.68	5.01541
1162.3	4.85493
1163.93	3.89862
1165.55	2.89389
1167.17	2.5284
1168.8	2.6231
1170.42	1.21727
1172.05	0.542315
1173.67	-0.351391
1175.29	-0.189178
1176.91	0.247138
1178.54	0.31802
1180.16	0.220178
1181.78	0.787036
1183.4	1.08689
1185.02	1.59768
1186.64	1.59295
1188.26	3.19771
1189.88	2.7474
1191.5	3.32262
1193.12	3.35035
1194.74	3.7023
1196.36	5.29471
1197.97	5.15355
1199.59	5.01497
1201.21	5.44766
1202.83	7.46278
1204.44	8.25793
1206.06	8.47632
1207.68	9.60784
1209.29	10.0726
1210.91	11.1365
1212.52	12.4169
1214.14	14.7012
1215.75	16.2633
1217.37	17.8047
1218.98	19.0989
1220.59	20.3033
1222.21	21.7562
1223.82	21.8609
1225.43	22.552
1227.05	23.8552
1228.66	24.3925
1230.27	25.549
1231.88	26.3296
1233.49	27.4142
1235.1	29.0982
1236.72	29.9064
1238.33	31.4235
1239.94	32.7243
1241.55	32.756
1243.16	32.6659
1244.76	33.1526
1246.37	34.0337
1247.98	35.1823
1249.59	36.0729
1251.2	36.4984
1252.8	37.2714
1254.41	38.4927
1256.02	39.6991
1257.62	40.2728
1259.23	40.2298
1260.84	41.0181
1262.44	40.9413
1264.05	41.4124
1265.66	41.2794
1267.26	41.3282
1268.86	42.6953
1270.47	43.0792
1272.07	44.4357
1273.67	44.5014
1275.28	45.1463
1276.88	45.5291
1278.48	46.0654
1280.09	46.8186
1281.69	47.9969
1283.29	48.8107
1284.89	48.9366
1286.49	49.1478
1288.09	49.2903
1289.69	49.2885
1291.29	50.1569
1292.89	50.6368
1294.49	50.5307
1296.09	49.6953
1297.69	49.3216
1299.29	49.0987
1300.89	49.0996
1302.49	48.4971
1304.08	48.8134
1305.68	49.2681
1307.28	49.2343
1308.88	49.5027
1310.47	50.2858
1312.07	51.0397
1313.66	52.4283
1315.26	52.0209
1316.85	51.403
1318.45	51.8615
1320.04	51.9212
1321.64	51.8263
1323.23	52.1534
1324.83	52.5753
1326.42	53.5394
1328.01	53.7331
1329.61	53.6475
1331.2	53.3643
1332.79	53.4903
1334.38	53.2989
1335.97	51.3984
1337.56	50.8688
1339.16	48.8741
1340.75	47.8924
1342.34	46.6084
1343.93	46.0477
1345.52	45.1276
1347.11	45.1678
1348.7	45.1948
1350.29	43.854
1351.87	42.3619
1353.46	40.9236
1355.05	39.2688
1356.64	38.5656
1358.22	37.7224
1359.81	36.472
1361.4	35.0489
1362.98	33.76
1364.57	31.7887
1366.16	29.9767
1367.74	28.9691
1369.33	27.7117
1370.91	26.8057
1372.5	24.8899
1374.08	24.1032
1375.67	24.1568
1377.25	23.0612
1378.83	21.9469
1380.41	22.2418
1382	21.9197
1383.58	22.1684
1385.16	21.8704
1386.74	21.8209
1388.33	22.3756
1389.91	20.8865
1391.49	21.1018
1393.07	21.0124
1394.65	19.5929
1396.23	20.3698
1397.81	19.6872
1399.39	19.9271
1400.97	19.7205
1402.55	20.1267
1404.13	20.7293
1405.7	21.4363
1407.28	20.3192
1408.86	20.1131
1410.44	20.3004
1412.01	20.7528
1413.59	21.4516
1415.17	22.1973
1416.74	24.0852
1418.32	24.6747
1419.89	26.6627
1421.47	28.4842
1423.04	30.3652
1424.62	32.1785
1426.19	33.0115
1427.77	34.011
1429.34	35.7936
1430.91	38.3939
1432.49	40.4196
1434.06	42.4899
1435.63	45.3889
1437.2	47.0675
1438.78	48.3124
1440.35	49.6547
1441.92	50.4467
1443.49	51.4956
1445.06	52.7107
1446.63	53.3459
1448.2	53.4991
1449.77	54.0438
1451.34	53.674
1452.91	54.1148
1454.48	54.2862
1456.05	53.2567
1457.62	52.8884
1459.18	53.1222
1460.75	51.5711
1462.32	49.6506
1463.89	48.6994
1465.45	46.7467
1467.02	44.8716
1468.59	42.221
1470.15	41.3338
1471.72	38.9409
1473.28	36.7344
1474.85	35.5473
1476.41	32.9746
1477.98	32.279
1479.54	30.5358
1481.1	28.7826
1482.67	26.5483
1484.23	24.1986
1485.79	22.6647
1487.36	21.4213
1488.92	21.2368
1490.48	20.7079
1492.04	19.777
1493.61	18.9877
1495.17	18.2187
1496.73	17.518
1498.29	16.9795
1499.85	16.2125
1501.41	15.789
1502.97	15.1709
1504.53	14.9931
1506.09	15.7182
1507.65	15.9067
1509.2	16.4541
1510.76	16.5975
1512.32	16.3177
1513.88	15.6236
1515.43	14.8785
1516.99	14.9254
1518.55	15.7024
1520.1	15.722
1521.66	15.7884
1523.22	15.054
1524.77	15.1676
1526.33	14.9642
1527.88	15.233
1529.44	14.9294
1530.99	15.575
1532.54	16.6697
1534.1	16.1598
1535.65	16.2109
1537.21	16.5872
1538.76	16.3635
1540.31	16.3475
1541.86	17.5929
1543.42	17.3722
1544.97	18.5568
1546.52	19.6973
1548.07	21.2644
1549.62	22.2243
1551.17	23.6119
1552.72	25.2553
1554.27	26.2947
1555.82	27.8172
1557.37	28.5655
1558.92	28.8027
1560.47	29.6538
1562.02	30.7382
1563.56	32.5006
1565.11	32.8455
1566.66	34.0803
1568.21	35.1221
1569.75	36.4274
1571.3	37.9076
1572.85	38.6642
1574.39	40.531
1575.94	42.4542
1577.49	43.7024
1579.03	45.5931
1580.57	46.2436
1582.12	47.3828
1583.66	47.5139
1585.21	48.1079
1586.75	48.846
1588.3	49.1093
1589.84	48.9765
1591.38	49.7286
1592.92	49.8476
1594.47	50.1151
1596.01	49.4673
1597.55	49.1115
1599.09	48.5403
1600.63	48.0432
1602.17	48.329
1603.71	47.7842
1605.25	47.3873
1606.79	46.7145
1608.33	46.905
1609.87	46.5561
1611.41	45.013
1612.95	44.5648
1614.49	44.5213
1616.03	44.026
1617.57	44.0123
1619.1	44.6425
1620.64	44.4394
1622.18	44.8125
1623.72	44.6218
1625.25	44.3103
1626.79	45.0734
1628.32	46.1679
1629.86	46.3404
1631.39	46.7496
1632.93	47.1932
1634.46	47.5862
1636	47.3565
1637.53	48.1569
1639.07	48.8736
1640.6	50.0743
1642.13	50.7305
1643.67	52.7049
1645.2	54.9666
1646.73	56.6156
1648.26	57.5906
1649.8	58.693
1651.33	60.6074
1652.86	60.9337
1654.39	60.5758
1655.92	61.7203
1657.45	62.2604
1658.98	62.2601
1660.51	62.3271
1662.04	62.8996
1663.57	62.3978
1665.1	61.8934
1666.63	60.8134
1668.16	60.0723
1669.68	58.8816
1671.21	57.6618
1672.74	56.7218
1674.27	56.4008
1675.79	54.5072
1677.32	52.7623
1678.85	51.4646
1680.37	48.8752
1681.9	47.3277
1683.42	45.6478
1684.95	44.0305
1686.47	41.5735
1688	39.1034
1689.52	37.1446
1691.05	34.9826
1692.57	32.085
1694.09	30.4582
1695.62	29.1423
1697.14	27.5838
1698.66	25.9885
1700.18	24.2428
1701.71	22.6479
1703.23	21.5058
1704.75	19.5418
1706.27	17.8343
1707.79	17.0839
1709.31	15.4172
1710.83	14.4017
1712.35	13.4002
1713.87	12.5217
1715.39	12.2111
1716.91	12.267
1718.43	11.8005
1719.95	11.7397
1721.47	11.6263
1722.99	10.9855
1724.5	10.9392
1726.02	11.2008
1727.54	11.2837
1729.06	11.1107
1730.57	10.6307
1732.09	11.4297
1733.61	10.9282
1735.12	10.4786
1736.64	10.8432
1738.15	10.3703
1739.67	9.68478
1741.18	9.35075
1742.7	9.41273
1744.21	10.0174
1745.72	9.77451
1747.24	9.2729
1748.75	9.60001
1750.26	9.33612
1751.77	8.97469
1753.29	9.09472
1754.8	9.04798
1756.31	8.49212
1757.82	8.60264
1759.33	8.42436
1760.84	7.78291
1762.36	6.8229
1763.87	6.09744
1765.38	5.25534
1766.89	4.88887
1768.4	4.7931
1769.91	5.19546
1771.41	4.94978
1772.92	4.20295
1774.43	3.98828
1775.94	3.85185
1777.45	3.98159
1778.95	3.97228
1780.46	4.14063
1781.97	4.40348
1783.48	4.32816
1784.98	4.45435
1786.49	4.24688
1787.99	3.80456
1789.5	3.4936
1791.01	3.71943
1792.51	3.62347
1794.01	3.34181
1795.52	3.37306
1797.02	2.91906
1798.53	3.06757
1800.03	3.28211
1801.53	2.29243
1803.04	2.09534
1804.54	1.93743
1806.04	1.56691
1807.54	2.01705
1809.05	1.73097
1810.55	2.01579
1812.05	2.03321
1813.55	1.68952
1815.05	1.81824
1816.55	2.13102
1818.05	2.48338
1819.55	2.73254
1821.05	2.63432
1822.55	2.31424
1824.05	2.48282
1825.55	2.73432
1827.05	3.06294
1828.55	3.00409
1830.04	3.00226
1831.54	3.17236
1833.04	2.98936
1834.54	2.7407
1836.03	2.04683
1837.53	1.93585
1839.03	2.04361
1840.52	2.25413
1842.02	2.37839
1843.51	2.3369
1845.01	2.31981
1846.5	2.46459
1848	2.15222
1849.49	2.40215
1850.99	2.81335
1852.48	2.49184
1853.97	2.41782
1855.47	2.34752
1856.96	2.30563
1858.45	1.96881
1859.94	1.59262
1861.44	1.26981
1862.93	1.25579
1864.42	2.06149
1865.91	1.94496
1867.4	1.72775
1868.89	1.82825
1870.38	1.86961
1871.87	1.69398
1873.36	1.85805
1874.85	1.43204
1876.34	1.39738
1877.83	2.43375
1879.32	2.2256
1880.81	2.46031
1882.3	2.43272
1882.57	2.3299
1884.07	2.59536
1885.56	3.02077
1887.06	3.75225
1888.55	4.29584
1890.04	5.08817
1891.54	5.47969
1893.03	6.25398
1894.52	6.5874
1896.02	7.57581
1897.51	8.48126
1899	8.47424
1900.49	8.58338
1901.98	8.28294
1903.47	8.32204
1904.96	8.24288
1906.45	7.84899
1907.94	7.5436
1909.43	7.57101
1910.92	7.39276
1912.41	7.2342
1913.9	6.9628
1915.39	6.19568
1916.88	5.70917
1918.37	5.67145
1919.85	4.90571
1921.34	4.76847
1922.83	5.37046
1924.32	5.46813
1925.8	4.93465
1927.29	4.74463
1928.78	3.9034
1930.26	3.78894
1931.75	3.318
1933.23	3.08028
1934.72	3.44576
1936.2	3.28883
1937.69	3.44235
1939.17	3.22611
1940.66	3.22795
1942.14	3.34768
1943.63	3.00068
1945.11	2.74346
1946.59	2.9528
1948.07	3.29919
1949.56	3.82153
1951.04	3.98647
1952.52	4.28782
1954	5.3658
1955.48	5.26317
1956.96	5.57642
1958.45	6.64166
1959.93	7.30013
1961.41	7.37639
1962.89	7.28738
1964.37	8.15826
1965.85	8.05429
1967.32	8.5637
1968.8	8.48353
1970.28	9.14605
1971.76	8.5492
1973.24	8.73376
1974.72	8.61817
1976.19	8.38272
1977.67	8.28963
1979.15	7.88158
1980.63	7.62798
1982.1	7.43207
1983.58	7.26059
1985.05	6.89288
1986.53	6.72091
1988	6.66422
1989.48	6.50716
1990.95	6.26722
1992.43	6.82077
1993.9	6.50001
1995.38	7.21403
1996.85	7.19943
1998.32	6.81721
1999.8	6.78327
2001.27	6.43705
2002.74	6.82305
2004.22	7.39363
2005.69	7.69738
2007.16	8.01936
2008.63	7.94666
2010.1	7.65795
2011.57	7.94506
2013.04	7.86601
2014.51	7.57148
2015.98	7.19452
2017.45	7.08354
2018.92	7.53996
2020.39	7.82974
2021.86	7.61088
2023.33	7.24457
2024.8	7.76187
2026.27	8.27711
2027.74	8.04523
2029.2	7.68527
2030.67	8.29787
2032.14	8.68637
2033.61	8.44745
2035.07	8.28694
2036.54	8.44707
2038.01	8.21368
2039.47	7.77096
2040.94	7.8236
2042.4	7.7932
2043.87	8.03366
2045.33	7.58192
2046.8	7.34623
2048.26	6.726
2049.72	6.68336
2051.19	6.89776
2052.65	6.92544
2054.12	7.22888
2055.58	7.09099
2057.04	7.08671
2058.5	7.195
2059.97	7.52775
2061.43	8.01089
2062.89	8.54697
2064.35	8.37294
2065.81	9.41968
2067.27	9.81217
2068.73	10.3378
2070.19	10.5674
2071.65	11.1161
2073.11	12.1119
2074.57	12.2723
2076.03	12.9805
2077.49	13.1712
2078.95	13.3493
2080.41	13.7586
2081.87	14.1005
2083.32	14.8571
2084.78	15.5432
2086.24	15.5982
2087.7	16.2317
2089.15	16.4301
2090.61	16.9986
2092.07	17.7158
2093.52	18.4186
2094.98	19.3874
2096.43	20.1759
2097.89	21.3978
2099.34	22.3259
2100.8	23.1782
2102.25	23.8449
2103.71	24.5436
2105.16	24.9273
2106.61	25.5191
2108.07	25.9717
2109.52	26.5083
2110.97	27.2101
2112.43	28.0186
2113.88	28.8596
2115.33	29.703
2116.78	30.0886
2118.23	30.7662
2119.68	31.4923
2121.13	32.3983
2122.59	33.5116
2124.04	34.6143
2125.49	35.0175
2126.94	35.744
2128.39	36.7198
2129.83	37.4664
2131.28	38.5609
2132.73	39.7506
2134.18	40.8029
