#Acq. time (s)=	45
#Accumulations=	2
#Range (cm-¹)=	200...3150
#Windows=	2
#Auto scanning=	Off
#Autofocus=	Off
#Macrospot=	Off
#AutoExposure=	Off
#Spike filter=	Multiple accum.
#Delay time (s)=	0
#Binning=	1
#Readout mode=	Signal
#DeNoise=	Off
#ICS correction=	On
#Dark correction=	Off
#Inst. Process=	Off
#Detector Gain=	Best Dynamic Range
#Detector ADC=	20 kHz       
#Detector temperature (°C)=	-69.85
#Instrument=	LabRAM HR Evol
#Detector=	Synapse
#Objective=	x100
#Grating=	600 gr/mm
#ND Filter=	100%
#Laser (nm)=	532 
#Hole=	100.021
#Range=	Auto
#Laser Pol.=	No
#Raman. Pol.=	No
#Laser Pol. (°)=	-0.0007625
#Raman Pol. (°)=	89.9995
#Collection=	Microscope
#StageXY=	Marzhauser
#StageZ=	Marzhauser
#X (µm)=	-5924.1
#Y (µm)=	2885.9
#Z (µm)=	-223.4
#Full time(mm:ss)=	3:18
#Project=	
#Sample=	
#Site=	
#Title=	Thy_20_09_29_2x_45s_532 nm_x100_100%_600 gr_mm
#Remark=	
#Date=	29.06.2022 12:40
#Acquired=	29.06.2022 12:40:33
#Base:Fit=	10.08.2022 09:52:02
#Base:Fit=	10.08.2022 09:52:12
#Base:Sub=	10.08.2022 09:54:21
#Filter:Polynom=	16.08.2022 10:24:04
#AxisType[0]=Intens
#AxisUnit[0]=Cnt
#AxisType[1]=Spectr
#AxisUnit[1]=1/cm
200.523	2.1671
202.339	2.37185
204.154	4.06869
205.967	4.68217
207.781	5.40087
209.596	5.70891
211.409	6.14298
213.222	6.46803
215.034	6.79899
216.848	7.36212
218.659	6.84241
220.47	6.35828
222.281	6.39411
224.091	7.21224
225.903	5.89161
227.713	5.36891
229.522	6.0408
231.331	6.81556
233.14	7.53118
234.948	8.68689
236.756	9.23621
238.566	10.1027
240.373	10.2785
242.18	10.5291
243.986	11.0287
245.792	10.8077
247.598	10.2471
249.403	9.64513
251.208	9.7396
253.013	10.3603
254.818	11.2945
256.624	10.6749
258.427	10.8592
260.231	10.4704
262.034	8.91718
263.836	8.483
265.638	9.08306
267.44	9.8728
269.242	9.35897
271.043	8.0866
272.844	7.53749
274.645	7.03989
276.445	6.73368
278.245	6.51435
280.044	6.19596
281.843	5.30495
283.642	5.65008
285.44	5.10804
287.238	5.0907
289.036	6.01108
290.833	5.65909
292.63	5.73739
294.425	5.13261
296.221	5.96229
298.017	5.7759
299.813	6.58965
301.608	7.99568
303.403	8.51534
305.198	8.85773
306.992	9.24979
308.786	9.99648
310.579	10.8364
312.371	12.3507
314.163	13.5323
315.956	13.7284
317.748	14.7052
319.54	16.8619
321.331	18.3127
323.122	19.2347
324.911	19.152
326.701	19.0359
328.491	19.4516
330.281	19.69
332.071	20.2452
333.857	20.1485
335.646	19.7516
337.434	20.796
339.222	20.1899
341.008	19.3071
342.795	17.7246
344.582	17.178
346.369	17.0861
348.153	17.7373
349.939	16.968
351.724	16.354
353.51	16.3349
355.292	15.6912
357.077	15.0207
358.861	13.5829
360.643	12.7783
362.426	12.6654
364.21	12.7129
365.99	12.9618
367.773	13.5051
369.555	12.4798
371.335	12.6106
373.116	13.7841
374.897	13.3988
376.676	14.1867
378.456	14.9754
380.236	14.3146
382.014	14.5866
383.793	15.4728
385.57	15.9042
387.349	15.8193
389.127	16.4366
390.903	17.3322
392.681	17.4487
394.456	17.3539
396.233	16.638
398.007	16.3756
399.784	16.1485
401.56	16.4035
403.333	15.3129
405.108	14.0839
406.881	14.013
408.656	14.9813
410.428	14.5518
412.202	14.0152
413.973	13.0993
415.746	13.0106
417.517	12.382
419.29	12.03
421.06	11.6352
422.831	10.8065
424.601	11.0704
426.37	10.4591
428.141	8.81914
429.909	9.03586
431.679	9.62917
433.447	9.82782
435.216	9.87523
436.983	9.77083
438.75	9.45248
440.519	9.81193
442.285	9.32082
444.052	9.41959
445.818	10.1054
447.583	10.7264
449.349	11.578
451.114	12.6097
452.878	14.3398
454.643	15.507
456.407	16.0376
458.169	16.3266
459.934	17.7046
461.696	18.2585
463.458	18.0503
465.222	18.6037
466.983	18.6592
468.744	19.2279
470.507	19.9904
472.267	21.0499
474.027	20.4123
475.787	21.5506
477.548	21.6861
479.307	22.3278
481.065	21.2367
482.823	21.2187
484.583	20.8652
486.341	22.9334
488.098	23.7993
489.855	24.11
491.612	24.2082
493.37	25.0365
495.126	26.389
496.881	26.6936
498.636	26.3167
500.391	25.5256
502.148	24.5588
503.902	24.4733
505.656	24.339
507.409	25.1803
509.162	25.1196
510.915	23.8754
512.668	23.7037
514.42	22.8061
516.174	22.2727
517.925	22.0622
519.676	20.5967
521.427	19.9036
523.178	19.9642
524.928	20.0382
526.678	20.0839
528.427	20.2426
530.176	20.3073
531.925	19.1231
533.673	19.1914
535.422	19.0036
537.169	17.5459
538.917	17.2084
540.664	16.2988
542.411	15.0527
544.157	14.6067
545.903	14.8327
547.649	14.1382
549.395	13.337
551.14	13.9375
552.884	14.2483
554.629	13.6532
556.373	15.2137
558.117	15.3737
559.86	16.6848
561.603	16.8577
563.346	17.1539
565.089	17.2498
566.831	18.1727
568.573	18.1403
570.314	19.3984
572.053	19.3146
573.794	20.4698
575.534	19.8493
577.274	19.9374
579.014	19.4125
580.754	19.4161
582.493	18.7641
584.23	18.1306
585.968	16.7218
587.706	15.3731
589.444	15.198
591.181	14.6341
592.919	14.668
594.653	14.3984
596.39	12.6989
598.126	11.7094
599.862	10.7216
601.595	10.2166
603.33	10.2301
605.065	9.98971
606.8	9.46816
608.532	9.61883
610.266	9.33031
611.999	8.86241
613.732	9.36851
615.463	8.44588
617.196	7.97537
618.928	6.84249
620.66	7.23335
622.389	6.576
624.12	6.38981
625.851	6.27863
627.58	6.25753
629.31	7.20565
631.04	7.31258
632.767	8.31331
634.497	9.014
636.223	9.55025
637.952	11.3387
639.68	11.6654
641.406	12.5897
643.134	13.2392
644.861	12.9398
646.586	13.581
648.312	13.1839
650.037	13.9739
651.762	14.5291
653.486	15.0203
655.211	15.4542
656.936	15.3453
658.659	15.1819
660.383	15.0065
662.105	14.0745
663.829	13.9268
665.55	13.3506
667.273	13.2877
668.994	12.73
670.716	12.2427
672.436	12.3134
674.158	12.7783
675.877	13.6952
677.598	14.5606
679.317	15.6204
681.035	15.3922
682.755	15.0489
684.473	15.9477
686.192	16.8188
687.909	19.1598
689.628	20.3575
691.344	21.1072
693.06	21.7555
694.778	22.4426
696.493	23.3989
698.211	25.1154
699.925	26.7358
701.64	27.1834
703.356	28.4641
705.07	29.4201
706.783	30.6578
708.498	31.546
710.211	32.2972
711.924	33.2715
713.638	34.2076
715.35	35.5494
717.061	36.2385
718.774	37.5804
720.485	39.0559
722.196	39.912
723.906	41.4237
725.618	42.4735
727.328	43.7545
729.037	44.2883
730.746	45.5131
732.456	46.8503
734.165	47.5004
735.873	48.3233
737.58	48.056
739.289	48.6488
740.997	48.3107
742.703	48.2797
744.41	49.5841
746.116	50.0931
747.823	51.279
749.529	52.4403
751.234	52.9443
752.938	53.9666
754.643	54.8342
756.347	56.1211
758.051	57.8763
759.756	58.8358
761.459	59.4881
763.162	60.7089
764.865	62.1804
766.567	63.4787
768.269	63.6612
769.97	64.7259
771.671	64.963
773.372	65.625
775.073	65.7927
776.773	66.1636
778.473	67.2308
780.174	66.7196
781.874	67.083
783.573	67.6386
785.271	67.4835
786.97	67.7932
788.668	68.9738
790.365	70.2345
792.063	71.209
793.76	72.3361
795.456	72.1599
797.153	72.5849
798.847	72.4131
800.543	74.4528
802.238	74.6826
803.933	75.3969
805.628	76.2177
807.322	76.1548
809.017	76.2889
810.71	77.0149
812.404	77.0722
814.097	76.9873
815.79	76.9609
817.483	76.8306
819.173	75.6205
820.865	75.2041
822.556	74.676
824.248	74.0133
825.939	74.52
827.629	75.5664
829.318	74.5224
831.008	73.4758
832.697	73.9124
834.387	72.7588
836.076	72.1162
837.765	71.6061
839.451	70.3203
841.139	69.7073
842.827	67.7066
844.514	65.8901
846.2	63.9828
847.886	62.5461
849.573	60.8784
851.259	58.6807
852.943	56.566
854.629	55.0082
856.314	53.1136
857.997	52.0672
859.682	50.9877
861.366	49.5766
863.05	48.0124
864.732	46.6787
866.415	46.3784
868.098	45.2626
869.779	45.7599
871.461	45.1897
873.141	44.7298
874.823	45.0146
876.505	44.6186
878.184	42.9909
879.865	42.0594
881.545	41.9989
883.223	42.4407
884.903	43.3277
886.581	42.449
888.26	42.4349
889.937	42.6389
891.616	42.2059
893.294	42.1741
894.97	43.2367
896.648	43.1948
898.323	43.0044
900	42.3753
901.675	41.5128
903.351	41.8017
905.026	42.096
906.701	42.274
908.375	42.6208
910.05	43.4934
911.723	43.1714
913.398	42.3124
915.07	42.6415
916.742	41.8083
918.415	40.1655
920.087	39.9654
921.76	38.7082
923.43	37.2768
925.103	37.2298
926.773	36.0753
928.443	35.2083
930.114	34.7317
931.783	34.1991
933.454	34.5246
935.123	34.9899
936.791	33.5644
938.461	32.07
940.128	31.3395
941.796	31.5378
943.464	30.7751
945.131	28.9924
946.797	28.5854
948.465	28.8788
950.131	27.902
951.797	28.1497
953.462	28.7997
955.128	27.6325
956.793	27.3614
958.457	27.6972
960.121	25.8714
961.786	24.1729
963.45	24.3112
965.113	24.6703
966.775	24.8016
968.44	24.6113
970.102	24.7151
971.763	24.8896
973.425	25.022
975.086	24.8476
976.748	25.7139
978.409	26.2412
980.069	25.9673
981.729	25.2201
983.388	24.6986
985.048	25.368
986.708	25.7186
988.367	24.0508
990.025	23.9228
991.683	23.5115
993.341	22.8808
994.998	22.5762
996.655	21.4529
998.312	20.0222
999.969	19.8163
1001.62	19.606
1003.28	19.6109
1004.94	18.4433
1006.59	18.5807
1008.25	18.7843
1009.9	17.928
1011.56	17.5559
1013.21	18.4578
1014.86	18.0049
1016.52	18.1657
1018.17	17.1904
1019.82	16.0662
1021.48	16.5667
1023.13	16.4929
1024.78	16.9159
1026.43	15.7478
1028.08	15.6707
1029.73	17.4897
1031.38	17.9601
1033.03	18.387
1034.68	18.129
1036.33	17.1303
1037.98	17.1735
1039.63	16.8539
1041.28	16.7651
1042.93	15.9186
1044.57	16.8494
1046.22	19.1358
1047.87	19.9608
1049.52	19.5295
1051.16	19.4844
1052.81	19.4015
1054.45	19.514
1056.1	18.9364
1057.75	18.6205
1059.39	18.3144
1061.04	18.3845
1062.68	17.0349
1064.32	15.7725
1065.97	14.8712
1067.61	15.057
1069.25	13.7974
1070.9	12.2573
1072.54	12.2049
1074.18	11.2101
1075.82	10.9514
1077.47	9.98943
1079.11	9.09855
1080.75	9.4505
1082.39	10.0001
1084.03	9.49413
1085.67	9.37692
1087.31	9.59496
1088.95	10.2697
1090.59	9.90234
1092.22	10.3547
1093.86	11.655
1095.5	12.0452
1097.14	12.1794
1098.78	12.7424
1100.41	11.6134
1102.05	13.6211
1103.69	14.5335
1105.32	14.387
1106.96	15.8259
1108.59	16.6069
1110.23	18.4348
1111.86	18.9634
1113.5	18.5754
1115.13	18.9964
1116.77	19.4467
1118.4	18.9016
1120.03	19.3558
1121.67	18.7777
1123.3	18.7829
1124.93	18.2019
1126.56	19.0285
1128.19	18.5125
1129.83	16.8798
1131.46	15.801
1133.09	15.2602
1134.72	15.2912
1136.35	15.2
1137.98	14.1359
1139.61	14.2129
1141.24	12.9881
1142.86	11.7277
1144.49	9.97014
1146.12	9.30728
1147.75	8.59595
1149.38	8.32549
1151	7.67516
1152.63	6.24334
1154.26	5.68228
1155.88	4.88543
1157.51	5.05303
1159.14	3.69719
1160.76	3.28454
1162.39	2.55954
1164.01	2.16435
1165.63	1.47044
1167.26	1.23562
1168.88	2.02972
1170.51	2.4268
1172.13	2.3044
1173.75	3.18156
1175.38	3.30958
1177	2.57985
1178.62	1.91676
1180.24	1.9792
1181.86	2.16937
1183.48	3.6089
1185.1	2.54734
1186.72	2.10878
1188.34	2.43787
1189.96	2.51546
1191.58	1.44455
1193.2	0.621255
1194.82	1.65763
1196.44	2.37966
1198.06	3.0221
1199.68	3.02282
1201.29	3.41944
1202.91	3.86442
1204.53	4.43557
1206.14	5.8036
1207.76	7.78936
1209.38	8.33327
1210.99	9.96871
1212.61	12.1238
1214.22	14.4418
1215.84	16.4707
1217.45	18.3767
1219.07	19.0208
1220.68	22.0274
1222.29	23.0487
1223.91	24.7628
1225.52	27.5817
1227.13	29.5363
1228.74	32.0865
1230.36	34.3805
1231.97	36.5352
1233.58	37.8797
1235.19	39.858
1236.8	41.8123
1238.41	43.0272
1240.02	43.7071
1241.63	44.7869
1243.24	47.4309
1244.85	50.3367
1246.46	51.2678
1248.07	53.0374
1249.67	55.034
1251.28	55.6363
1252.89	56.2707
1254.5	56.7305
1256.1	56.7456
1257.71	56.6302
1259.32	56.9181
1260.92	57.9971
1262.53	57.4723
1264.13	57.6189
1265.74	57.4726
1267.34	57.6967
1268.95	58.6977
1270.55	59.8124
1272.15	60.3878
1273.76	61.933
1275.36	63.5501
1276.97	63.1373
1278.57	63.6432
1280.17	64.4126
1281.77	64.4492
1283.37	64.8477
1284.97	65.8517
1286.58	67.4773
1288.18	67.729
1289.78	69.1761
1291.38	69.8769
1292.98	70.4828
1294.58	71.5814
1296.18	72.123
1297.78	73.0485
1299.37	72.9734
1300.97	74.9476
1302.57	74.2082
1304.17	75.7179
1305.77	77.2415
1307.36	77.5461
1308.96	78.741
1310.55	79.7401
1312.15	80.5376
1313.75	80.7133
1315.34	80.6488
1316.94	81.3453
1318.53	81.4525
1320.13	81.4004
1321.72	81.7088
1323.32	83.026
1324.91	82.1511
1326.5	80.7999
1328.1	81.8286
1329.69	81.7421
1331.28	81.0919
1332.87	81.6136
1334.47	80.6235
1336.06	80.22
1337.65	79.4937
1339.24	79.0241
1340.83	78.8626
1342.42	78.626
1344.01	78.6864
1345.6	77.6954
1347.19	76.7068
1348.78	76.837
1350.37	75.3391
1351.96	74.9061
1353.54	73.98
1355.13	73.2584
1356.72	71.1482
1358.31	71.0174
1359.89	69.4221
1361.48	67.9801
1363.07	66.3367
1364.65	66.285
1366.24	66.677
1367.82	66.4019
1369.41	66.1999
1370.99	64.2858
1372.58	64.4472
1374.16	64.1941
1375.75	63.1849
1377.33	62.9121
1378.91	61.5854
1380.5	61.4656
1382.08	60.7925
1383.66	60.8286
1385.25	58.9906
1386.83	58.2906
1388.41	57.6076
1389.99	57.1131
1391.57	56.4106
1393.15	54.8358
1394.73	53.5435
1396.31	53.099
1397.89	50.9331
1399.47	49.8561
1401.05	49.7922
1402.63	48.8147
1404.21	48.112
1405.78	48.7973
1407.36	49.3287
1408.94	49.2983
1410.52	49.9753
1412.1	50.7224
1413.67	51.3431
1415.25	52.4411
1416.82	53.0196
1418.4	53.8525
1419.98	55.7396
1421.55	56.9165
1423.13	58.1075
1424.7	59.9395
1426.28	62.0853
1427.85	64.1959
1429.42	65.6813
1431	68.1916
1432.57	69.7582
1434.14	72.3752
1435.71	74.4511
1437.29	76.9709
1438.86	78.5848
1440.43	81.0218
1442	82.513
1443.57	84.5823
1445.14	86.4947
1446.71	86.3523
1448.28	86.5265
1449.85	86.2931
1451.42	86.8775
1452.99	86.4154
1454.56	86.3633
1456.13	86.2107
1457.7	84.7887
1459.26	82.8178
1460.83	81.3678
1462.4	79.4354
1463.97	75.929
1465.54	73.6288
1467.1	70.9514
1468.67	68.769
1470.23	65.4229
1471.8	62.7581
1473.36	59.5854
1474.93	57.1351
1476.49	53.1594
1478.06	50.7973
1479.62	47.7165
1481.19	45.0418
1482.75	42.6247
1484.31	40.1869
1485.88	37.6413
1487.44	35.8956
1489	34.4387
1490.56	33.3604
1492.13	31.4
1493.69	29.6365
1495.25	28.1053
1496.81	27.0312
1498.37	26.5743
1499.93	25.0644
1501.49	24.2855
1503.05	24.0239
1504.61	23.2258
1506.17	22.9864
1507.73	23.0074
1509.28	23.3769
1510.84	23.3467
1512.4	23.8808
1513.96	23.8408
1515.52	22.99
1517.07	22.2121
1518.63	22.5777
1520.19	24.0334
1521.74	24.7823
1523.3	25.9066
1524.85	26.1603
1526.41	27.893
1527.96	29.281
1529.52	30.7355
1531.07	31.3287
1532.63	32.308
1534.18	32.4308
1535.73	32.7988
1537.29	34.2738
1538.84	35.8454
1540.39	36.8526
1541.94	37.8795
1543.5	40.1014
1545.05	42.0318
1546.6	43.8052
1548.15	45.5658
1549.7	47.8514
1551.25	49.9802
1552.8	53.3825
1554.35	55.4433
1555.9	57.7291
1557.45	60.0889
1559	62.4808
1560.55	63.671
1562.1	65.9101
1563.65	68.7148
1565.19	71.1955
1566.74	74.1807
1568.29	76.1976
1569.83	78.3437
1571.38	80.0068
1572.93	80.9306
1574.47	81.2142
1576.02	82.6834
1577.56	84.0279
1579.11	86.2829
1580.66	88.0276
1582.2	89.3188
1583.74	90.4773
1585.29	90.7827
1586.83	91.4044
1588.38	91.157
1589.92	92.3461
1591.46	91.6272
1593.01	91.0523
1594.55	91.4903
1596.09	91.8844
1597.63	91.2397
1599.17	89.4569
1600.71	88.1764
1602.25	86.5564
1603.79	85.1098
1605.34	84.4523
1606.88	82.7758
1608.41	81.8806
1609.95	81.3778
1611.49	80.8534
1613.03	79.7661
1614.57	78.8416
1616.11	77.3849
1617.65	76.173
1619.18	74.9236
1620.72	73.6844
1622.26	73.289
1623.79	73.2278
1625.33	73.1952
1626.87	72.8207
1628.4	73.1331
1629.94	71.8174
1631.48	70.9754
1633.01	70.0846
1634.55	70.2924
1636.08	68.5979
1637.61	68.7853
1639.15	69.3343
1640.68	70.7346
1642.21	71.7705
1643.75	73.7923
1645.28	74.2178
1646.81	74.4946
1648.34	74.0764
1649.88	75.0113
1651.41	76.0816
1652.94	77.4648
1654.47	77.8215
1656	78.8035
1657.53	79.2375
1659.06	79.1193
1660.59	77.6503
1662.12	75.1117
1663.65	72.699
1665.18	73.3758
1666.71	73.0337
1668.24	71.5815
1669.76	71.848
1671.29	70.6933
1672.82	68.8685
1674.35	68.1222
1675.87	67.3391
1677.4	65.9671
1678.93	65.2416
1680.45	64.0731
1681.98	63.5319
1683.5	61.224
1685.03	58.6466
1686.55	55.8675
1688.08	53.5739
1689.6	50.8868
1691.13	48.8646
1692.65	45.6418
1694.17	43.3065
1695.7	41.2058
1697.22	39.4305
1698.74	37.7057
1700.27	34.8252
1701.79	32.0198
1703.31	30.4107
1704.83	28.6489
1706.35	25.9303
1707.87	24.2323
1709.39	21.7699
1710.91	20.706
1712.43	18.8111
1713.95	18.7864
1715.47	17.6685
1716.99	17.6389
1718.51	16.6354
1720.03	15.6037
1721.55	13.5988
1723.07	12.6224
1724.58	12.3034
1726.1	11.6643
1727.62	10.5787
1729.13	9.1718
1730.65	8.50404
1732.17	7.74714
1733.68	6.35075
1735.2	4.55221
1736.72	3.05253
1738.23	2.79843
1739.74	3.70659
1741.26	5.64122
1742.77	4.56314
1744.29	4.71007
1745.8	4.58481
1747.32	3.94958
1748.83	4.17117
1750.34	4.56135
1751.85	4.18156
1753.37	4.17531
1754.88	4.16477
1756.39	3.52499
1757.9	3.4404
1759.41	2.83056
1760.92	2.76377
1762.44	3.50606
1763.95	3.85957
1765.46	3.69488
1766.96	3.5951
1768.47	3.40079
1769.98	4.20072
1771.49	3.87905
1773	4.02815
1774.51	3.32852
1776.02	2.48165
1777.53	2.49329
1779.03	2.81927
1780.54	1.82935
1782.05	1.85334
1783.55	1.79116
1785.06	1.93137
1786.57	2.11095
1788.07	2.2316
1789.58	2.14424
1791.08	1.90377
1792.59	1.88566
1794.09	1.28231
1795.6	1.12621
1797.1	1.41334
1798.61	1.41238
1800.11	1.43756
1801.61	0.858995
1803.12	0.969343
1804.62	1.42432
1806.12	1.37338
1807.62	0.768759
1809.12	-0.113248
1810.63	-0.455254
1812.13	-0.332019
1813.63	-0.233796
1815.13	-0.55655
1816.63	-0.0977986
1818.13	-0.0597681
1819.63	-0.00606513
1821.13	-0.254031
1822.63	0.0170596
1824.13	0.052509
1825.63	-0.267153
1827.13	-0.181109
1828.62	0.0286278
1830.12	-0.521433
1831.62	-0.834873
1833.12	-0.343876
1834.61	-0.105517
1836.11	0.175427
1837.61	0.204722
1839.1	-0.143231
1840.6	-0.178334
1842.09	0.0779072
1843.59	-0.229292
1845.09	0.152904
1846.58	0.35166
1848.08	0.428608
1849.57	0.723995
1851.06	1.04967
1852.56	1.45281
1854.05	1.817
1855.54	1.33687
1857.04	1.87354
1858.53	1.91069
1860.02	2.35369
1861.51	2.9924
1863.01	3.30035
1864.5	2.77592
1865.99	3.15834
1867.48	4.56578
1868.97	5.22384
1870.46	6.25612
1871.95	6.65963
1873.44	6.83948
1874.93	7.65356
1876.42	7.77391
1877.91	7.91762
1879.4	7.49002
1880.89	6.88742
1882.37	6.89232
1882.46	7.43572
1883.95	7.8274
1885.45	7.56403
1886.94	7.53285
1888.43	8.02679
1889.93	8.45447
1891.42	7.43011
1892.91	6.90942
1894.41	7.13127
1895.9	6.93992
1897.39	6.36791
1898.88	5.9899
1900.37	5.87798
1901.86	5.18524
1903.36	4.4435
1904.85	4.64179
1906.34	4.67763
1907.83	4.13224
1909.32	3.44963
1910.81	2.50744
1912.29	2.2896
1913.78	2.55373
1915.27	2.78638
1916.76	2.82221
1918.25	2.91422
1919.74	2.3144
1921.23	1.9983
1922.71	1.59037
1924.2	1.88189
1925.69	1.55485
1927.17	1.64812
1928.66	1.65009
1930.15	2.41505
1931.63	2.42678
1933.12	2.21015
1934.6	2.3136
1936.09	2.53682
1937.57	3.26361
1939.06	4.27662
1940.54	4.90218
1942.02	5.51454
1943.51	5.57925
1944.99	5.9557
1946.47	6.8739
1947.96	7.34064
1949.44	6.04373
1950.92	6.46001
1952.4	6.92284
1953.88	8.0635
1955.37	8.30947
1956.85	8.63952
1958.33	8.16166
1959.81	8.1048
1961.29	9.09598
1962.77	8.41733
1964.25	7.93539
1965.73	7.98324
1967.21	8.41292
1968.69	8.23447
1970.16	7.30114
1971.64	6.9636
1973.12	6.64855
1974.6	6.83795
1976.08	6.68893
1977.55	6.66263
1979.03	6.88164
1980.51	5.65218
1981.98	5.58856
1983.46	5.28225
1984.94	4.84956
1986.41	4.86662
1987.89	4.72624
1989.36	4.29216
1990.84	3.74593
1992.31	2.79806
1993.79	2.71889
1995.26	2.49449
1996.73	2.35878
1998.21	2.46444
1999.68	2.14853
2001.15	2.77116
2002.63	2.86079
2004.1	2.7202
2005.57	2.16979
2007.04	2.38618
2008.51	3.26114
2009.99	3.72976
2011.46	4.3164
2012.93	4.63786
2014.4	4.87423
2015.87	5.75094
2017.34	5.59429
2018.81	5.94158
2020.28	6.04201
2021.75	6.03959
2023.21	5.84455
2024.68	6.98823
2026.15	7.09645
2027.62	7.11934
2029.09	6.45112
2030.56	6.69565
2032.02	6.52979
2033.49	6.65097
2034.96	7.69001
2036.42	8.01899
2037.89	8.95779
2039.36	9.28414
2040.82	9.26112
2042.29	9.14923
2043.75	9.73289
2045.22	10.2003
2046.68	10.3772
2048.14	11.2487
2049.61	11.0222
2051.07	10.3904
2052.54	9.90573
2054	9.47639
2055.46	9.84401
2056.93	9.50657
2058.39	9.37978
2059.85	9.30634
2061.31	9.79375
2062.77	9.5155
2064.23	9.49534
2065.7	9.36506
2067.16	9.68381
2068.62	9.68289
2070.08	10.0227
2071.54	10.465
2073	11.0876
2074.46	11.6511
2075.92	11.3258
2077.38	11.5996
2078.83	11.5953
2080.29	11.7349
2081.75	12.1276
2083.21	12.0224
2084.67	12.4344
2086.12	11.7185
2087.58	11.9654
2089.04	12.9694
2090.49	12.6338
2091.95	12.7492
2093.41	13.356
2094.86	13.4128
2096.32	13.8692
2097.77	14.4083
2099.23	14.5784
2100.68	14.7262
2102.14	15.8865
2103.59	16.7755
2105.05	17.4691
2106.5	18.8673
2107.95	19.0365
2109.41	19.6321
2110.86	20.0032
2112.31	20.7884
2113.76	21.1148
2115.21	21.3364
2116.67	22.1213
2118.12	21.8725
2119.57	23.0234
2121.02	23.6094
2122.47	23.7702
2123.92	24.1801
2125.37	25.6968
2126.82	26.821
2128.27	28.1723
2129.72	29.4247
