#Acq. time (s)=	45
#Accumulations=	2
#Range (cm-¹)=	200...3150
#Windows=	2
#Auto scanning=	Off
#Autofocus=	Off
#Macrospot=	Off
#AutoExposure=	Off
#Spike filter=	Multiple accum.
#Delay time (s)=	0
#Binning=	1
#Readout mode=	Signal
#DeNoise=	Off
#ICS correction=	On
#Dark correction=	Off
#Inst. Process=	Off
#Detector Gain=	Best Dynamic Range
#Detector ADC=	20 kHz       
#Detector temperature (°C)=	-69.85
#Instrument=	LabRAM HR Evol
#Detector=	Synapse
#Objective=	x100
#Grating=	600 gr/mm
#ND Filter=	100%
#Laser (nm)=	532 
#Hole=	100.021
#Range=	Auto
#Laser Pol.=	No
#Raman. Pol.=	No
#Laser Pol. (°)=	-0.0007625
#Raman Pol. (°)=	89.9995
#Collection=	Microscope
#StageXY=	Marzhauser
#StageZ=	Marzhauser
#X (µm)=	-5894.2
#Y (µm)=	2853.8
#Z (µm)=	-223.15
#Full time(mm:ss)=	3:18
#Project=	
#Sample=	
#Site=	
#Title=	Thy_20_09_14_2x_45s_532 nm_x100_100%_600 gr_mm
#Remark=	
#Date=	29.06.2022 11:41
#Acquired=	29.06.2022 11:41:30
#Base:Fit=	10.08.2022 09:52:02
#Base:Fit=	10.08.2022 09:52:12
#Base:Sub=	10.08.2022 09:54:21
#Filter:Polynom=	16.08.2022 10:24:04
#AxisType[0]=Intens
#AxisUnit[0]=Cnt
#AxisType[1]=Spectr
#AxisUnit[1]=1/cm
200.523	4.26002
202.339	3.28434
204.154	3.89005
205.967	4.79714
207.781	5.46844
209.596	5.43529
211.409	5.40158
213.222	5.66827
215.034	5.28964
216.848	5.47747
218.659	5.27137
220.47	4.49805
222.281	4.52026
224.091	4.21096
225.903	3.01983
227.713	1.88709
229.522	1.5369
231.331	2.03437
233.14	1.3308
234.948	1.54249
236.756	1.70133
238.566	2.15148
240.373	2.30051
242.18	2.6626
243.986	3.56907
245.792	3.58902
247.598	3.34823
249.403	3.84026
251.208	3.45022
253.013	3.52373
254.818	4.10852
256.624	5.37893
258.427	6.4134
260.231	5.92931
262.034	6.07104
263.836	6.76182
265.638	7.64951
267.44	8.1511
269.242	8.15549
271.043	8.33122
272.844	9.09018
274.645	9.54046
276.445	9.44763
278.245	10.3289
280.044	11.3875
281.843	12.2035
283.642	12.2476
285.44	13.2135
287.238	13.4513
289.036	15.1431
290.833	15.9646
292.63	16.2567
294.425	15.9291
296.221	16.7774
298.017	17.086
299.813	18.6465
301.608	19.1557
303.403	18.5127
305.198	17.9568
306.992	18.4319
308.786	18.2507
310.579	18.1427
312.371	17.9302
314.163	17.9086
315.956	18.3309
317.748	19.0428
319.54	20.1833
321.331	20.7681
323.122	21.1737
324.911	21.7752
326.701	22.0542
328.491	22.2554
330.281	22.5254
332.071	23.0885
333.857	22.8727
335.646	23.0261
337.434	23.0262
339.222	23.0327
341.008	22.8522
342.795	23.6293
344.582	23.925
346.369	23.4926
348.153	23.0396
349.939	23.0603
351.724	23.6113
353.51	24.1871
355.292	22.9126
357.077	21.3126
358.861	19.9173
360.643	19.655
362.426	19.1664
364.21	18.1278
365.99	19.1767
367.773	19.3479
369.555	19.0488
371.335	18.8487
373.116	18.9668
374.897	19.223
376.676	18.2685
378.456	17.3124
380.236	16.2898
382.014	16.2354
383.793	16.5013
385.57	17.0025
387.349	15.889
389.127	15.0505
390.903	14.4291
392.681	13.6218
394.456	14.2204
396.233	14.3359
398.007	14.1247
399.784	14.1575
401.56	14.309
403.333	15.1507
405.108	14.7404
406.881	13.7778
408.656	12.9506
410.428	13.1683
412.202	12.978
413.973	12.3746
415.746	11.6658
417.517	11.4784
419.29	11.9518
421.06	11.6128
422.831	10.4536
424.601	10.92
426.37	10.126
428.141	10.3874
429.909	10.0894
431.679	9.59249
433.447	8.9091
435.216	8.65815
436.983	7.64042
438.75	7.00018
440.519	5.2524
442.285	4.47042
444.052	3.06359
445.818	2.9975
447.583	3.79111
449.349	4.71895
451.114	5.01609
452.878	5.98161
454.643	6.62574
456.407	5.48395
458.169	5.0543
459.934	5.75889
461.696	5.93504
463.458	6.52949
465.222	5.97652
466.983	6.63099
468.744	7.86245
470.507	8.42281
472.267	8.2396
474.027	8.9643
475.787	9.18082
477.548	10.7681
479.307	12.1275
481.065	12.2394
482.823	13.2407
484.583	13.2172
486.341	14.6102
488.098	15.2692
489.855	14.7646
491.612	14.4475
493.37	14.3203
495.126	13.9439
496.881	14.0935
498.636	14.73
500.391	13.7013
502.148	13.3004
503.902	12.902
505.656	13.2469
507.409	11.9742
509.162	10.7104
510.915	10.5056
512.668	10.7541
514.42	10.3028
516.174	10.1762
517.925	9.68439
519.676	10.1134
521.427	9.79831
523.178	9.68121
524.928	9.40046
526.678	9.91187
528.427	9.60731
530.176	10.7071
531.925	10.579
533.673	10.1049
535.422	9.84329
537.169	9.51442
538.917	8.94352
540.664	8.31051
542.411	7.50236
544.157	7.32543
545.903	7.65685
547.649	8.49163
549.395	7.95546
551.14	8.26657
552.884	7.79628
554.629	7.62662
556.373	7.99029
558.117	7.81672
559.86	8.22467
561.603	9.30209
563.346	9.37743
565.089	9.67504
566.831	9.20971
568.573	9.16582
570.314	8.95846
572.053	7.89116
573.794	8.01378
575.534	6.69315
577.274	4.56456
579.014	4.65542
580.754	4.8472
582.493	3.84788
584.23	4.03401
585.968	3.49896
587.706	2.72857
589.444	3.05866
591.181	2.78004
592.919	3.05816
594.653	2.8921
596.39	3.53816
598.126	3.78977
599.862	3.22182
601.595	3.75213
603.33	4.22891
605.065	3.33437
606.8	3.89497
608.532	3.59297
610.266	3.26512
611.999	3.75742
613.732	3.32136
615.463	2.98758
617.196	2.58508
618.928	2.11552
620.66	1.32976
622.389	1.31109
624.12	1.92631
625.851	2.2087
627.58	2.08098
629.31	2.72423
631.04	2.82808
632.767	4.20674
634.497	5.06407
636.223	4.86976
637.952	5.26174
639.68	4.69411
641.406	4.21067
643.134	4.77045
644.861	5.16688
646.586	5.05629
648.312	5.32663
650.037	5.06899
651.762	5.00912
653.486	4.97833
655.211	5.07743
656.936	4.59213
658.659	4.19029
660.383	6.00315
662.105	6.36705
663.829	6.62645
665.55	8.29846
667.273	8.774
668.994	9.48987
670.716	10.4481
672.436	9.41689
674.158	9.9359
675.877	12.8054
677.598	14.6161
679.317	16.18
681.035	16.5943
682.755	17.9495
684.473	19.5373
686.192	20.3893
687.909	21.6547
689.628	23.4956
691.344	24.4393
693.06	27.027
694.778	27.4914
696.493	29.4247
698.211	31.5261
699.925	31.8279
701.64	33.6279
703.356	33.6807
705.07	33.9393
706.783	34.3671
708.498	35.9133
710.211	37.1107
711.924	37.0246
713.638	37.3997
715.35	38.1946
717.061	39.0466
718.774	39.6062
720.485	38.9683
722.196	38.5801
723.906	38.58
725.618	39.4756
727.328	39.5473
729.037	40.0727
730.746	40.5002
732.456	39.9781
734.165	40.136
735.873	39.8002
737.58	39.6395
739.289	39.8418
740.997	39.1435
742.703	38.9752
744.41	40.0406
746.116	40.6247
747.823	40.6173
749.529	40.6835
751.234	41.2705
752.938	41.9292
754.643	42.3972
756.347	42.6271
758.051	43.1827
759.756	45.6889
761.459	47.7603
763.162	47.8701
764.865	47.8768
766.567	48.1178
768.269	49.5065
769.97	49.4786
771.671	49.6639
773.372	50.5573
775.073	51.9295
776.773	51.7738
778.473	52.733
780.174	52.8392
781.874	53.0251
783.573	53.1318
785.271	52.0969
786.97	51.6792
788.668	50.0686
790.365	50.1535
792.063	50.4672
793.76	51.2973
795.456	52.0501
797.153	52.3324
798.847	53.1932
800.543	53.9253
802.238	54.7208
803.933	54.9809
805.628	55.6808
807.322	55.9978
809.017	56.1189
810.71	56.5134
812.404	56.3256
814.097	56.4745
815.79	57.0583
817.483	57.0119
819.173	57.126
820.865	57.0107
822.556	56.8011
824.248	56.9192
825.939	56.6208
827.629	57.4433
829.318	57.8739
831.008	58.0993
832.697	57.6971
834.387	57.4422
836.076	57.1824
837.765	56.5751
839.451	56.2209
841.139	55.9538
842.827	55.3941
844.514	54.317
846.2	53.7492
847.886	53.6212
849.573	52.6819
851.259	50.8595
852.943	50.3571
854.629	48.755
856.314	47.7363
857.997	46.3051
859.682	44.9534
861.366	44.0337
863.05	43.0669
864.732	41.8422
866.415	40.7675
868.098	40.7063
869.779	38.3589
871.461	37.9479
873.141	37.8382
874.823	37.6993
876.505	37.912
878.184	37.999
879.865	38.5484
881.545	37.8668
883.223	38.1294
884.903	37.7433
886.581	38.1946
888.26	36.9425
889.937	37.0507
891.616	37.2013
893.294	36.8183
894.97	36.8692
896.648	36.8175
898.323	36.5873
900	36.7711
901.675	36.0536
903.351	35.3626
905.026	34.3701
906.701	33.6281
908.375	33.8724
910.05	33.7275
911.723	33.8579
913.398	33.7584
915.07	33.1757
916.742	32.3059
918.415	32.1261
920.087	32.1181
921.76	31.4335
923.43	31.6712
925.103	30.6758
926.773	29.8869
928.443	28.8167
930.114	28.3493
931.783	27.5321
933.454	26.6927
935.123	25.2524
936.791	25.4728
938.461	24.8944
940.128	24.5183
941.796	23.7169
943.464	23.3074
945.131	23.7015
946.797	23.7616
948.465	24.0004
950.131	23.3082
951.797	22.9127
953.462	22.4558
955.128	22.9424
956.793	23.0851
958.457	22.1385
960.121	22.0633
961.786	22.4266
963.45	23.2524
965.113	22.5202
966.775	23.387
968.44	23.1975
970.102	23.3368
971.763	22.1741
973.425	23.0932
975.086	23.1522
976.748	22.8871
978.409	22.6457
980.069	22.7351
981.729	22.6095
983.388	22.9687
985.048	22.7279
986.708	21.9901
988.367	21.3237
990.025	21.0809
991.683	21.5987
993.341	20.6409
994.998	19.3604
996.655	18.5608
998.312	18.5423
999.969	18.1864
1001.62	17.2625
1003.28	17.3935
1004.94	15.9016
1006.59	15.4033
1008.25	14.7159
1009.9	13.9232
1011.56	13.1988
1013.21	12.7029
1014.86	11.9112
1016.52	11.4468
1018.17	10.6793
1019.82	11.0484
1021.48	9.28896
1023.13	9.26923
1024.78	9.46319
1026.43	9.90723
1028.08	10.5649
1029.73	10.5798
1031.38	9.68503
1033.03	8.85844
1034.68	9.11315
1036.33	8.92115
1037.98	8.91311
1039.63	8.38081
1041.28	8.14127
1042.93	9.26415
1044.57	9.73005
1046.22	9.88526
1047.87	9.1391
1049.52	9.61963
1051.16	9.72514
1052.81	10.5739
1054.45	11.3323
1056.1	11.6392
1057.75	11.9405
1059.39	12.4876
1061.04	13.0252
1062.68	13.2956
1064.32	13.6286
1065.97	14.0679
1067.61	13.2873
1069.25	12.8196
1070.9	13.4743
1072.54	13.7917
1074.18	13.2883
1075.82	12.6666
1077.47	12.9049
1079.11	13.3722
1080.75	13.5437
1082.39	14.1178
1084.03	13.2861
1085.67	13.4992
1087.31	13.028
1088.95	12.4541
1090.59	12.6552
1092.22	12.303
1093.86	12.69
1095.5	12.7831
1097.14	12.6899
1098.78	13.2854
1100.41	13.791
1102.05	13.2431
1103.69	13.0191
1105.32	14.4198
1106.96	14.9796
1108.59	15.029
1110.23	14.7144
1111.86	15.3523
1113.5	14.8783
1115.13	14.6567
1116.77	14.5769
1118.4	14.9378
1120.03	14.9924
1121.67	13.9235
1123.3	14.4381
1124.93	13.385
1126.56	12.2189
1128.19	11.8511
1129.83	10.9161
1131.46	12.0156
1133.09	12.4034
1134.72	12.9268
1136.35	12.3063
1137.98	12.0041
1139.61	13.8669
1141.24	13.3562
1142.86	13.2123
1144.49	12.2147
1146.12	12.2736
1147.75	12.0518
1149.38	10.5781
1151	10.1222
1152.63	10.1969
1154.26	9.62841
1155.88	8.91041
1157.51	9.22444
1159.14	9.09913
1160.76	7.91675
1162.39	7.58555
1164.01	6.95238
1165.63	5.33164
1167.26	5.67022
1168.88	5.19486
1170.51	5.39628
1172.13	6.41269
1173.75	7.57286
1175.38	7.35534
1177	6.73873
1178.62	5.77104
1180.24	6.27703
1181.86	6.13831
1183.48	6.66406
1185.1	7.23798
1186.72	8.46288
1188.34	9.02521
1189.96	9.09864
1191.58	9.64534
1193.2	10.1798
1194.82	9.69929
1196.44	10.0591
1198.06	10.7067
1199.68	11.2945
1201.29	11.734
1202.91	12.2517
1204.53	13.294
1206.14	14.0648
1207.76	15.8466
1209.38	17.3412
1210.99	19.6551
1212.61	21.6563
1214.22	23.2002
1215.84	25.8346
1217.45	26.6992
1219.07	28.1066
1220.68	29.6007
1222.29	29.2565
1223.91	30.5974
1225.52	30.8679
1227.13	31.8658
1228.74	32.5824
1230.36	33.3088
1231.97	35.2707
1233.58	36.7923
1235.19	37.6106
1236.8	38.7033
1238.41	39.3399
1240.02	39.3996
1241.63	39.8847
1243.24	41.3386
1244.85	41.7479
1246.46	43.1198
1248.07	43.7556
1249.67	44.0839
1251.28	45.3935
1252.89	46.0075
1254.5	46.0819
1256.1	45.8586
1257.71	46.1775
1259.32	46.3426
1260.92	47.655
1262.53	47.4255
1264.13	48.0419
1265.74	48.0525
1267.34	49.4803
1268.95	48.8776
1270.55	50.4427
1272.15	51.4268
1273.76	52.7574
1275.36	54.3574
1276.97	55.0792
1278.57	56.4048
1280.17	57.637
1281.77	58.8214
1283.37	59.1783
1284.97	60.4563
1286.58	61.8769
1288.18	63.1183
1289.78	63.547
1291.38	65.5624
1292.98	65.8633
1294.58	67.6032
1296.18	68.0396
1297.78	67.7461
1299.37	68.6869
1300.97	69.8917
1302.57	70.5586
1304.17	70.7136
1305.77	72.5166
1307.36	74.2539
1308.96	75.3192
1310.55	76.3578
1312.15	76.642
1313.75	76.9371
1315.34	78.1135
1316.94	78.1943
1318.53	77.7484
1320.13	78.349
1321.72	78.9537
1323.32	78.8693
1324.91	78.8371
1326.5	80.022
1328.1	79.1849
1329.69	78.6917
1331.28	79.1148
1332.87	79.1862
1334.47	78.1567
1336.06	78.4152
1337.65	78.3328
1339.24	77.6498
1340.83	77.5641
1342.42	77.1052
1344.01	76.4444
1345.6	76.6749
1347.19	76.543
1348.78	75.4058
1350.37	75.7189
1351.96	75.3151
1353.54	75.8322
1355.13	74.9242
1356.72	73.1888
1358.31	72.668
1359.89	71.111
1361.48	69.7919
1363.07	68.6227
1364.65	68.1321
1366.24	67.4586
1367.82	66.58
1369.41	65.2842
1370.99	64.9942
1372.58	63.0163
1374.16	62.3804
1375.75	61.2544
1377.33	61.097
1378.91	60.7416
1380.5	59.8995
1382.08	58.3938
1383.66	57.7564
1385.25	57.7989
1386.83	56.394
1388.41	55.1545
1389.99	53.6978
1391.57	52.9551
1393.15	52.4797
1394.73	52.6125
1396.31	51.5695
1397.89	51.1791
1399.47	51.169
1401.05	50.8567
1402.63	51.1167
1404.21	50.8084
1405.78	50.4308
1407.36	49.2485
1408.94	49.4952
1410.52	49.7971
1412.1	49.9195
1413.67	50.3733
1415.25	52.1922
1416.82	53.0429
1418.4	52.5461
1419.98	53.2017
1421.55	53.8866
1423.13	54.2341
1424.7	56.2251
1426.28	57.2445
1427.85	58.985
1429.42	60.5509
1431	61.9748
1432.57	62.4225
1434.14	62.6547
1435.71	62.624
1437.29	63.6921
1438.86	63.7862
1440.43	63.9654
1442	63.9315
1443.57	64.7748
1445.14	64.7539
1446.71	64.9435
1448.28	64.4454
1449.85	64.2061
1451.42	63.6044
1452.99	63.6454
1454.56	63.6711
1456.13	62.7556
1457.7	61.8347
1459.26	61.9175
1460.83	60.858
1462.4	60.7309
1463.97	59.9814
1465.54	58.7935
1467.1	57.323
1468.67	55.6946
1470.23	55.2148
1471.8	54.8591
1473.36	54.0295
1474.93	52.6239
1476.49	51.3757
1478.06	50.296
1479.62	48.8114
1481.19	46.7548
1482.75	44.3484
1484.31	42.4616
1485.88	41.4665
1487.44	40.7036
1489	39.4365
1490.56	39.2861
1492.13	38.7224
1493.69	37.1637
1495.25	35.5725
1496.81	34.6481
1498.37	34.4938
1499.93	34.0463
1501.49	33.2657
1503.05	32.4593
1504.61	31.5339
1506.17	30.996
1507.73	30.4915
1509.28	30.4969
1510.84	30.2848
1512.4	30.8222
1513.96	30.3254
1515.52	29.5416
1517.07	28.8541
1518.63	29.0259
1520.19	29.3236
1521.74	30.2641
1523.3	29.7977
1524.85	30.2914
1526.41	30.1568
1527.96	30.9328
1529.52	31.2814
1531.07	32.3869
1532.63	33.9241
1534.18	34.7848
1535.73	35.5287
1537.29	37.3488
1538.84	38.1146
1540.39	39.6689
1541.94	39.959
1543.5	41.587
1545.05	43.4664
1546.6	45.5451
1548.15	48.2388
1549.7	50.4392
1551.25	50.9387
1552.8	53.6083
1554.35	55.3471
1555.9	56.6834
1557.45	57.7353
1559	59.2245
1560.55	61.7804
1562.1	63.5111
1563.65	65.6096
1565.19	66.8893
1566.74	68.0215
1568.29	69.2837
1569.83	70.369
1571.38	72.0233
1572.93	73.3675
1574.47	74.5462
1576.02	75.4171
1577.56	75.9748
1579.11	76.9763
1580.66	77.4678
1582.2	79.1042
1583.74	79.8457
1585.29	79.8657
1586.83	79.5395
1588.38	79.0163
1589.92	78.2699
1591.46	77.4828
1593.01	77.705
1594.55	77.7556
1596.09	77.5779
1597.63	76.3289
1599.17	75.6224
1600.71	73.8782
1602.25	73.492
1603.79	72.458
1605.34	70.8502
1606.88	70.0404
1608.41	68.9505
1609.95	67.9613
1611.49	66.4021
1613.03	64.9866
1614.57	64.8707
1616.11	64.2218
1617.65	62.4319
1619.18	62.1922
1620.72	62.0696
1622.26	61.2536
1623.79	60.8536
1625.33	61.2942
1626.87	60.6702
1628.4	59.802
1629.94	60.2141
1631.48	59.4095
1633.01	58.53
1634.55	58.8248
1636.08	59.6183
1637.61	59.7396
1639.15	59.2261
1640.68	58.6887
1642.21	59.476
1643.75	59.2397
1645.28	59.4657
1646.81	59.9841
1648.34	59.6841
1649.88	58.7738
1651.41	58.7854
1652.94	58.3281
1654.47	58.0308
1656	57.7613
1657.53	56.1923
1659.06	55.7563
1660.59	54.6555
1662.12	53.2638
1663.65	52.6346
1665.18	51.5924
1666.71	50.5599
1668.24	49.7072
1669.76	48.1208
1671.29	46.4736
1672.82	44.3517
1674.35	43.0285
1675.87	41.1445
1677.4	38.7882
1678.93	37.4578
1680.45	35.091
1681.98	32.6773
1683.5	31.3902
1685.03	28.6572
1686.55	27.509
1688.08	26.4099
1689.6	24.9322
1691.13	23.8261
1692.65	21.7912
1694.17	20.4039
1695.7	19.1775
1697.22	17.0109
1698.74	16.0398
1700.27	15.7521
1701.79	15.4955
1703.31	14.3331
1704.83	13.826
1706.35	13.5207
1707.87	13.4569
1709.39	12.837
1710.91	12.4079
1712.43	11.8721
1713.95	11.3333
1715.47	11.1636
1716.99	10.2152
1718.51	10.4211
1720.03	9.2655
1721.55	9.3727
1723.07	8.79966
1724.58	8.28348
1726.1	8.14272
1727.62	8.30289
1729.13	7.41597
1730.65	7.70057
1732.17	6.9499
1733.68	6.3525
1735.2	6.26447
1736.72	5.44486
1738.23	4.26048
1739.74	3.99174
1741.26	3.64173
1742.77	3.17363
1744.29	2.82962
1745.8	2.19102
1747.32	2.17269
1748.83	1.05644
1750.34	1.21434
1751.85	0.430587
1753.37	0.420053
1754.88	0.288657
1756.39	-0.18929
1757.9	0.123813
1759.41	0.624901
1760.92	0.718405
1762.44	1.62188
1763.95	1.52241
1765.46	1.10025
1766.96	1.06794
1768.47	0.789206
1769.98	0.776257
1771.49	0.0947843
1773	0.909082
1774.51	1.4524
1776.02	2.23286
1777.53	2.21195
1779.03	2.06581
1780.54	2.15448
1782.05	1.62652
1783.55	1.51227
1785.06	0.656739
1786.57	0.776538
1788.07	1.49552
1789.58	1.71008
1791.08	1.98731
1792.59	1.74466
1794.09	2.36102
1795.6	2.3445
1797.1	2.40575
1798.61	2.34325
1800.11	2.78191
1801.61	2.94588
1803.12	3.39052
1804.62	3.359
1806.12	3.34074
1807.62	2.95378
1809.12	2.62069
1810.63	2.67886
1812.13	2.70681
1813.63	2.40784
1815.13	2.68464
1816.63	2.76474
1818.13	2.683
1819.63	3.0896
1821.13	3.1567
1822.63	3.56034
1824.13	3.44157
1825.63	3.67815
1827.13	3.78313
1828.62	3.95226
1830.12	3.87672
1831.62	4.06064
1833.12	3.96634
1834.61	3.4438
1836.11	3.44038
1837.61	2.95399
1839.1	2.68571
1840.6	2.55809
1842.09	2.32311
1843.59	2.22066
1845.09	1.78418
1846.58	1.75525
1848.08	1.53484
1849.57	1.52371
1851.06	1.52308
1852.56	1.6907
1854.05	1.83332
1855.54	1.36231
1857.04	1.63907
1858.53	1.4876
1860.02	1.3544
1861.51	2.03162
1863.01	1.70964
1864.5	2.02787
1865.99	2.05964
1867.48	2.0304
1868.97	2.58243
1870.46	2.10218
1871.95	2.50312
1873.44	2.87796
1874.93	2.98976
1876.42	3.29989
1877.91	3.14437
1879.4	2.71765
1880.89	2.69534
1882.37	2.8488
1882.46	2.80262
1883.95	3.25536
1885.45	3.83056
1886.94	3.70826
1888.43	4.15154
1889.93	4.97184
1891.42	5.18913
1892.91	5.49229
1894.41	4.87172
1895.9	4.84558
1897.39	4.89033
1898.88	4.68193
1900.37	4.33618
1901.86	3.90764
1903.36	3.43364
1904.85	3.18844
1906.34	2.91273
1907.83	2.98683
1909.32	3.07878
1910.81	2.19569
1912.29	2.47631
1913.78	2.28653
1915.27	2.50977
1916.76	2.4241
1918.25	2.88757
1919.74	3.66423
1921.23	3.86977
1922.71	4.84265
1924.2	4.55637
1925.69	4.75423
1927.17	4.32414
1928.66	3.72215
1930.15	4.16711
1931.63	3.75583
1933.12	4.21498
1934.6	4.13779
1936.09	4.14997
1937.57	4.59047
1939.06	4.52149
1940.54	4.90615
1942.02	5.12223
1943.51	4.62534
1944.99	4.61554
1946.47	4.48202
1947.96	4.78329
1949.44	4.74167
1950.92	4.35597
1952.4	4.64983
1953.88	5.22231
1955.37	4.87139
1956.85	4.66215
1958.33	4.35145
1959.81	4.23792
1961.29	3.82701
1962.77	4.25446
1964.25	4.63958
1965.73	3.76931
1967.21	3.21279
1968.69	2.66229
1970.16	2.83872
1971.64	2.30072
1973.12	1.78715
1974.6	1.67997
1976.08	1.05673
1977.55	0.770074
1979.03	0.520905
1980.51	0.674253
1981.98	0.433632
1983.46	0.618097
1984.94	0.815839
1986.41	1.81526
1987.89	2.22805
1989.36	2.27117
1990.84	2.44878
1992.31	2.57109
1993.79	2.73771
1995.26	2.17136
1996.73	2.51965
1998.21	1.87202
1999.68	1.9255
2001.15	1.78199
2002.63	2.12418
2004.1	2.65348
2005.57	2.14546
2007.04	2.24104
2008.51	2.11168
2009.99	3.03848
2011.46	3.18543
2012.93	3.71138
2014.4	3.73555
2015.87	3.62625
2017.34	4.20723
2018.81	4.02554
2020.28	4.59164
2021.75	4.19077
2023.21	4.16432
2024.68	4.1576
2026.15	4.45059
2027.62	4.41195
2029.09	4.59984
2030.56	5.38829
2032.02	5.99206
2033.49	6.735
2034.96	7.77474
2036.42	8.00101
2037.89	8.26399
2039.36	7.98555
2040.82	8.61202
2042.29	9.18461
2043.75	8.98603
2045.22	8.64847
2046.68	8.99974
2048.14	8.46825
2049.61	8.11212
2051.07	8.42853
2052.54	8.57084
2054	9.00809
2055.46	8.78338
2056.93	9.37976
2058.39	9.17293
2059.85	9.19262
2061.31	8.56321
2062.77	7.67412
2064.23	8.10204
2065.7	8.03089
2067.16	8.19201
2068.62	7.67998
2070.08	7.29406
2071.54	6.61332
2073	5.95508
2074.46	5.72412
2075.92	5.571
2077.38	4.82741
2078.83	4.30524
2080.29	4.15186
2081.75	4.03782
2083.21	3.74966
2084.67	3.5542
2086.12	3.54389
2087.58	3.18085
2089.04	3.48577
2090.49	3.69581
2091.95	3.49998
2093.41	3.79881
2094.86	3.7472
2096.32	4.63683
2097.77	5.10724
2099.23	5.89848
2100.68	7.39105
2102.14	8.54648
2103.59	8.89779
2105.05	9.5544
2106.5	10.1752
2107.95	10.7629
2109.41	10.866
2110.86	12.1465
2112.31	12.7396
2113.76	13.5236
2115.21	13.9887
2116.67	14.3781
2118.12	15.1614
2119.57	15.9409
2121.02	16.2929
2122.47	17.402
2123.92	18.2832
2125.37	18.9613
2126.82	19.6581
2128.27	19.9248
2129.72	20.8398
2131.17	21.3902
