#Acq. time (s)=	45
#Accumulations=	2
#Range (cm-¹)=	200...3150
#Windows=	2
#Auto scanning=	Off
#Autofocus=	Off
#Macrospot=	Off
#AutoExposure=	Off
#Spike filter=	Multiple accum.
#Delay time (s)=	0
#Binning=	1
#Readout mode=	Signal
#DeNoise=	Off
#ICS correction=	On
#Dark correction=	Off
#Inst. Process=	Off
#Detector Gain=	Best Dynamic Range
#Detector ADC=	20 kHz       
#Detector temperature (°C)=	-69.85
#Instrument=	LabRAM HR Evol
#Detector=	Synapse
#Objective=	x100
#Grating=	600 gr/mm
#ND Filter=	100%
#Laser (nm)=	532 
#Hole=	100.021
#Range=	Auto
#Laser Pol.=	No
#Raman. Pol.=	No
#Laser Pol. (°)=	-0.0007625
#Raman Pol. (°)=	89.9995
#Collection=	Microscope
#StageXY=	Marzhauser
#StageZ=	Marzhauser
#X (µm)=	-2354.8
#Y (µm)=	245.2
#Z (µm)=	521.65
#Full time(mm:ss)=	3:18
#Project=	
#Sample=	
#Site=	
#Title=	Thy_10_08_47_2x_45s_532 nm_x100_100%_600 gr_mm
#Remark=	
#Date=	06.07.2022 15:14
#Acquired=	06.07.2022 15:14:55
#Base:Fit=	10.08.2022 09:46:25
#Base:Sub=	10.08.2022 09:46:49
#Filter:Polynom=	16.08.2022 10:24:56
#AxisType[0]=Intens
#AxisUnit[0]=Cnt
#AxisType[1]=Spectr
#AxisUnit[1]=1/cm
200.398	-1.83008
202.213	-1.8
204.027	-0.410754
205.843	0.532535
207.657	1.36686
209.47	1.52176
211.283	1.74997
213.097	1.89248
214.909	2.5004
216.721	3.17337
218.533	3.72282
220.344	4.19354
222.157	3.79902
223.967	3.61557
225.777	4.24085
227.587	3.83416
229.396	4.01324
231.205	3.74099
233.016	4.17781
234.824	5.09371
236.632	4.53631
238.439	4.23357
240.247	3.89155
242.053	3.8905
243.86	3.88419
245.666	3.95476
247.474	4.24148
249.279	3.68634
251.085	3.17097
252.889	2.93714
254.694	2.81566
256.498	2.78679
258.301	1.91323
260.105	1.38796
261.908	1.49871
263.71	0.780652
265.513	1.11781
267.315	0.746918
269.116	1.54968
270.918	1.87907
272.718	2.06333
274.519	2.09803
276.319	1.39067
278.119	0.949004
279.918	1.78153
281.718	2.43171
283.516	3.24132
285.315	2.84274
287.113	3.01966
288.911	3.02233
290.708	3.15409
292.505	3.14333
294.302	3.40502
296.098	3.47634
297.894	3.70178
299.69	5.43789
301.485	7.2194
303.278	8.19087
305.073	8.97242
306.867	9.45403
308.661	10.0897
310.454	10.897
312.247	11.4029
314.04	12.5322
315.833	13.4035
317.623	13.0641
319.415	13.4577
321.206	13.853
322.997	14.7329
324.788	15.3965
326.579	14.3632
328.367	15.0882
330.156	14.7903
331.946	15.1502
333.735	15.3755
335.523	15.4826
337.31	15.2169
339.098	14.3351
340.885	14.0905
342.673	14.4996
344.458	14.1912
346.244	14.4946
348.03	13.8451
349.816	13.9106
351.6	13.6043
353.385	12.709
355.17	12.5057
356.953	12.0985
358.737	11.8799
360.521	10.9461
362.304	9.55476
364.085	9.28835
365.868	8.34236
367.65	8.66342
369.431	7.61321
371.212	7.00909
372.994	5.7351
374.773	4.98124
376.554	5.10364
378.332	4.29315
380.112	3.74664
381.892	3.65078
383.669	3.9634
385.448	3.62426
387.225	3.41044
389.003	3.613
390.781	2.86847
392.557	2.05836
394.334	1.84046
396.109	2.3237
397.885	2.017
399.66	2.01401
401.436	1.49774
403.211	1.20212
404.984	0.610331
406.759	-0.106555
408.532	-0.069124
410.306	0.645218
412.078	0.459787
413.851	0.54498
415.623	0.64544
417.395	0.983942
419.166	0.793585
420.938	1.32979
422.708	1.91787
424.477	1.98487
426.248	2.39747
428.017	3.22478
429.788	3.29555
431.556	3.62193
433.326	3.48909
435.093	4.37088
436.86	4.09325
438.629	4.73585
440.395	5.56387
442.163	6.03275
443.929	6.61772
445.694	7.45242
447.461	7.8966
449.226	8.28992
450.99	9.05433
452.756	10.1636
454.52	10.5496
456.285	11.2176
458.048	10.6405
459.811	11.7652
461.573	12.0572
463.337	13.1046
465.099	13.4613
466.86	13.0167
468.623	13.5133
470.384	13.6592
472.144	14.3407
473.906	14.036
475.666	14.1035
477.425	15.1168
479.184	15.3769
480.944	16.1443
482.703	16.4702
484.461	16.9991
486.218	16.9212
487.975	17.5913
489.734	17.8401
491.491	18.2149
493.247	18.337
495.003	18.1784
496.759	18.4887
498.516	18.8446
500.271	18.5735
502.025	18.545
503.779	18.8906
505.533	18.8325
507.287	19.1303
509.042	18.5933
510.795	19.0159
512.547	19.044
514.299	19.2578
516.051	19.3247
517.803	18.3839
519.554	19.3014
521.305	19.6269
523.055	19.7073
524.805	19.5188
526.555	20.1608
528.307	20.047
530.056	20.0112
531.805	20.2598
533.553	19.5084
535.301	19.165
537.049	18.4384
538.797	18.0779
540.544	17.4262
542.291	17.1615
544.037	16.8882
545.783	16.5188
547.529	16.0927
549.275	15.9537
551.02	15.7848
552.765	15.362
554.509	14.1334
556.253	13.6645
557.997	13.9187
559.738	14.1542
561.482	13.6599
563.224	13.0763
564.967	12.6787
566.709	12.4438
568.451	11.9402
570.192	11.5451
571.933	11.7742
573.674	11.4436
575.415	11.7115
577.153	11.5894
578.893	11.2189
580.632	10.7379
582.371	9.94952
584.11	9.17457
585.849	8.4559
587.587	7.72126
589.323	7.08545
591.06	7.53467
592.797	6.98133
594.534	6.21462
596.271	5.69446
598.005	6.0629
599.741	6.24832
601.476	6.56371
603.211	6.94072
604.944	7.03304
606.679	7.08189
608.413	7.07724
610.147	7.15114
611.878	7.59454
613.611	8.24501
615.344	8.14241
617.077	8.40779
618.807	7.75168
620.539	7.87757
622.27	8.61908
623.999	8.66126
625.73	8.99744
627.461	9.85728
629.189	11.0759
630.919	11.6454
632.648	11.9435
634.376	11.831
636.105	12.622
637.833	13.4424
639.559	13.6928
641.287	14.0316
643.013	16.0045
644.74	17.1341
646.467	17.1143
648.192	17.9678
649.918	18.8654
651.642	20.7258
653.368	21.5608
655.091	22.8134
656.816	24.1692
658.538	25.8305
660.263	26.8586
661.987	27.6977
663.708	27.1744
665.432	27.0174
667.153	27.553
668.875	27.4092
670.596	27.8101
672.318	27.9947
674.037	28.2083
675.759	29.1764
677.478	29.8472
679.196	30.4733
680.917	31.0181
682.635	32.0899
684.355	33.1538
686.072	34.016
687.791	34.441
689.508	34.901
691.224	34.8684
692.942	35.5253
694.658	36.5097
696.376	36.3051
698.091	36.5171
699.805	36.6671
701.522	36.5633
703.236	36.6432
704.95	37.0619
706.665	38.0538
708.379	38.8068
710.093	39.3897
711.806	39.8765
713.518	41.0389
715.23	42.3207
716.943	42.8074
718.655	43.5496
720.366	45.3757
722.078	46.9554
723.788	48.8807
725.498	50.0027
727.208	51.3868
728.919	53.109
730.628	53.2353
732.337	54.3668
734.045	56.2157
735.755	57.2163
737.463	58.6335
739.17	59.432
740.877	60.8215
742.584	62.2208
744.292	63.5524
745.998	64.7867
747.704	65.6751
749.409	66.651
751.114	68.6634
752.819	70.9124
754.526	71.7378
756.23	72.9157
757.934	74.0245
759.637	74.9635
761.34	76.3031
763.043	77.6052
764.746	78.7731
766.448	79.8179
768.152	80.7873
769.853	81.0362
771.554	81.343
773.255	81.9302
774.956	82.2917
776.656	82.4538
778.356	84.1348
780.056	84.374
781.755	84.9207
783.454	84.8678
785.153	85.371
786.851	86.016
788.549	87.0118
790.247	88.5771
791.944	90.0487
793.641	90.7131
795.338	90.8525
797.034	91.6486
798.73	93.3507
800.426	93.8469
802.121	94.0892
803.817	94.8253
805.511	96.1701
807.206	96.0661
808.9	96.555
810.592	96.0275
812.286	95.6722
813.979	95.5592
815.672	95.4631
817.364	95.8109
819.057	96.2062
820.748	96.0106
822.44	96.0884
824.129	95.7648
825.82	96.1089
827.511	96.3389
829.201	95.4853
830.891	95.0392
832.581	94.5754
834.269	94.4284
835.958	93.9427
837.646	92.8507
839.335	91.4024
841.023	90.2846
842.709	89.4707
844.396	87.3562
846.084	86.2343
847.77	85.3609
849.455	83.4504
851.141	82.2144
852.827	80.4058
854.513	79.2459
856.196	77.6412
857.881	76.6272
859.566	75.1008
861.248	73.8557
862.932	73.3574
864.616	72.3301
866.297	71.6098
867.98	69.9072
869.663	70.7928
871.343	70.4793
873.026	70.5656
874.707	70.1372
876.387	69.5062
878.068	68.0573
879.747	68.0124
881.428	67.8277
883.108	67.7651
884.786	67.1922
886.465	67.1953
888.143	67.2728
889.822	67.3599
891.498	67.3809
893.177	66.7763
894.855	66.7133
896.53	66.1239
898.208	66.0264
899.883	66.1175
901.56	65.7217
903.234	65.4945
904.91	64.9767
906.584	65.0702
908.26	65.1564
909.933	65.131
911.608	64.0248
913.28	64.2089
914.955	64.0381
916.627	64.2008
918.298	63.5904
919.972	62.4973
921.643	62.0413
923.315	61.7429
924.986	61.6813
926.656	61.4809
928.328	60.4707
929.997	60.5884
931.668	60.4504
933.337	59.9389
935.006	59.782
936.676	58.9999
938.344	58.3869
940.012	57.9199
941.681	57.8411
943.348	57.2481
945.014	58.2336
946.683	59.2031
948.349	59.3001
950.015	59.5487
951.682	59.2145
953.347	59.9229
955.012	58.0422
956.676	57.1462
958.343	55.1564
960.006	54.5213
961.67	54.8322
963.333	56.0808
964.998	56.2694
966.661	57.1418
968.323	57.6906
969.985	57.2584
971.649	57.5809
973.31	57.2267
974.971	57.0439
976.632	56.4781
978.293	56.9385
979.953	56.2962
981.615	56.2552
983.274	56.2663
984.933	55.3999
986.592	55.161
988.251	54.7861
989.909	54.4885
991.567	53.6341
993.225	52.6968
994.884	52.2777
996.541	51.7311
998.198	50.4169
999.855	50.5272
1001.51	49.6135
1003.17	49.5548
1004.82	49.885
1006.48	48.9434
1008.13	48.5909
1009.79	47.9666
1011.44	47.4306
1013.1	47.4528
1014.75	47.7586
1016.4	47.2343
1018.06	46.5726
1019.71	46.1096
1021.36	45.584
1023.01	45.1896
1024.66	44.9027
1026.32	44.7792
1027.97	44.1996
1029.62	43.1124
1031.27	42.3747
1032.92	41.9009
1034.57	40.5382
1036.22	39.2912
1037.87	37.9527
1039.52	37.4625
1041.16	37.154
1042.81	38.8715
1044.46	39.8914
1046.11	40.4326
1047.76	40.0954
1049.4	39.8623
1051.05	39.6111
1052.7	38.7221
1054.34	38.4085
1055.99	38.0783
1057.63	37.8282
1059.28	36.8527
1060.92	36.0668
1062.57	35.7313
1064.21	34.7693
1065.85	34.4538
1067.5	33.1318
1069.14	33.2378
1070.78	32.2529
1072.43	31.2136
1074.07	31.0101
1075.71	30.5218
1077.35	30.6278
1078.99	29.3242
1080.63	29.4217
1082.27	29.6385
1083.91	29.171
1085.55	29.614
1087.19	29.5955
1088.83	29.3217
1090.47	29.8997
1092.11	30.5688
1093.75	31.483
1095.39	31.1291
1097.03	31.0307
1098.66	30.0483
1100.3	30.3453
1101.94	30.4006
1103.57	30.4852
1105.21	30.5841
1106.84	31.3734
1108.48	31.439
1110.11	30.8145
1111.75	30.8054
1113.38	30.4899
1115.02	30.0362
1116.65	29.4339
1118.29	28.9769
1119.92	28.7467
1121.55	28.2425
1123.19	28.3386
1124.82	28.9168
1126.45	29.0931
1128.08	28.4708
1129.71	27.2272
1131.34	26.6527
1132.97	25.3806
1134.6	24.5712
1136.23	24.5944
1137.86	24.0718
1139.49	23.3936
1141.12	23.452
1142.75	23.4791
1144.38	22.8433
1146.01	22.1547
1147.64	21.5465
1149.26	20.0478
1150.89	19.7471
1152.52	18.4103
1154.15	16.9976
1155.77	16.7093
1157.4	15.969
1159.02	15.503
1160.65	14.6141
1162.27	14.8312
1163.9	15.2499
1165.52	15.0947
1167.15	14.9724
1168.77	15.2267
1170.39	14.8689
1172.02	15.5001
1173.64	16.6742
1175.26	17.0275
1176.89	17.386
1178.51	18.6259
1180.13	18.8855
1181.75	19.7413
1183.37	19.7043
1184.99	20.0702
1186.61	20.834
1188.23	21.3331
1189.85	21.3127
1191.47	20.9947
1193.09	22.003
1194.71	22.6957
1196.33	23.9175
1197.94	25.1684
1199.56	26.7092
1201.18	27.6477
1202.8	29.1784
1204.41	30.9589
1206.03	32.0751
1207.65	33.825
1209.26	34.3853
1210.88	36.2958
1212.49	38.1126
1214.11	39.0147
1215.72	41.2652
1217.34	43.4302
1218.95	44.7934
1220.57	45.9787
1222.18	47.5265
1223.79	48.2068
1225.41	48.9612
1227.02	50.0484
1228.63	49.9422
1230.24	50.9563
1231.85	52.1595
1233.47	52.8291
1235.08	53.8659
1236.69	55.0539
1238.3	55.7376
1239.91	56.4277
1241.52	56.762
1243.13	57.3267
1244.74	58.0416
1246.34	57.921
1247.95	58.3814
1249.56	59.5189
1251.17	59.3343
1252.78	59.5622
1254.38	59.2908
1255.99	58.6439
1257.6	57.9089
1259.2	57.0201
1260.81	56.5043
1262.42	56.6138
1264.02	56.5849
1265.63	56.6769
1267.23	56.6471
1268.84	55.9553
1270.44	56.3217
1272.04	56.1947
1273.65	56.5442
1275.25	56.9564
1276.85	57.2634
1278.46	57.3546
1280.06	57.4495
1281.66	57.8687
1283.26	58.1346
1284.86	59.0559
1286.46	59.3831
1288.07	61.1639
1289.67	61.3621
1291.27	62.5796
1292.87	63.432
1294.47	63.7613
1296.06	65.4424
1297.66	66.6306
1299.26	68.0083
1300.86	69.0188
1302.46	70.5899
1304.06	72.0028
1305.65	73.3311
1307.25	74.5732
1308.85	75.8674
1310.44	77.4663
1312.04	77.2032
1313.64	77.8713
1315.23	78.8124
1316.83	78.8445
1318.42	79.1803
1320.02	79.2305
1321.61	78.9091
1323.2	78.7665
1324.8	78.6215
1326.39	78.24
1327.99	77.9406
1329.58	77.4387
1331.17	75.8396
1332.76	75.26
1334.36	74.8782
1335.95	74.6087
1337.54	73.8407
1339.13	73.4974
1340.72	72.667
1342.31	71.7991
1343.9	70.7638
1345.49	68.916
1347.08	67.4139
1348.67	66.061
1350.26	64.7787
1351.85	63.2696
1353.43	62.3252
1355.02	61.44
1356.61	59.5606
1358.2	59.0275
1359.78	57.5311
1361.37	56.547
1362.96	55.3526
1364.54	54.9697
1366.13	53.6446
1367.71	53.454
1369.3	52.5202
1370.88	51.5825
1372.47	51.0858
1374.05	50.3482
1375.64	50.3463
1377.22	49.8832
1378.8	49.6777
1380.39	49.0751
1381.97	48.3153
1383.55	47.9443
1385.13	47.3821
1386.72	46.3881
1388.3	45.5857
1389.88	44.5569
1391.46	43.1633
1393.04	43.4453
1394.62	42.9288
1396.2	41.1565
1397.78	40.458
1399.36	39.97
1400.94	39.9392
1402.52	39.6816
1404.1	39.8191
1405.68	40.2236
1407.25	40.3839
1408.83	40.5347
1410.41	41.2962
1411.98	43.1839
1413.56	44.3594
1415.14	45.0421
1416.71	46.117
1418.29	47.2031
1419.87	49.0842
1421.44	50.4276
1423.02	51.6034
1424.59	53.6062
1426.16	55.434
1427.74	57.5908
1429.31	60.4295
1430.89	62.9201
1432.46	65.1516
1434.03	67.0946
1435.6	68.9751
1437.18	70.3614
1438.75	71.4399
1440.32	72.6901
1441.89	74.52
1443.46	75.3599
1445.03	76.5559
1446.6	77.1568
1448.17	77.1093
1449.74	76.6327
1451.31	75.8377
1452.88	75.023
1454.45	73.8825
1456.02	73.6258
1457.59	72.4811
1459.16	71.6295
1460.72	69.706
1462.29	67.3832
1463.86	65.1333
1465.43	62.5119
1466.99	60.6246
1468.56	57.7901
1470.13	54.7575
1471.69	52.7719
1473.26	49.5765
1474.82	46.8153
1476.38	44.9015
1477.95	42.3831
1479.51	39.9766
1481.08	37.3636
1482.64	35.8295
1484.2	34.2814
1485.77	32.7031
1487.33	30.6953
1488.89	29.5208
1490.46	28.3191
1492.02	26.6235
1493.58	25.538
1495.14	24.5844
1496.7	23.7563
1498.26	23.0296
1499.82	21.8576
1501.38	21.6714
1502.94	21.4745
1504.5	21.0163
1506.06	21.1723
1507.62	21.8081
1509.18	21.713
1510.73	21.7842
1512.29	22.0214
1513.85	21.6157
1515.41	21.5537
1516.96	22.5703
1518.52	22.9009
1520.08	23.3176
1521.63	23.3544
1523.19	23.5125
1524.75	23.7713
1526.3	24.3176
1527.85	24.8593
1529.41	25.0703
1530.96	26.0341
1532.52	27.3653
1534.07	28.9821
1535.62	28.7644
1537.18	30.2902
1538.73	30.0537
1540.28	31.1892
1541.84	32.1031
1543.39	32.7309
1544.94	33.815
1546.49	34.8807
1548.04	36.1178
1549.59	38.0558
1551.14	39.3455
1552.69	40.8913
1554.25	42.2542
1555.79	44.0339
1557.34	45.6468
1558.89	47.3701
1560.44	48.9727
1561.99	50.1413
1563.54	51.3273
1565.08	51.59
1566.63	52.4117
1568.18	53.2156
1569.73	54.6494
1571.27	54.8549
1572.82	55.2032
1574.37	56.3008
1575.91	56.407
1577.46	56.8497
1579	57.6029
1580.55	58.7055
1582.09	59.6074
1583.64	60.1899
1585.18	61.0174
1586.73	61.047
1588.27	61.3163
1589.81	61.3169
1591.35	61.4677
1592.9	62.6069
1594.44	62.6889
1595.98	61.5425
1597.52	60.8165
1599.06	60.701
1600.61	59.917
1602.15	59.4263
1603.69	58.7347
1605.23	58.3284
1606.77	58.1976
1608.31	58.295
1609.85	58.3502
1611.39	58.2112
1612.93	57.3974
1614.46	57.6781
1616	56.4992
1617.54	56.5008
1619.08	56.0501
1620.61	57.134
1622.15	58.6825
1623.69	59.3141
1625.23	59.283
1626.76	60.1597
1628.3	60.6152
1629.83	61.3458
1631.37	62.4782
1632.9	63.6945
1634.44	64.0628
1635.97	65.379
1637.51	65.9199
1639.04	66.5951
1640.57	67.7604
1642.11	68.5211
1643.64	69.2452
1645.17	70.8887
1646.71	72.2185
1648.24	72.8028
1649.77	73.8094
1651.3	74.513
1652.83	75.0188
1654.36	75.9657
1655.89	76.5228
1657.42	77.4267
1658.96	77.6397
1660.48	77.2123
1662.01	77.2922
1663.54	76.8398
1665.07	76.3361
1666.6	75.2606
1668.13	75.1287
1669.66	73.3342
1671.19	71.1313
1672.71	69.0061
1674.24	67.0251
1675.77	64.6621
1677.29	62.2964
1678.82	59.4112
1680.35	57.4573
1681.87	55.5843
1683.4	53.0942
1684.92	50.8305
1686.45	48.0933
1687.97	45.8607
1689.5	43.2596
1691.02	40.706
1692.54	37.736
1694.07	35.4014
1695.59	33.4571
1697.11	32.2394
1698.64	29.9534
1700.16	27.1503
1701.68	25.1492
1703.2	23.4583
1704.72	22.0039
1706.25	20.5655
1707.77	18.8945
1709.29	17.1036
1710.81	15.5251
1712.33	15.2053
1713.85	14.0391
1715.37	13.8242
1716.89	13.5725
1718.41	12.8423
1719.92	11.8231
1721.44	12.3393
1722.96	12.1511
1724.48	11.6792
1725.99	10.9118
1727.51	10.9928
1729.03	11.3331
1730.55	11.2556
1732.06	10.6746
1733.58	10.6982
1735.09	9.81589
1736.61	9.43858
1738.13	9.43383
1739.64	8.9244
1741.15	8.54103
1742.67	8.35095
1744.18	8.25677
1745.7	7.51389
1747.21	7.33985
1748.72	6.40239
1750.24	5.45812
1751.75	5.08843
1753.26	4.61857
1754.77	4.02345
1756.29	4.29106
1757.8	4.06718
1759.31	3.65566
1760.82	3.62833
1762.33	2.75535
1763.84	2.57265
1765.35	2.20704
1766.86	1.673
1768.37	1.05159
1769.88	0.947648
1771.39	1.07627
1772.9	1.06607
1774.4	0.346725
1775.91	0.315726
1777.42	0.860073
1778.93	0.96241
1780.44	1.14831
1781.94	1.05342
1783.45	0.967275
1784.96	0.849509
1786.46	1.18008
1787.97	1.8289
1789.47	1.99981
1790.98	2.19009
1792.48	2.059
1793.99	2.07897
1795.49	1.7937
1797	1.92278
1798.5	1.46458
1800.01	0.960819
1801.51	1.09955
1803.01	1.4237
1804.51	1.15231
1806.02	0.419776
1807.52	-0.0172563
1809.02	0.254063
1810.52	0.567695
1812.02	0.858122
1813.52	0.756312
1815.02	0.926967
1816.53	1.14222
1818.03	1.31851
1819.52	1.11271
1821.02	1.46531
1822.52	1.25338
1824.02	0.998359
1825.52	1.0335
1827.02	0.918396
1828.52	0.752114
1830.02	0.816302
1831.51	1.11351
1833.01	1.13868
1834.51	1.22359
1836.01	1.23813
1837.5	1.1458
1839	1.03291
1840.49	0.893279
1841.99	0.981405
1843.49	0.730665
1844.98	0.659563
1846.48	0.666281
1847.97	1.22637
1849.47	1.99924
1850.96	2.41837
1852.45	2.49882
1853.95	2.28686
1855.44	1.92454
1856.93	1.96171
1858.42	1.60431
1859.92	1.59793
1861.41	1.78586
1862.9	2.0623
1864.39	1.47107
1865.88	1.71022
1867.38	2.04254
1868.87	1.49617
1870.36	0.914889
1871.85	0.827326
1873.34	0.63773
1874.83	0.728111
1876.32	1.01691
1877.81	1.15579
1879.29	0.934106
1880.78	0.740121
1882.27	1.40058
1882.53	1.83389
1884.03	1.83503
1885.52	1.70874
1887.01	2.03675
1888.51	1.65077
1890	1.96579
1891.5	2.23255
1892.99	2.28423
1894.48	2.90055
1895.97	2.66116
1897.47	2.5469
1898.96	2.59643
1900.45	2.87299
1901.94	3.83273
1903.43	3.81724
1904.92	4.30462
1906.41	4.30171
1907.9	4.33719
1909.39	4.5369
1910.88	4.65749
1912.37	5.01741
1913.86	5.06486
1915.35	4.96398
1916.84	4.66898
1918.33	4.62108
1919.81	4.57263
1921.3	5.43541
1922.79	5.62262
1924.28	5.30098
1925.76	4.62781
1927.25	4.4536
1928.73	4.05849
1930.22	4.16386
1931.71	3.87769
1933.19	3.67692
1934.68	3.80712
1936.16	3.75977
1937.65	3.69763
1939.13	4.06057
1940.62	3.5308
1942.1	3.50956
1943.58	3.80513
1945.07	3.73735
1946.55	3.53563
1948.03	3.79234
1949.51	4.01259
1951	4.29938
1952.48	4.3278
1953.96	4.7092
1955.44	5.21704
1956.92	4.98007
1958.4	4.48022
1959.88	4.5983
1961.36	4.1225
1962.84	3.5858
1964.32	4.22817
1965.8	3.8623
1967.28	3.54183
1968.76	3.74588
1970.24	3.6013
1971.72	3.91633
1973.2	4.52378
1974.67	4.71481
1976.15	5.15224
1977.63	4.82044
1979.1	5.2356
1980.58	5.28787
1982.06	5.4183
1983.54	5.77434
1985.01	5.81888
1986.49	5.59718
1987.96	5.08785
1989.44	5.30804
1990.91	5.28531
1992.39	5.38983
1993.86	5.59879
1995.33	5.55932
1996.81	4.91902
1998.28	4.18153
1999.75	4.05306
2001.23	4.53179
2002.7	4.88855
2004.17	4.74534
2005.65	5.10395
2007.12	5.41286
2008.59	6.01096
2010.06	6.28481
2011.53	6.13688
2013	6.16886
2014.47	6.44135
2015.94	7.01238
2017.41	6.99526
2018.88	6.93017
2020.35	6.85285
2021.82	6.97918
2023.29	7.10141
2024.76	6.9166
2026.23	6.57232
2027.69	6.70061
2029.16	6.25017
2030.63	5.77929
2032.1	5.36547
2033.56	5.42035
2035.03	6.04286
2036.5	6.7657
2037.96	7.10706
2039.43	6.85606
2040.89	7.32249
2042.36	7.37735
2043.83	7.46602
2045.29	8.13716
2046.75	8.55898
2048.22	8.15321
2049.68	8.48707
2051.15	8.56823
2052.61	8.8766
2054.07	9.0187
2055.54	8.93959
2057	9.15704
2058.46	8.8872
2059.92	9.0456
2061.39	9.38298
2062.85	9.72387
2064.31	9.74886
2065.77	9.7623
2067.23	9.91986
2068.69	9.5415
2070.15	9.70214
2071.61	10.2269
2073.07	10.4692
2074.53	10.3054
2075.99	10.3249
2077.45	9.79824
2078.91	10.5876
2080.37	10.397
2081.82	10.6644
2083.28	10.9554
2084.74	10.4562
2086.2	11.1365
2087.65	10.9862
2089.11	11.015
2090.57	10.8921
2092.02	10.2558
2093.48	9.6117
2094.94	9.92411
2096.39	10.4025
2097.85	11.0181
2099.3	11.5162
2100.76	12.1552
2102.21	12.2207
2103.66	12.9104
2105.12	13.4491
2106.57	13.9307
2108.03	15.1826
2109.48	14.9311
2110.93	15.0158
2112.38	15.1938
2113.84	15.4251
2115.29	14.9458
2116.74	15.711
2118.19	16.2095
2119.64	16.081
2121.09	16.2183
2122.54	16.7895
2123.99	17.4054
2125.45	17.9795
2126.89	18.0286
2128.34	18.4071
2129.79	19.0031
2131.24	19.7483
