#Acq. time (s)=	45
#Accumulations=	2
#Range (cm-¹)=	200...3150
#Windows=	2
#Auto scanning=	Off
#Autofocus=	Off
#Macrospot=	Off
#AutoExposure=	Off
#Spike filter=	Multiple accum.
#Delay time (s)=	0
#Binning=	1
#Readout mode=	Signal
#DeNoise=	Off
#ICS correction=	On
#Dark correction=	Off
#Inst. Process=	Off
#Detector Gain=	Best Dynamic Range
#Detector ADC=	20 kHz       
#Detector temperature (°C)=	-69.85
#Instrument=	LabRAM HR Evol
#Detector=	Synapse
#Objective=	x100
#Grating=	600 gr/mm
#ND Filter=	100%
#Laser (nm)=	532 
#Hole=	100.021
#Range=	Auto
#Laser Pol.=	No
#Raman. Pol.=	No
#Laser Pol. (°)=	-0.0007625
#Raman Pol. (°)=	89.9995
#Collection=	Microscope
#StageXY=	Marzhauser
#StageZ=	Marzhauser
#X (µm)=	248.7
#Y (µm)=	1676.7
#Z (µm)=	427.65
#Full time(mm:ss)=	3:18
#Project=	
#Sample=	
#Site=	
#Title=	Thy_40_11_32_2x_45s_532 nm_x100_100%_600 gr_mm
#Remark=	
#Date=	05.07.2022 12:17
#Acquired=	05.07.2022 12:17:58
#Base:Fit=	10.08.2022 10:01:35
#Base:Sub=	10.08.2022 10:01:52
#Filter:Polynom=	16.08.2022 10:21:53
#AxisType[0]=Intens
#AxisUnit[0]=Cnt
#AxisType[1]=Spectr
#AxisUnit[1]=1/cm
200.43	15.7751
202.244	15.0495
204.059	14.3851
205.873	13.8333
207.688	12.9621
209.501	12.1272
211.314	11.9317
213.127	11.5832
214.941	11.2247
216.753	11.0552
218.564	10.4379
220.375	9.92415
222.186	9.87081
223.999	8.96208
225.809	8.92036
227.618	9.25112
229.428	8.93217
231.236	9.43394
233.045	9.94081
234.855	10.1108
236.663	9.97464
238.471	9.25372
240.278	8.94819
242.085	8.17703
243.891	8.26644
245.698	8.029
247.503	8.32135
249.309	8.0483
251.116	7.53106
252.921	7.59031
254.725	6.21198
256.529	6.57616
258.333	6.34003
260.136	6.16343
261.939	6.27554
263.742	6.77071
265.544	6.97884
267.346	7.40564
269.148	7.51938
270.949	7.35687
272.75	7.54717
274.55	6.79357
276.351	5.74447
278.15	4.46055
279.95	4.34446
281.749	4.26843
283.548	3.88851
285.346	3.92187
287.144	3.51153
288.942	4.1556
290.739	5.45364
292.536	5.72995
294.333	5.17326
296.129	5.27222
297.925	5.55485
299.721	5.82651
301.514	5.83828
303.309	4.59425
305.104	5.01103
306.898	4.9202
308.692	4.88301
310.486	5.1765
312.279	5.71773
314.072	5.49067
315.862	6.46844
317.654	6.75806
319.446	6.95137
321.238	7.67861
323.029	7.22161
324.819	6.41653
326.608	6.6371
328.398	6.77175
330.188	7.48924
331.977	7.67972
333.766	8.29439
335.553	8.48404
337.341	9.17625
339.129	8.56086
340.917	7.86669
342.704	7.8594
344.489	8.27288
346.275	7.93952
348.062	7.33309
349.845	7.21648
351.631	8.37172
353.416	8.15584
355.201	7.96878
356.984	8.60332
358.768	8.11201
360.552	7.75562
362.333	7.45097
364.116	6.77905
365.899	7.0307
367.68	7.99329
369.462	8.70189
371.243	8.95828
373.023	9.40063
374.804	9.42255
376.585	8.87848
378.363	8.74512
380.143	8.74869
381.923	7.90946
383.7	7.05083
385.479	7.3086
387.256	6.66396
389.034	7.22702
390.812	6.50408
392.588	7.36198
394.365	7.73093
396.14	7.29419
397.916	7.18964
399.691	7.12615
401.467	7.28158
403.24	7.5406
405.015	7.26892
406.788	6.7394
408.563	6.14545
410.335	5.50554
412.109	5.19999
413.88	5.13736
415.654	5.52152
417.424	5.1074
419.197	4.66016
420.967	4.24139
422.739	4.10328
424.508	3.79506
426.279	3.1632
428.048	2.87954
429.819	2.39064
431.587	2.72127
433.356	3.56583
435.124	3.73634
436.891	4.29496
438.66	5.0127
440.426	6.09299
442.194	6.21647
443.96	6.33418
445.725	6.73049
447.492	7.5563
449.257	8.95136
451.021	9.52056
452.787	10.5404
454.551	11.3243
456.314	12.6251
458.079	12.1156
459.842	12.5475
461.604	12.7224
463.368	12.8506
465.13	13.8877
466.891	15.0444
468.654	16.0245
470.415	16.6407
472.175	16.9822
473.935	17.8761
475.696	18.3817
477.456	19.25
479.215	19.8511
480.973	20.9549
482.733	21.3998
484.491	22.7391
486.249	22.9956
488.006	23.4082
489.765	23.3076
491.522	22.9787
493.278	22.1198
495.034	22.2859
496.789	22.372
498.544	22.1365
500.301	21.8534
502.056	21.9599
503.81	21.8924
505.564	21.8108
507.317	21.4136
509.071	20.8154
510.825	20.6266
512.578	20.6993
514.33	20.9535
516.082	21.5802
517.833	21.5821
519.585	22.3039
521.335	23.0952
523.086	23.2656
524.836	23.4087
526.586	23.9644
528.335	23.8391
530.085	23.2443
531.835	22.9085
533.584	23.2526
535.332	22.907
537.08	22.4114
538.827	21.5231
540.574	21.111
542.321	19.4157
544.068	18.6089
545.814	17.4388
547.56	16.9278
549.305	16.8221
551.05	16.3946
552.795	15.709
554.54	15.3445
556.282	15.3054
558.025	14.5524
559.769	14.6474
561.512	14.5703
563.255	14.1532
564.997	14.1802
566.739	14.1157
568.481	13.3877
570.223	12.9927
571.964	12.2932
573.705	10.8675
575.443	10.4097
577.183	9.5608
578.923	9.69179
580.663	9.73811
582.402	9.94843
584.141	9.5474
585.879	9.68589
587.615	9.25545
589.353	10.1102
591.09	9.77762
592.828	9.854
594.564	9.70557
596.299	10.6838
598.035	12.1801
599.771	12.7255
601.506	13.0549
603.242	14.1662
604.974	14.8363
606.709	15.4131
608.443	16.0594
610.177	16.4611
611.908	16.5588
613.642	16.3439
615.374	16.4774
617.105	16.8814
618.837	17.0545
620.569	17.748
622.3	17.579
624.03	17.5729
625.761	17.5674
627.491	17.217
629.219	16.8078
630.949	18.3298
632.677	19.5173
634.406	20.1993
636.135	21.0161
637.861	20.7399
639.59	21.3628
641.318	22.9641
643.043	23.5321
644.77	24.0944
646.495	24.8098
648.222	24.688
649.948	25.5423
651.672	26.0851
653.398	26.9439
655.121	27.0878
656.846	27.5739
658.569	29.3952
660.293	30.1753
662.015	31.1408
663.738	31.4335
665.46	32.631
667.183	33.3254
668.903	33.4349
670.626	33.7598
672.346	34.0276
674.067	34.3241
675.787	36.0365
677.508	36.9529
679.226	38.301
680.947	39.1109
682.665	40.7527
684.385	41.1871
686.102	42.2957
687.821	43.3039
689.538	44.3064
691.254	44.9139
692.972	45.4477
694.688	46.0257
696.406	46.5039
698.121	47.8131
699.835	48.7462
701.552	49.8146
703.266	50.176
704.98	50.3878
706.695	51.2783
708.409	50.9122
710.121	51.6735
711.836	52.5351
713.548	53.487
715.26	54.8996
716.973	56.5276
718.685	57.5578
720.396	58.3501
722.108	59.0163
723.818	60.2279
725.528	61.0931
727.238	62.5214
728.949	62.395
730.658	63.6021
732.367	64.4592
734.075	64.5233
735.785	64.3648
737.493	64.665
739.2	65.6123
740.907	65.1164
742.614	66.5009
744.322	67.6042
746.028	67.0461
747.734	67.0534
749.439	67.164
751.144	68.1681
752.849	68.4994
754.555	68.7122
756.26	69.7419
757.963	70.2971
759.667	71.753
761.37	72.2148
763.073	73.0679
764.775	73.7845
766.477	75.2958
768.179	76.9874
769.883	78.0502
771.584	79.7757
773.285	80.3161
774.986	80.8008
776.686	81.6263
778.386	82.1775
780.085	82.8496
781.785	83.9484
783.484	85.5581
785.182	86.15
786.881	87.2156
788.579	88.3923
790.276	90.0696
791.974	91.4593
793.671	93.2829
795.367	94.9979
797.064	95.809
798.76	97.6853
800.456	99.0808
802.151	99.5938
803.846	100.954
805.541	101.521
807.234	101.579
808.928	101.844
810.622	101.52
812.315	102.887
814.008	102.61
815.701	103.153
817.394	102.579
819.086	102.537
820.778	102.956
822.468	103.652
824.159	103.645
825.85	102.379
827.541	101.633
829.231	100.828
830.921	99.6734
832.609	99.4861
834.298	99.1966
835.987	98.5945
837.676	97.1963
839.364	96.1273
841.051	94.565
842.738	93.3241
844.426	92.567
846.113	91.8973
847.798	91.1094
849.484	89.5917
851.171	88.8642
852.857	86.4982
854.54	84.7919
856.226	83.6367
857.911	81.0626
859.593	79.297
861.278	78.7754
862.961	77.2566
864.645	75.9647
866.327	75.3022
868.01	74.0829
869.692	73.5593
871.373	73.8487
873.055	74.1967
874.735	73.7139
876.416	72.8827
878.097	72.4836
879.776	71.431
881.457	70.8982
883.135	70.0208
884.815	69.4426
886.495	68.018
888.172	68.1575
889.851	66.5487
891.528	65.5993
893.206	65.2913
894.882	64.5382
896.56	64.5519
898.237	63.38
899.912	63.0548
901.589	62.8029
903.263	61.9374
904.94	61.3372
906.614	59.8906
908.289	59.4906
909.962	58.3247
911.635	58.2379
913.31	58.1559
914.982	57.6209
916.656	57.6375
918.328	56.8253
920.001	56.5163
921.672	56.5044
923.345	56.8117
925.015	56.1956
926.685	56.3375
928.357	55.4326
930.026	54.3694
931.698	52.5879
933.366	52.2858
935.035	51.89
936.705	51.8534
938.373	51.7874
940.041	52.2654
941.71	51.2443
943.377	52.9373
945.044	53.5829
946.712	53.0124
948.378	54.1382
950.044	54.6116
951.709	54.5757
953.376	55.7722
955.041	56.2579
956.706	56.2147
958.372	55.1337
960.036	54.1277
961.699	53.7932
963.362	53.6451
965.027	53.7954
966.69	53.6905
968.352	54.0216
970.014	53.5039
971.676	53.5035
973.339	52.8454
975	53.2445
976.661	52.8068
978.322	51.9121
979.982	51.0246
981.642	49.9022
983.303	49.6216
984.962	48.6968
986.621	48.1241
988.28	47.6844
989.938	46.3988
991.596	46.1786
993.254	44.4726
994.911	43.359
996.57	42.6524
998.227	42.1025
999.884	41.9221
1001.54	41.1047
1003.2	40.8693
1004.85	39.7994
1006.51	38.3334
1008.16	37.4707
1009.82	36.7344
1011.47	35.3412
1013.12	35.4303
1014.78	34.9028
1016.43	35.329
1018.08	34.713
1019.74	35.4232
1021.39	34.9128
1023.04	35.1694
1024.69	34.5383
1026.34	35.1292
1028	33.444
1029.65	32.1179
1031.3	31.8612
1032.95	30.6147
1034.6	30.7335
1036.25	30.4069
1037.9	29.7715
1039.54	28.902
1041.19	28.3927
1042.84	27.4779
1044.49	27.9254
1046.14	27.8783
1047.78	27.4753
1049.43	27.1021
1051.08	26.6172
1052.72	26.0908
1054.37	25.7048
1056.02	25.1593
1057.66	24.2904
1059.31	23.3519
1060.95	22.7839
1062.6	22.8938
1064.24	23.3172
1065.88	23.6738
1067.53	23.2981
1069.17	23.5479
1070.81	22.8557
1072.45	22.8267
1074.1	22.6216
1075.74	22.4851
1077.38	23.2281
1079.02	24.1356
1080.66	24.1342
1082.3	24.4541
1083.94	25.1205
1085.58	25.4773
1087.22	25.1256
1088.86	25.3105
1090.5	25.4668
1092.14	25.0067
1093.78	25.1698
1095.42	26.2211
1097.05	25.5735
1098.69	26.1379
1100.33	26.0064
1101.96	25.6773
1103.6	25.3645
1105.24	25.3528
1106.87	24.8344
1108.51	24.8715
1110.14	23.9801
1111.78	23.8376
1113.41	23.5081
1115.05	22.9052
1116.68	22.4515
1118.31	20.257
1119.95	19.6077
1121.58	18.3849
1123.21	16.9379
1124.85	15.4264
1126.48	15.7207
1128.11	14.812
1129.74	13.3473
1131.37	12.8011
1133	11.9994
1134.63	10.6148
1136.26	9.71848
1137.89	9.1095
1139.52	8.34093
1141.15	8.33791
1142.78	8.43369
1144.41	7.58513
1146.04	6.71015
1147.66	6.54584
1149.29	6.29783
1150.92	5.6148
1152.55	5.16255
1154.17	5.41194
1155.8	5.23608
1157.43	5.17633
1159.05	5.15377
1160.68	4.65988
1162.3	4.26393
1163.93	4.46632
1165.55	4.13939
1167.17	3.34592
1168.8	2.75298
1170.42	3.09843
1172.05	3.96452
1173.67	4.74147
1175.29	5.09455
1176.91	5.75826
1178.54	5.60637
1180.16	6.49739
1181.78	6.43123
1183.4	6.31349
1185.02	6.84945
1186.64	6.61226
1188.26	6.35353
1189.88	6.78493
1191.5	6.09355
1193.12	5.7301
1194.74	6.41919
1196.36	7.08254
1197.97	7.54555
1199.59	8.2821
1201.21	9.00387
1202.83	8.72328
1204.44	9.16923
1206.06	9.9234
1207.68	10.7636
1209.29	10.8999
1210.91	11.1523
1212.52	12.099
1214.14	13.4585
1215.75	13.2342
1217.37	14.7022
1218.98	15.3866
1220.59	16.1978
1222.21	16.9253
1223.82	17.0341
1225.43	17.6329
1227.05	18.8502
1228.66	19.7364
1230.27	20.3746
1231.88	21.3474
1233.49	22.754
1235.1	23.9554
1236.72	24.4285
1238.33	25.1736
1239.94	26.209
1241.55	27.4589
1243.16	28.6533
1244.76	29.5631
1246.37	29.546
1247.98	30.3133
1249.59	31.2528
1251.2	32.5796
1252.8	33.4126
1254.41	33.4345
1256.02	33.9992
1257.62	34.6843
1259.23	34.7346
1260.84	35.2983
1262.44	34.9128
1264.05	35.5207
1265.66	36.6744
1267.26	37.1524
1268.86	38.191
1270.47	39.3403
1272.07	40.002
1273.67	40.3781
1275.28	42.2596
1276.88	42.3471
1278.48	42.8478
1280.09	43.202
1281.69	43.0764
1283.29	43.2163
1284.89	43.9477
1286.49	44.7411
1288.09	45.7747
1289.69	46.1307
1291.29	45.681
1292.89	46.1545
1294.49	45.6015
1296.09	45.0374
1297.69	45.8861
1299.29	45.824
1300.89	45.9973
1302.49	46.1291
1304.08	46.1149
1305.68	46.5515
1307.28	46.1752
1308.88	45.9705
1310.47	46.1004
1312.07	45.8933
1313.66	45.4909
1315.26	45.4771
1316.85	44.69
1318.45	44.3588
1320.04	44.4317
1321.64	44.0231
1323.23	43.0248
1324.83	42.0025
1326.42	40.9335
1328.01	40.5173
1329.61	39.7917
1331.2	39.0453
1332.79	39.0558
1334.38	39.2503
1335.97	38.9556
1337.56	38.4595
1339.16	37.9825
1340.75	38.3282
1342.34	37.5502
1343.93	37.5928
1345.52	36.9864
1347.11	35.6823
1348.7	34.8699
1350.29	34.0988
1351.87	33.2558
1353.46	32.8656
1355.05	33.1155
1356.64	31.2612
1358.22	31.5734
1359.81	31.4448
1361.4	30.7599
1362.98	31.4588
1364.57	31.2775
1366.16	31.1667
1367.74	30.9964
1369.33	29.9496
1370.91	29.4039
1372.5	29.4551
1374.08	28.3274
1375.67	28.5771
1377.25	28.0715
1378.83	27.3677
1380.41	26.5952
1382	25.8938
1383.58	24.9717
1385.16	24.8193
1386.74	24.5461
1388.33	23.5261
1389.91	22.6319
1391.49	22.2598
1393.07	21.7674
1394.65	20.776
1396.23	20.1521
1397.81	19.4762
1399.39	19.0968
1400.97	18.7692
1402.55	18.2403
1404.13	18.0336
1405.7	17.8839
1407.28	18.406
1408.86	18.9691
1410.44	20.0444
1412.01	20.8308
1413.59	21.1163
1415.17	20.6662
1416.74	21.2382
1418.32	22.1955
1419.89	23.1835
1421.47	22.5308
1423.04	23.5012
1424.62	24.4462
1426.19	25.7936
1427.77	27.5692
1429.34	29.4697
1430.91	31.451
1432.49	33.2965
1434.06	34.2927
1435.63	35.7419
1437.2	38.4363
1438.78	39.036
1440.35	39.1497
1441.92	40.2478
1443.49	39.489
1445.06	40.3952
1446.63	40.5857
1448.2	40.3321
1449.77	40.6565
1451.34	40.3464
1452.91	39.6719
1454.48	39.5683
1456.05	39.3791
1457.62	38.7318
1459.18	37.5669
1460.75	37.1643
1462.32	36.2569
1463.89	35.0019
1465.45	33.0951
1467.02	31.3809
1468.59	30.0489
1470.15	29.1235
1471.72	26.5439
1473.28	24.5949
1474.85	23.4276
1476.41	21.702
1477.98	20.6167
1479.54	18.2776
1481.1	16.5969
1482.67	15.0792
1484.23	13.9012
1485.79	13.2333
1487.36	12.4251
1488.92	11.682
1490.48	11.0748
1492.04	9.75656
1493.61	9.03657
1495.17	9.19115
1496.73	8.78362
1498.29	8.64333
1499.85	8.04735
1501.41	9.44043
1502.97	10.0634
1504.53	10.3125
1506.09	10.5197
1507.65	10.8348
1509.2	10.7702
1510.76	10.8594
1512.32	10.9373
1513.88	10.9081
1515.43	10.5699
1516.99	10.4974
1518.55	11.4912
1520.1	12.9514
1521.66	13.4557
1523.22	14.7442
1524.77	15.2321
1526.33	15.6555
1527.88	16.0492
1529.44	17.0631
1530.99	17.4156
1532.54	18.164
1534.1	18.9001
1535.65	19.2171
1537.21	19.7996
1538.76	20.8879
1540.31	21.0563
1541.86	21.4993
1543.42	22.6969
1544.97	24.4876
1546.52	25.3693
1548.07	27.0702
1549.62	26.6945
1551.17	28.3847
1552.72	29.4998
1554.27	30.2356
1555.82	31.098
1557.37	31.8064
1558.92	33.3653
1560.47	34.594
1562.02	35.9377
1563.56	37.1723
1565.11	37.7059
1566.66	38.2106
1568.21	38.9296
1569.75	39.2724
1571.3	40.4665
1572.85	40.3953
1574.39	40.5898
1575.94	41.1487
1577.49	40.8851
1579.03	42.2072
1580.57	42.2611
1582.12	41.7948
1583.66	42.3062
1585.21	42.6058
1586.75	42.7856
1588.3	43.2037
1589.84	43.3545
1591.38	43.4362
1592.92	43.7821
1594.47	44.7011
1596.01	45.1795
1597.55	44.4291
1599.09	43.8206
1600.63	44.1898
1602.17	43.858
1603.71	43.9344
1605.25	44.5584
1606.79	44.5908
1608.33	43.3361
1609.87	43.2502
1611.41	42.8899
1612.95	43.0248
1614.49	43.6009
1616.03	44.0277
1617.57	44.6486
1619.1	45.38
1620.64	45.8868
1622.18	45.8764
1623.72	45.3811
1625.25	45.2778
1626.79	44.8786
1628.32	45.6715
1629.86	45.5308
1631.39	45.5799
1632.93	46.1502
1634.46	46.8944
1636	47.6541
1637.53	48.1174
1639.07	48.003
1640.6	48.0345
1642.13	47.9084
1643.67	48.2112
1645.2	48.992
1646.73	48.3269
1648.26	48.3031
1649.8	48.1568
1651.33	48.7095
1652.86	48.6349
1654.39	48.9477
1655.92	49.1741
1657.45	48.2732
1658.98	47.6525
1660.51	47.5472
1662.04	47.3639
1663.57	46.9458
1665.1	46.0945
1666.63	46.1139
1668.16	45.1804
1669.68	44.3292
1671.21	43.4442
1672.74	42.309
1674.27	41.2105
1675.79	40.0738
1677.32	38.904
1678.85	37.2551
1680.37	35.9941
1681.9	33.9478
1683.42	31.5163
1684.95	29.3819
1686.47	28.2857
1688	27.1804
1689.52	25.7869
1691.05	24.5246
1692.57	22.8159
1694.09	20.9031
1695.62	18.7034
1697.14	16.9143
1698.66	15.4326
1700.18	14.2632
1701.71	13.0823
1703.23	12.1908
1704.75	10.8352
1706.27	10.097
1707.79	9.52225
1709.31	8.88714
1710.83	7.89646
1712.35	6.74961
1713.87	5.81745
1715.39	4.71667
1716.91	3.95053
1718.43	3.5247
1719.95	3.35831
1721.47	3.16417
1722.99	2.65827
1724.5	2.84057
1726.02	2.76236
1727.54	2.4203
1729.06	2.25515
1730.57	2.25213
1732.09	1.29502
1733.61	1.26352
1735.12	1.39199
1736.64	1.62818
1738.15	1.63178
1739.67	1.4211
1741.18	1.50549
1742.7	1.91739
1744.21	1.31158
1745.72	1.56699
1747.24	1.46614
1748.75	1.54131
1750.26	0.949576
1751.77	0.454727
1753.29	0.722563
1754.8	0.572146
1756.31	1.05208
1757.82	0.562461
1759.33	0.696193
1760.84	0.684961
1762.36	0.989566
1763.87	1.15424
1765.38	0.624659
1766.89	0.867875
1768.4	0.627167
1769.91	0.341928
1771.41	0.585071
1772.92	0.669804
1774.43	0.640629
1775.94	0.987636
1777.45	1.04247
1778.95	1.00294
1780.46	1.00405
1781.97	1.01195
1783.48	1.03649
1784.98	0.85878
1786.49	0.955642
1787.99	1.20834
1789.5	1.3215
1791.01	1.37352
1792.51	1.53063
1794.01	2.04329
1795.52	1.97324
1797.02	1.91386
1798.53	2.21136
1800.03	2.20138
1801.53	2.35045
1803.04	2.15369
1804.54	2.51912
1806.04	2.24896
1807.54	2.43757
1809.05	3.11563
1810.55	2.97822
1812.05	3.00136
1813.55	2.9136
1815.05	2.80267
1816.55	2.71338
1818.05	2.64999
1819.55	2.6986
1821.05	2.48059
1822.55	2.04888
1824.05	1.74861
1825.55	1.92297
1827.05	2.32349
1828.55	2.59617
1830.04	2.27302
1831.54	2.25867
1833.04	1.86052
1834.54	2.32504
1836.03	1.55056
1837.53	0.878116
1839.03	0.931957
1840.52	0.544074
1842.02	1.06212
1843.51	1.24183
1845.01	1.27218
1846.5	1.36561
1848	1.48072
1849.49	1.49294
1850.99	1.62552
1852.48	1.77447
1853.97	1.47541
1855.47	2.14302
1856.96	2.27614
1858.45	2.33614
1859.94	2.0613
1861.44	2.13075
1862.93	1.93402
1864.42	2.07669
1865.91	2.01898
1867.4	1.85866
1868.89	2.24038
1870.38	2.20319
1871.87	2.71157
1873.36	3.16761
1874.85	3.59401
1876.34	4.03039
1877.83	4.40708
1879.32	4.7293
1880.81	4.38585
1882.3	4.85471
1882.57	4.97492
1884.07	4.5472
1885.56	4.35249
1887.06	4.30169
1888.55	4.07832
1890.04	4.0799
1891.54	4.30462
1893.03	3.95245
1894.52	3.51212
1896.02	3.40562
1897.51	3.64948
1899	3.74247
1900.49	3.08018
1901.98	3.09016
1903.47	3.22379
1904.96	3.01939
1906.45	2.64312
1907.94	2.29252
1909.43	1.20893
1910.92	1.14588
1912.41	2.03335
1913.9	1.79916
1915.39	1.79444
1916.88	1.21411
1918.37	1.11517
1919.85	1.23596
1921.34	1.47442
1922.83	0.600178
1924.32	0.507979
1925.8	0.0389092
1927.29	-0.132582
1928.78	-0.0550064
1930.26	-0.263442
1931.75	-0.197314
1933.23	-0.261951
1934.72	-0.0288781
1936.2	0.187135
1937.69	0.742485
1939.17	1.267
1940.66	1.49101
1942.14	1.25474
1943.63	1.15707
1945.11	1.73957
1946.59	2.04925
1948.07	2.37871
1949.56	2.39977
1951.04	2.70502
1952.52	2.9503
1954	3.06368
1955.48	3.52861
1956.96	3.68748
1958.45	3.43329
1959.93	4.00922
1961.41	4.37468
1962.89	4.62889
1964.37	4.84942
1965.85	4.87459
1967.32	4.99999
1968.8	5.08112
1970.28	4.9502
1971.76	5.50146
1973.24	5.27375
1974.72	4.7698
1976.19	5.36438
1977.67	5.24738
1979.15	5.0983
1980.63	4.9223
1982.1	4.67751
1983.58	4.50331
1985.05	4.61226
1986.53	4.08948
1988	3.66188
1989.48	3.51736
1990.95	3.21876
1992.43	2.97747
1993.9	2.98666
1995.38	2.67652
1996.85	2.57891
1998.32	3.16984
1999.8	3.57316
2001.27	3.9326
2002.74	4.13176
2004.22	4.15963
2005.69	4.14657
2007.16	3.84507
2008.63	3.88804
2010.1	4.1033
2011.57	3.983
2013.04	3.89082
2014.51	3.56578
2015.98	3.80065
2017.45	4.08219
2018.92	4.7522
2020.39	4.89597
2021.86	5.06461
2023.33	5.15429
2024.8	5.84675
2026.27	5.65349
2027.74	6.02118
2029.2	5.84242
2030.67	6.22103
2032.14	6.02171
2033.61	6.19675
2035.07	6.00005
2036.54	6.15085
2038.01	6.07533
2039.47	6.33302
2040.94	6.88797
2042.4	7.06608
2043.87	7.53333
2045.33	8.24965
2046.8	7.9295
2048.26	8.2569
2049.72	9.0457
2051.19	8.80939
2052.65	8.82671
2054.12	9.04406
2055.58	9.26412
2057.04	9.34544
2058.5	9.76183
2059.97	9.38323
2061.43	9.90666
2062.89	9.67123
2064.35	9.67755
2065.81	10.0492
2067.27	11.0501
2068.73	11.2221
2070.19	11.7397
2071.65	12.4385
2073.11	13.0193
2074.57	13.1935
2076.03	13.2684
2077.49	13.1375
2078.95	13.2992
2080.41	13.1103
2081.87	13.6406
2083.32	14.4631
2084.78	14.3982
2086.24	14.6501
2087.7	14.7133
2089.15	15.0626
2090.61	14.9854
2092.07	15.8303
2093.52	15.9415
2094.98	16.033
2096.43	16.7601
2097.89	17.3045
2099.34	17.3844
2100.8	17.8176
2102.25	18.0759
2103.71	19.0157
2105.16	19.2023
2106.61	20.2412
2108.07	20.7463
2109.52	21.431
2110.97	22.0885
2112.43	23.0782
2113.88	23.5337
2115.33	23.8784
2116.78	24.2558
2118.23	25.3098
2119.68	25.5676
2121.13	26.0305
2122.59	26.7821
2124.04	27.701
2125.49	28.9417
2126.94	30.0636
2128.39	30.2942
2129.83	30.8231
2131.28	31.9106
