#Acq. time (s)=	45
#Accumulations=	2
#Range (cm-¹)=	200...3150
#Windows=	2
#Auto scanning=	Off
#Autofocus=	Off
#Macrospot=	Off
#AutoExposure=	Off
#Spike filter=	Multiple accum.
#Delay time (s)=	0
#Binning=	1
#Readout mode=	Signal
#DeNoise=	Off
#ICS correction=	On
#Dark correction=	Off
#Inst. Process=	Off
#Detector Gain=	Best Dynamic Range
#Detector ADC=	20 kHz       
#Detector temperature (°C)=	-69.85
#Instrument=	LabRAM HR Evol
#Detector=	Synapse
#Objective=	x100
#Grating=	600 gr/mm
#ND Filter=	100%
#Laser (nm)=	532 
#Hole=	100.021
#Range=	Auto
#Laser Pol.=	No
#Raman. Pol.=	No
#Laser Pol. (°)=	-0.0007625
#Raman Pol. (°)=	89.9995
#Collection=	Microscope
#StageXY=	Marzhauser
#StageZ=	Marzhauser
#X (µm)=	-1462.5
#Y (µm)=	-619.9
#Z (µm)=	-228.45
#Full time(mm:ss)=	3:19
#Project=	
#Sample=	
#Site=	
#Title=	Thy_00_07_41_2x_45s_532 nm_x100_100%_600 gr_mm
#Remark=	
#Date=	29.06.2022 09:22
#Acquired=	29.06.2022 09:22:49
#Base:Fit=	10.08.2022 10:07:56
#Base:Sub=	10.08.2022 10:08:40
#Filter:Polynom=	16.08.2022 10:26:06
#AxisType[0]=Intens
#AxisUnit[0]=Cnt
#AxisType[1]=Spectr
#AxisUnit[1]=1/cm
200.523	22.7522
202.339	19.3607
204.154	16.2656
205.967	14.403
207.781	12.205
209.596	10.6063
211.409	9.71168
213.222	7.69586
215.034	6.71306
216.848	6.66651
218.659	6.94097
220.47	6.58618
222.281	6.07806
224.091	5.35141
225.903	4.59183
227.713	4.56828
229.522	3.48921
231.331	3.90316
233.14	4.77555
234.948	4.91495
236.756	4.17118
238.566	5.30951
240.373	5.32304
242.18	5.17412
243.986	5.49825
245.792	5.59148
247.598	6.2379
249.403	6.77696
251.208	7.8849
253.013	8.42445
254.818	8.1174
256.624	7.85078
258.427	7.92984
260.231	8.00339
262.034	7.90424
263.836	6.71403
265.638	6.67233
267.44	7.04331
269.242	6.50096
271.043	5.02678
272.844	5.65181
274.645	5.67389
276.445	6.28364
278.245	6.34619
280.044	7.02243
281.843	6.52789
283.642	6.11994
285.44	6.70534
287.238	7.33467
289.036	6.99798
290.833	8.16168
292.63	9.65833
294.425	10.0579
296.221	10.4075
298.017	11.6696
299.813	12.3844
301.608	11.8937
303.403	11.3292
305.198	13.2082
306.992	13.6649
308.786	13.4498
310.579	13.2655
312.371	13.0289
314.163	13.6903
315.956	14.9821
317.748	15.9029
319.54	16.6513
321.331	17.617
323.122	18.1967
324.911	18.5914
326.701	19.3458
328.491	20.1732
330.281	18.9106
332.071	19.7986
333.857	20.0072
335.646	20.0035
337.434	20.1669
339.222	19.9198
341.008	19.9137
342.795	18.4261
344.582	17.761
346.369	17.0325
348.153	17.3737
349.939	16.6414
351.724	15.5064
353.51	15.0897
355.292	14.074
357.077	13.4229
358.861	12.5327
360.643	12.9112
362.426	13.3652
364.21	12.7031
365.99	12.3549
367.773	11.3625
369.555	10.7458
371.335	10.3118
373.116	10.9572
374.897	11.2828
376.676	11.7504
378.456	11.8799
380.236	12.1673
382.014	11.1672
383.793	10.3808
385.57	10.2256
387.349	9.80696
389.127	8.6905
390.903	8.39028
392.681	7.5579
394.456	7.38964
396.233	6.58115
398.007	6.50866
399.784	6.07867
401.56	6.01903
403.333	6.30816
405.108	6.22809
406.881	5.51209
408.656	5.61951
410.428	5.18566
412.202	5.72515
413.973	5.84194
415.746	5.21086
417.517	4.60951
419.29	4.23399
421.06	4.6575
422.831	3.52938
424.601	4.30073
426.37	4.61814
428.141	4.94783
429.909	4.50921
431.679	3.48977
433.447	2.95499
435.216	3.1901
436.983	4.00779
438.75	4.1602
440.519	5.14565
442.285	6.77452
444.052	7.12761
445.818	7.71314
447.583	8.86422
449.349	9.63221
451.114	8.95181
452.878	8.71217
454.643	9.13382
456.407	10.0532
458.169	10.3695
459.934	11.3989
461.696	13.0909
463.458	13.6524
465.222	14.2743
466.983	14.4791
468.744	14.4191
470.507	14.1813
472.267	14.6171
474.027	14.6226
475.787	14.7329
477.548	14.1562
479.307	14.6895
481.065	13.9109
482.823	14.3437
484.583	14.868
486.341	14.763
488.098	15.0419
489.855	16.1764
491.612	16.5679
493.37	17.8311
495.126	18.5952
496.881	18.8999
498.636	18.7247
500.391	18.8383
502.148	18.8373
503.902	18.7828
505.656	18.4215
507.409	17.9712
509.162	17.8261
510.915	18.6743
512.668	19.4929
514.42	19.2516
516.174	18.7349
517.925	17.9006
519.676	18.2982
521.427	18.4874
523.178	19.3554
524.928	18.9561
526.678	19.3301
528.427	19.7946
530.176	18.1403
531.925	16.8819
533.673	15.7626
535.422	15.3619
537.169	14.41
538.917	13.455
540.664	13.459
542.411	13.27
544.157	12.5876
545.903	11.242
547.649	10.6289
549.395	9.93544
551.14	8.54253
552.884	7.12124
554.629	5.62544
556.373	4.77377
558.117	4.33243
559.86	4.37211
561.603	4.024
563.346	3.39814
565.089	3.00101
566.831	3.70074
568.573	3.8941
570.314	5.0598
572.053	6.5681
573.794	6.51899
575.534	7.27737
577.274	7.72507
579.014	8.02325
580.754	9.22688
582.493	8.68727
584.23	8.43335
585.968	8.55692
587.706	9.30309
589.444	9.18798
591.181	8.9176
592.919	8.8734
594.653	9.148
596.39	9.94219
598.126	10.3979
599.862	10.1245
601.595	10.2746
603.33	10.9795
605.065	11.2541
606.8	12.1919
608.532	11.5503
610.266	12.0046
611.999	11.1947
613.732	10.9886
615.463	10.5943
617.196	9.51178
618.928	10.294
620.66	10.2286
622.389	9.69186
624.12	10.2228
625.851	8.95796
627.58	8.49661
629.31	9.05076
631.04	9.14877
632.767	9.06581
634.497	9.47752
636.223	10.3978
637.952	10.439
639.68	10.5773
641.406	10.9728
643.134	11.7123
644.861	12.3244
646.586	12.2958
648.312	13.1871
650.037	13.6599
651.762	14.4663
653.486	15.9303
655.211	16.3756
656.936	16.7105
658.659	17.0761
660.383	16.9513
662.105	17.4242
663.829	18.2582
665.55	19.5163
667.273	19.4407
668.994	18.9093
670.716	18.9756
672.436	19.4027
674.158	19.7516
675.877	19.3727
677.598	19.3848
679.317	18.8868
681.035	18.804
682.755	18.8935
684.473	19.1705
686.192	20.1691
687.909	21.3446
689.628	21.9922
691.344	21.2418
693.06	22.1508
694.778	22.406
696.493	23.2193
698.211	23.9981
699.925	26.3056
701.64	27.8883
703.356	28.0998
705.07	28.4147
706.783	28.7402
708.498	29.8376
710.211	31.1875
711.924	31.9386
713.638	34.2826
715.35	36.1767
717.061	37.1701
718.774	39.0521
720.485	40.409
722.196	41.0492
723.906	40.6062
725.618	40.7574
727.328	41.6215
729.037	42.3851
730.746	43.5468
732.456	44.0922
734.165	45.5155
735.873	45.9474
737.58	47.232
739.289	48.4975
740.997	49.8598
742.703	51.1428
744.41	52.396
746.116	53.6954
747.823	54.4068
749.529	55.7618
751.234	57.872
752.938	58.4523
754.643	59.6688
756.347	61.0818
758.051	63.0279
759.756	64.1261
761.459	65.6966
763.162	66.0724
764.865	66.8533
766.567	68.9421
768.269	69.4971
769.97	71.5516
771.671	73.1938
773.372	74.4556
775.073	75.4717
776.773	76.8661
778.473	77.996
780.174	78.5916
781.874	78.9568
783.573	80.194
785.271	80.7195
786.97	80.0323
788.668	79.5831
790.365	80.1383
792.063	80.472
793.76	80.768
795.456	79.8419
797.153	79.9243
798.847	79.815
800.543	79.7416
802.238	79.0866
803.933	78.793
805.628	77.0872
807.322	75.9243
809.017	74.6327
810.71	74.7162
812.404	74.4915
814.097	74.3822
815.79	74.2225
817.483	75.1794
819.173	75.3592
820.865	74.9694
822.556	74.7148
824.248	73.8676
825.939	73.3498
827.629	72.71
829.318	71.9814
831.008	71.5652
832.697	71.2798
834.387	72.1868
836.076	71.8321
837.765	70.566
839.451	70.7371
841.139	71.0578
842.827	70.434
844.514	69.6552
846.2	68.3464
847.886	66.0079
849.573	65.1287
851.259	64.0133
852.943	63.3061
854.629	63.8008
856.314	63.1778
857.997	61.193
859.682	59.735
861.366	58.2059
863.05	55.9424
864.732	54.3765
866.415	53.1919
868.098	53.0381
869.779	51.8436
871.461	50.6111
873.141	49.6849
874.823	48.198
876.505	46.5566
878.184	45.2361
879.865	44.0406
881.545	43.8656
883.223	44.1117
884.903	44.2061
886.581	43.2807
888.26	43.7036
889.937	43.6165
891.616	43.9582
893.294	44.3419
894.97	44.7314
896.648	45.5309
898.323	46.9977
900	47.351
901.675	48.5641
903.351	47.532
905.026	47.5539
906.701	48.4317
908.375	48.2276
910.05	48.7509
911.723	49.2397
913.398	48.9795
915.07	49.1263
916.742	50.0109
918.415	50.4361
920.087	50.4591
921.76	51.2063
923.43	50.4232
925.103	50.2185
926.773	49.7368
928.443	49.7445
930.114	49.3317
931.783	48.3595
933.454	48.1287
935.123	47.0644
936.791	47.0207
938.461	46.2152
940.128	45.2349
941.796	43.8559
943.464	42.2864
945.131	40.1496
946.797	38.0743
948.465	37.1919
950.131	35.7589
951.797	35.06
953.462	33.4577
955.128	32.5952
956.793	30.9797
958.457	28.879
960.121	27.7977
961.786	26.7616
963.45	27.2678
965.113	27.749
966.775	27.7381
968.44	27.1588
970.102	27.4558
971.763	28.2251
973.425	28.4591
975.086	28.8667
976.748	30.3472
978.409	30.4424
980.069	31.2354
981.729	30.9193
983.388	30.6541
985.048	30.0356
986.708	29.5511
988.367	28.9202
990.025	28.3374
991.683	26.9691
993.341	26.9656
994.998	26.5612
996.655	26.7608
998.312	26.875
999.969	26.9597
1001.62	27.5922
1003.28	28.3455
1004.94	28.1534
1006.59	28.0967
1008.25	29.2298
1009.9	28.2522
1011.56	27.8428
1013.21	27.321
1014.86	26.3898
1016.52	25.6679
1018.17	25.6325
1019.82	26.3179
1021.48	25.3541
1023.13	23.8995
1024.78	22.6315
1026.43	20.8696
1028.08	20.6845
1029.73	20.5262
1031.38	20.2557
1033.03	18.6266
1034.68	19.162
1036.33	18.7681
1037.98	18.7038
1039.63	18.0928
1041.28	17.9293
1042.93	18.3639
1044.57	18.799
1046.22	19.5905
1047.87	19.23
1049.52	18.8296
1051.16	18.4861
1052.81	18.8613
1054.45	17.7563
1056.1	17.5574
1057.75	17.0524
1059.39	17.0265
1061.04	15.9467
1062.68	14.9533
1064.32	13.65
1065.97	13.8059
1067.61	13.1092
1069.25	13.0232
1070.9	11.9892
1072.54	11.7461
1074.18	11.7073
1075.82	11.889
1077.47	12.3651
1079.11	12.3296
1080.75	12.837
1082.39	12.9803
1084.03	14.5613
1085.67	14.539
1087.31	14.1389
1088.95	13.4814
1090.59	13.2867
1092.22	13.8165
1093.86	15.1246
1095.5	15.6447
1097.14	15.5159
1098.78	15.5624
1100.41	16.509
1102.05	17.0363
1103.69	16.538
1105.32	17.0207
1106.96	18.1331
1108.59	17.7751
1110.23	17.6255
1111.86	17.0266
1113.5	17.1109
1115.13	16.4927
1116.77	16.5888
1118.4	16.1301
1120.03	15.3494
1121.67	13.7699
1123.3	13.0912
1124.93	12.6262
1126.56	11.9002
1128.19	11.3147
1129.83	10.7548
1131.46	9.70211
1133.09	9.19225
1134.72	9.26973
1136.35	7.95672
1137.98	8.55123
1139.61	8.37609
1141.24	6.90669
1142.86	5.37531
1144.49	5.26839
1146.12	5.06178
1147.75	5.08478
1149.38	3.92238
1151	3.30462
1152.63	2.8206
1154.26	3.33955
1155.88	2.94875
1157.51	3.33103
1159.14	3.06683
1160.76	2.47913
1162.39	2.82758
1164.01	2.64915
1165.63	2.9839
1167.26	1.71004
1168.88	2.30251
1170.51	1.91543
1172.13	3.08623
1173.75	3.15261
1175.38	3.63017
1177	4.09344
1178.62	4.45155
1180.24	4.74415
1181.86	5.02593
1183.48	5.84874
1185.1	5.49991
1186.72	5.33941
1188.34	4.85287
1189.96	4.3682
1191.58	5.66434
1193.2	6.81863
1194.82	7.76657
1196.44	7.41735
1198.06	8.62274
1199.68	9.64787
1201.29	10.378
1202.91	11.1552
1204.53	13.0492
1206.14	15.1589
1207.76	16.1084
1209.38	17.6477
1210.99	18.2054
1212.61	19.901
1214.22	21.2906
1215.84	22.4009
1217.45	24.2848
1219.07	26.5812
1220.68	28.1813
1222.29	30.2005
1223.91	33.8452
1225.52	36.096
1227.13	37.0348
1228.74	39.3106
1230.36	40.5184
1231.97	41.9363
1233.58	42.8632
1235.19	44.126
1236.8	44.759
1238.41	45.6858
1240.02	46.0949
1241.63	46.4657
1243.24	46.523
1244.85	46.7721
1246.46	47.0448
1248.07	46.6571
1249.67	47.0445
1251.28	46.9061
1252.89	47.2777
1254.5	47.2312
1256.1	47.8077
1257.71	47.1543
1259.32	45.2673
1260.92	44.0153
1262.53	42.8291
1264.13	42.9143
1265.74	42.6342
1267.34	41.1488
1268.95	40.6433
1270.55	40.8781
1272.15	41.4317
1273.76	41.0376
1275.36	40.767
1276.97	40.4467
1278.57	40.6568
1280.17	40.6234
1281.77	40.0436
1283.37	40.2792
1284.97	40.8155
1286.58	42.0374
1288.18	41.9756
1289.78	42.755
1291.38	43.3659
1292.98	45.1463
1294.58	45.6478
1296.18	46.5447
1297.78	48.3067
1299.37	49.3447
1300.97	51.8333
1302.57	53.3195
1304.17	54.389
1305.77	55.738
1307.36	58.2862
1308.96	60.9283
1310.55	62.2342
1312.15	63.5861
1313.75	64.6434
1315.34	65.6799
1316.94	66.1327
1318.53	66.2364
1320.13	67.11
1321.72	67.6468
1323.32	68.5527
1324.91	69.5363
1326.5	68.8923
1328.1	68.6468
1329.69	69.2565
1331.28	69.2103
1332.87	68.9308
1334.47	67.9083
1336.06	66.5736
1337.65	65.1932
1339.24	64.2819
1340.83	63.2935
1342.42	62.6068
1344.01	62.3161
1345.6	60.8113
1347.19	58.6786
1348.78	58.3043
1350.37	58.3028
1351.96	56.8901
1353.54	56.1935
1355.13	54.0469
1356.72	53.0098
1358.31	51.5398
1359.89	51.1589
1361.48	50.0061
1363.07	49.6283
1364.65	48.8266
1366.24	48.0788
1367.82	46.8368
1369.41	45.726
1370.99	44.9865
1372.58	43.9504
1374.16	42.5428
1375.75	42.0146
1377.33	41.7541
1378.91	41.6408
1380.5	41.8381
1382.08	41.3923
1383.66	41.568
1385.25	41.524
1386.83	41.5084
1388.41	41.1418
1389.99	39.8048
1391.57	38.8281
1393.15	37.685
1394.73	37.039
1396.31	36.8227
1397.89	36.5472
1399.47	35.8464
1401.05	34.2644
1402.63	33.1157
1404.21	31.9503
1405.78	31.2668
1407.36	30.9304
1408.94	31.1947
1410.52	30.7483
1412.1	30.992
1413.67	30.866
1415.25	32.2418
1416.82	33.2187
1418.4	34.6077
1419.98	35.642
1421.55	37.2411
1423.13	39.2985
1424.7	41.2775
1426.28	43.3368
1427.85	45.6171
1429.42	48.3542
1431	49.7204
1432.57	52.4875
1434.14	53.8968
1435.71	57.2795
1437.29	59.615
1438.86	62.2286
1440.43	64.7597
1442	66.6849
1443.57	67.9194
1445.14	68.4055
1446.71	69.7571
1448.28	70.7811
1449.85	72.0481
1451.42	72.5116
1452.99	72.2313
1454.56	72.8962
1456.13	72.257
1457.7	73.619
1459.26	73.5863
1460.83	72.9491
1462.4	71.836
1463.97	70.3397
1465.54	68.7452
1467.1	65.9165
1468.67	63.0724
1470.23	60.7925
1471.8	57.6024
1473.36	55.1771
1474.93	52.9579
1476.49	49.4336
1478.06	45.2145
1479.62	42.6222
1481.19	40.4484
1482.75	38.5009
1484.31	36.0336
1485.88	33.0713
1487.44	31.2323
1489	28.7494
1490.56	26.6408
1492.13	24.7815
1493.69	23.597
1495.25	21.2352
1496.81	19.7987
1498.37	19.0165
1499.93	17.1662
1501.49	16.2373
1503.05	15.3244
1504.61	14.2704
1506.17	13.9696
1507.73	13.6987
1509.28	12.8116
1510.84	12.1087
1512.4	12.107
1513.96	11.6785
1515.52	10.7202
1517.07	9.99204
1518.63	10.6559
1520.19	9.90411
1521.74	10.229
1523.3	11.1223
1524.85	12.4707
1526.41	13.063
1527.96	13.5301
1529.52	13.4787
1531.07	13.8796
1532.63	15.3376
1534.18	16.3293
1535.73	17.8093
1537.29	17.4126
1538.84	17.9515
1540.39	18.5392
1541.94	18.2291
1543.5	18.7736
1545.05	20.001
1546.6	21.5081
1548.15	23.1777
1549.7	23.9772
1551.25	25.1983
1552.8	26.5274
1554.35	27.3989
1555.9	28.5446
1557.45	30.3871
1559	31.0722
1560.55	32.3201
1562.1	33.3135
1563.65	34.0082
1565.19	34.4343
1566.74	35.3189
1568.29	36.6436
1569.83	38.3785
1571.38	39.4547
1572.93	40.1029
1574.47	41.598
1576.02	42.89
1577.56	43.3308
1579.11	45.0316
1580.66	46.5334
1582.2	47.8261
1583.74	48.7987
1585.29	49.6175
1586.83	50.5429
1588.38	51.087
1589.92	52.2703
1591.46	52.8196
1593.01	53.4416
1594.55	54.6841
1596.09	55.2991
1597.63	55.4908
1599.17	55.807
1600.71	55.7949
1602.25	55.3376
1603.79	54.7624
1605.34	54.6549
1606.88	54.5513
1608.41	54.9543
1609.95	54.8535
1611.49	54.698
1613.03	54.2716
1614.57	52.7888
1616.11	52.9574
1617.65	52.0737
1619.18	51.383
1620.72	52.1774
1622.26	52.2175
1623.79	51.6857
1625.33	52.5807
1626.87	52.5128
1628.4	52.9622
1629.94	53.8157
1631.48	54.0035
1633.01	53.9987
1634.55	54.5367
1636.08	54.7171
1637.61	55.8809
1639.15	55.9859
1640.68	55.754
1642.21	56.3235
1643.75	57.8998
1645.28	59.2872
1646.81	59.7533
1648.34	60.0256
1649.88	61.3473
1651.41	62.9032
1652.94	63.8632
1654.47	64.5491
1656	65.518
1657.53	65.6762
1659.06	66.6514
1660.59	66.6973
1662.12	67.7857
1663.65	68.1965
1665.18	67.6148
1666.71	67.4068
1668.24	66.6429
1669.76	65.6052
1671.29	64.6299
1672.82	63.1138
1674.35	61.9235
1675.87	60.1727
1677.4	58.906
1678.93	56.9087
1680.45	55.1512
1681.98	53.4319
1683.5	51.607
1685.03	49.0851
1686.55	45.7509
1688.08	43.4853
1689.6	41.1415
1691.13	38.9278
1692.65	37.4094
1694.17	34.8077
1695.7	33.273
1697.22	31.8792
1698.74	30.049
1700.27	28.1735
1701.79	27.3884
1703.31	24.9628
1704.83	23.5573
1706.35	22.3013
1707.87	19.9281
1709.39	18.9107
1710.91	17.8063
1712.43	16.405
1713.95	15.7053
1715.47	14.5738
1716.99	13.2693
1718.51	12.942
1720.03	12.0828
1721.55	10.813
1723.07	10.0172
1724.58	9.88202
1726.1	10.0453
1727.62	9.51962
1729.13	8.43222
1730.65	7.85229
1732.17	7.82329
1733.68	7.81238
1735.2	8.46314
1736.72	8.50418
1738.23	8.33446
1739.74	8.17944
1741.26	7.86433
1742.77	7.69576
1744.29	7.5086
1745.8	7.62206
1747.32	7.14135
1748.83	7.00134
1750.34	6.9025
1751.85	7.17691
1753.37	6.77549
1754.88	6.34605
1756.39	5.85807
1757.9	5.56506
1759.41	4.9659
1760.92	4.5928
1762.44	4.65872
1763.95	5.60247
1765.46	5.79129
1766.96	5.55084
1768.47	4.95217
1769.98	5.10167
1771.49	5.6166
1773	5.72644
1774.51	5.61044
1776.02	5.38917
1777.53	5.55506
1779.03	4.82038
1780.54	4.76479
1782.05	4.71053
1783.55	4.31567
1785.06	4.7669
1786.57	4.70396
1788.07	4.52196
1789.58	4.16018
1791.08	3.40974
1792.59	2.79372
1794.09	2.83166
1795.6	2.65293
1797.1	2.18292
1798.61	2.35494
1800.11	2.51622
1801.61	2.56881
1803.12	2.05591
1804.62	2.04327
1806.12	1.85698
1807.62	1.77554
1809.12	1.78468
1810.63	1.69174
1812.13	1.88792
1813.63	1.70561
1815.13	2.50098
1816.63	3.14601
1818.13	3.49389
1819.63	3.8252
1821.13	4.07506
1822.63	3.25882
1824.13	3.60491
1825.63	3.95179
1827.13	4.12369
1828.62	3.59701
1830.12	3.12488
1831.62	2.95818
1833.12	3.83203
1834.61	3.45633
1836.11	4.07191
1837.61	4.08585
1839.1	4.67993
1840.6	4.81152
1842.09	4.73073
1843.59	4.73513
1845.09	5.6969
1846.58	6.18987
1848.08	6.27335
1849.57	6.61832
1851.06	6.45341
1852.56	5.91448
1854.05	5.60165
1855.54	5.62524
1857.04	6.18561
1858.53	6.05796
1860.02	5.63616
1861.51	5.65294
1863.01	5.32506
1864.5	4.56223
1865.99	4.75385
1867.48	5.00712
1868.97	5.24044
1870.46	5.23611
1871.95	4.63582
1873.44	4.65521
1874.93	4.5235
1876.42	4.36188
1877.91	3.84651
1879.4	3.54459
1880.89	3.02717
1882.37	3.01537
1882.46	3.32355
1883.95	3.54726
1885.45	3.43395
1886.94	3.32832
1888.43	3.69054
1889.93	3.84336
1891.42	2.90146
1892.91	2.37339
1894.41	2.36135
1895.9	1.91052
1897.39	2.14997
1898.88	1.69889
1900.37	1.03383
1901.86	0.691532
1903.36	1.07698
1904.85	1.79958
1906.34	2.92392
1907.83	2.69091
1909.32	3.413
1910.81	4.20987
1912.29	4.43409
1913.78	3.98485
1915.27	4.45837
1916.76	5.43055
1918.25	6.28328
1919.74	6.2954
1921.23	6.15205
1922.71	6.77947
1924.2	6.80914
1925.69	7.06597
1927.17	7.22853
1928.66	7.41753
1930.15	7.13917
1931.63	6.96786
1933.12	6.4703
1934.6	6.59296
1936.09	6.92931
1937.57	7.70426
1939.06	8.16942
1940.54	8.05938
1942.02	7.94926
1943.51	7.83165
1944.99	7.42084
1946.47	7.06744
1947.96	6.10837
1949.44	5.55957
1950.92	4.72746
1952.4	4.13021
1953.88	3.69809
1955.37	3.0011
1956.85	2.48708
1958.33	1.94343
1959.81	1.1779
1961.29	1.45012
1962.77	0.633465
1964.25	0.557948
1965.73	-0.251197
1967.21	-0.323258
1968.69	-0.384919
1970.16	-0.774673
1971.64	-0.98232
1973.12	-1.06339
1974.6	-0.320029
1976.08	0.471193
1977.55	0.794148
1979.03	0.94694
1980.51	1.43148
1981.98	1.27271
1983.46	1.12709
1984.94	1.70141
1986.41	1.59127
1987.89	2.25365
1989.36	3.33437
1990.84	4.11364
1992.31	4.27207
1993.79	4.90866
1995.26	5.38037
1996.73	6.08504
1998.21	6.07439
1999.68	5.53705
2001.15	5.72328
2002.63	5.83008
2004.1	6.28746
2005.57	7.26301
2007.04	7.24005
2008.51	7.73062
2009.99	8.19415
2011.46	8.43246
2012.93	7.55713
2014.4	8.03232
2015.87	7.8799
2017.34	7.44875
2018.81	6.83161
2020.28	6.59627
2021.75	6.31483
2023.21	6.64105
2024.68	6.58136
2026.15	6.63663
2027.62	6.49508
2029.09	5.85436
2030.56	6.39813
2032.02	7.31491
2033.49	7.73373
2034.96	8.26058
2036.42	8.10426
2037.89	8.84917
2039.36	8.27455
2040.82	8.49035
2042.29	8.62517
2043.75	8.79578
2045.22	8.75059
2046.68	9.42793
2048.14	9.9607
2049.61	10.2287
2051.07	10.0619
2052.54	10.0486
2054	10.0988
2055.46	9.71658
2056.93	10.2186
2058.39	11.0257
2059.85	11.312
2061.31	11.346
2062.77	11.4101
2064.23	11.4978
2065.7	11.4173
2067.16	11.4058
2068.62	11.2386
2070.08	11.4867
2071.54	11.4148
2073	10.7618
2074.46	11.1918
2075.92	11.1483
2077.38	11.3562
2078.83	11.7155
2080.29	11.8607
2081.75	12.3887
2083.21	12.4085
2084.67	12.5436
2086.12	12.1657
2087.58	12.6143
2089.04	12.2305
2090.49	12.2263
2091.95	12.2815
2093.41	12.1305
2094.86	11.5651
2096.32	11.6891
2097.77	10.8509
2099.23	10.5616
2100.68	9.72257
2102.14	9.25674
2103.59	9.59253
2105.05	9.91464
2106.5	9.07573
2107.95	8.91178
2109.41	8.37911
2110.86	7.7162
2112.31	7.58706
2113.76	7.90609
2115.21	8.12231
2116.67	8.40851
2118.12	7.80838
2119.57	7.80937
2121.02	7.185
2122.47	7.06041
2123.92	6.18841
2125.37	6.28941
2126.82	6.37662
2128.27	6.65716
2129.72	6.80506
2131.17	6.42242
2132.62	6.22887
2134.07	5.95111
2135.51	6.38373
2136.96	6.86449
