#Acq. time (s)=	45
#Accumulations=	2
#Range (cm-¹)=	200...3150
#Windows=	2
#Auto scanning=	Off
#Autofocus=	Off
#Macrospot=	Off
#AutoExposure=	Off
#Spike filter=	Multiple accum.
#Delay time (s)=	0
#Binning=	1
#Readout mode=	Signal
#DeNoise=	Off
#ICS correction=	On
#Dark correction=	Off
#Inst. Process=	Off
#Detector Gain=	Best Dynamic Range
#Detector ADC=	20 kHz       
#Detector temperature (°C)=	-69.85
#Instrument=	LabRAM HR Evol
#Detector=	Synapse
#Objective=	x100
#Grating=	600 gr/mm
#ND Filter=	100%
#Laser (nm)=	532 
#Hole=	100.021
#Range=	Auto
#Laser Pol.=	No
#Raman. Pol.=	No
#Laser Pol. (°)=	-0.0007625
#Raman Pol. (°)=	89.9995
#Collection=	Microscope
#StageXY=	Marzhauser
#StageZ=	Marzhauser
#X (µm)=	2202.6
#Y (µm)=	1210.1
#Z (µm)=	442.5
#Full time(mm:ss)=	3:18
#Project=	
#Sample=	
#Site=	
#Title=	Thy_10_08_29_2x_45s_532 nm_x100_100%_600 gr_mm
#Remark=	
#Date=	05.07.2022 16:18
#Acquired=	05.07.2022 16:18:32
#Base:Fit=	10.08.2022 09:46:25
#Base:Sub=	10.08.2022 09:46:49
#Filter:Polynom=	16.08.2022 10:24:56
#AxisType[0]=Intens
#AxisUnit[0]=Cnt
#AxisType[1]=Spectr
#AxisUnit[1]=1/cm
200.43	1.38513
202.244	1.55927
204.059	0.859074
205.873	1.33034
207.688	2.17802
209.501	2.98469
211.314	3.43758
213.127	3.97147
214.941	4.50147
216.753	5.32654
218.564	5.73281
220.375	6.45705
222.186	6.73408
223.999	6.48271
225.809	6.15457
227.618	6.61248
229.428	6.80871
231.236	7.62701
233.045	8.65586
234.855	8.48596
236.663	8.76965
238.471	9.23213
240.278	8.91769
242.085	8.66975
243.891	8.11518
245.698	8.52145
247.503	6.97739
249.309	6.2567
251.116	5.7354
252.921	5.58887
254.725	5.74362
256.529	6.15281
258.333	6.80979
260.136	8.69661
261.939	8.9765
263.742	9.05922
265.544	10.0316
267.346	10.1511
269.148	9.5295
270.949	8.14904
272.75	8.39219
274.55	7.72157
276.351	7.11962
278.15	6.64291
279.95	6.69536
281.749	5.37343
283.548	5.21735
285.346	5.66357
287.144	6.48423
288.942	7.36595
290.739	7.47076
292.536	8.50273
294.333	9.80579
296.129	10.2319
297.925	10.1806
299.721	10.6197
301.514	10.8681
303.309	11.5623
305.104	12.1124
306.898	12.7786
308.692	13.3641
310.486	14.1454
312.279	14.8099
314.072	15.7128
315.862	16.6836
317.654	18.1871
319.446	18.384
321.238	19.3126
323.029	19.4159
324.819	18.7136
326.608	19.3498
328.398	20.0562
330.188	19.9122
331.977	19.8289
333.766	19.4993
335.553	19.9431
337.341	19.0203
339.129	19.8071
340.917	19.8729
342.704	19.9641
344.489	20.2741
346.275	20.595
348.062	20.9921
349.845	20.8655
351.631	19.4106
353.416	19.1956
355.201	19.2693
356.984	17.2784
358.768	15.4948
360.552	14.6124
362.333	15.6465
364.116	15.8703
365.899	14.7039
367.68	13.3172
369.462	13.1708
371.243	13.0425
373.023	13.0068
374.804	13.2407
376.585	12.8715
378.363	12.1596
380.143	11.1247
381.923	11.2653
383.7	11.1804
385.479	10.9962
387.256	10.8409
389.034	11.3682
390.812	10.8329
392.588	11.2316
394.365	12.2613
396.14	12.8444
397.916	14.0178
399.691	14.4548
401.467	13.9812
403.24	13.9379
405.015	14.6387
406.788	13.9849
408.563	13.9619
410.335	14.7992
412.109	14.9325
413.88	15.3631
415.654	15.5147
417.424	15.4082
419.197	14.3085
420.967	13.6161
422.739	13.6068
424.508	13.2325
426.279	12.9395
428.048	13.3521
429.819	14.1679
431.587	14.6672
433.356	14.9676
435.124	15.4785
436.891	15.0493
438.66	15.7342
440.426	15.4021
442.194	15.2771
443.96	15.6807
445.725	14.296
447.492	14.3478
449.257	14.7219
451.021	14.2529
452.787	12.9522
454.551	11.1048
456.314	11.3846
458.079	11.9773
459.842	11.6329
461.604	11.1337
463.368	11.5848
465.13	10.5803
466.891	11.1981
468.654	11.3894
470.415	10.709
472.175	11.3588
473.935	10.4668
475.696	9.90563
477.456	10.0523
479.215	10.0764
480.973	10.9404
482.733	11.7165
484.491	11.5605
486.249	10.9207
488.006	11.0746
489.765	10.3886
491.522	11.1063
493.278	11.4009
495.034	10.3536
496.789	11.2757
498.544	11.1299
500.301	11.1739
502.056	11.3528
503.81	10.972
505.564	11.5557
507.317	12.0229
509.071	12.9686
510.825	13.9342
512.578	14.0432
514.33	14.7067
516.082	15.5682
517.833	16.1161
519.585	16.6006
521.335	16.699
523.086	17.4343
524.836	17.9186
526.586	18.5254
528.335	18.0906
530.085	19.0252
531.835	18.8239
533.584	18.2488
535.332	18.2646
537.08	18.4657
538.827	18.1809
540.574	19.675
542.321	19.9662
544.068	20.8924
545.814	20.9671
547.56	20.3158
549.305	20.4258
551.05	20.3966
552.795	19.7351
554.54	19.8068
556.282	19.6998
558.025	18.9893
559.769	18.633
561.512	17.3148
563.255	16.2109
564.997	15.7606
566.739	15.3353
568.481	14.9562
570.223	14.6
571.964	13.6843
573.705	12.7587
575.443	13.0775
577.183	11.8421
578.923	12.1101
580.663	11.6646
582.402	11.7636
584.141	12.6804
585.879	12.7813
587.615	12.4164
589.353	11.4645
591.09	11.1924
592.828	9.40645
594.564	9.08499
596.299	8.19794
598.035	7.32525
599.771	5.50476
601.506	5.45891
603.242	5.09107
604.974	5.16074
606.709	4.84756
608.443	3.89826
610.177	4.31866
611.908	5.37656
613.642	5.24816
615.374	5.75777
617.105	6.2256
618.837	6.18336
620.569	7.2255
622.3	7.31137
624.03	7.92255
625.761	8.21724
627.491	8.64258
629.219	8.5763
630.949	9.51458
632.677	9.69544
634.406	9.63962
636.135	11.6304
637.861	12.3451
639.59	12.0545
641.318	12.468
643.043	12.8134
644.77	12.3668
646.495	11.5346
648.222	11.0568
649.948	11.6229
651.672	13.1471
653.398	14.9695
655.121	15.4219
656.846	15.807
658.569	16.2636
660.293	16.2119
662.015	17.1225
663.738	17.5368
665.46	18.9335
667.183	19.4695
668.903	19.5152
670.626	19.8803
672.346	19.7187
674.067	19.2902
675.787	19.5621
677.508	19.3303
679.226	18.9857
680.947	20.3781
682.665	20.1776
684.385	21.1942
686.102	22.299
687.821	23.5641
689.538	24.0315
691.254	25.3274
692.972	26.5236
694.688	27.6811
696.406	29.4148
698.121	30.1574
699.835	30.883
701.552	32.4505
703.266	33.1197
704.98	34.0839
706.695	34.4388
708.409	34.8926
710.121	37.0194
711.836	38.4389
713.548	38.6727
715.26	39.379
716.973	40.6297
718.685	41.4562
720.396	41.7036
722.108	43.276
723.818	43.0356
725.528	42.5975
727.238	43.5621
728.949	43.9144
730.658	44.3487
732.367	44.663
734.075	45.0293
735.785	45.5909
737.493	46.3655
739.2	46.6997
740.907	46.6475
742.614	46.6414
744.322	47.2461
746.028	47.8728
747.734	49.5973
749.439	50.6603
751.144	52.1426
752.849	53.0868
754.555	53.0784
756.26	54.6177
757.963	55.552
759.667	55.6206
761.37	56.1895
763.073	56.4982
764.775	58.737
766.477	59.3106
768.179	60.7927
769.883	62.1414
771.584	62.7945
773.285	63.7505
774.986	65.9313
776.686	68.1352
778.386	69.387
780.085	69.3971
781.785	70.1729
783.484	71.1298
785.182	72.3041
786.881	73.1429
788.579	73.6415
790.276	74.0844
791.974	74.757
793.671	76.0375
795.367	77.1048
797.064	76.8794
798.76	75.7107
800.456	76.4837
802.151	76.2919
803.846	75.8468
805.541	75.1733
807.234	76.309
808.928	75.5916
810.622	74.791
812.315	76.6498
814.008	76.4393
815.701	76.3307
817.394	75.8462
819.086	75.9149
820.778	76.4678
822.468	76.2993
824.159	76.0166
825.85	76.2994
827.541	76.91
829.231	77.6104
830.921	77.3547
832.609	77.3109
834.298	77.187
835.987	76.9428
837.676	76.8533
839.364	75.0789
841.051	74.4607
842.738	73.8425
844.426	72.4463
846.113	72.3898
847.798	72.0219
849.484	71.3772
851.171	69.5337
852.857	68.5263
854.54	67.1502
856.226	67.2142
857.911	66.0013
859.593	65.5027
861.278	64.311
862.961	62.3882
864.645	61.0335
866.327	61.1519
868.01	60.2865
869.692	59.3882
871.373	59.1071
873.055	57.8427
874.735	56.9488
876.416	55.6881
878.097	54.8337
879.776	53.0555
881.457	52.1375
883.135	50.3285
884.815	50.9695
886.495	50.4042
888.172	50.4718
889.851	50.5133
891.528	50.5674
893.206	49.6057
894.882	49.097
896.56	50.0182
898.237	48.9178
899.912	49.8668
901.589	50.043
903.263	50.2584
904.94	49.6841
906.614	49.0707
908.289	49.5043
909.962	49.5587
911.635	49.7912
913.31	49.3989
914.982	49.3027
916.656	49.8615
918.328	50.0855
920.001	49.4511
921.672	48.7369
923.345	47.0034
925.015	46.6622
926.685	46.4778
928.357	45.521
930.026	44.6734
931.698	43.3856
933.366	41.6398
935.035	41.2683
936.705	41.1521
938.373	41.5429
940.041	42.1868
941.71	40.8075
943.377	40.496
945.044	39.7766
946.712	38.9667
948.378	38.8553
950.044	38.0809
951.709	36.6346
953.376	35.8388
955.041	35.262
956.706	34.9833
958.372	34.1823
960.036	32.3971
961.699	31.3924
963.362	30.7178
965.027	31.1064
966.69	31.1283
968.352	32.6577
970.014	32.5194
971.676	32.2981
973.339	32.0218
975	31.4585
976.661	31.3265
978.322	32.2048
979.982	33.5534
981.642	34.2989
983.303	35.1181
984.962	34.2959
986.621	34.7396
988.28	35.2094
989.938	35.9812
991.596	36.2078
993.254	36.8267
994.911	36.7912
996.57	37.5952
998.227	36.7816
999.884	36.2125
1001.54	36.1577
1003.2	36.2411
1004.85	35.1806
1006.51	35.1736
1008.16	35.848
1009.82	35.4531
1011.47	34.974
1013.12	34.2733
1014.78	34.2662
1016.43	34.1811
1018.08	34.5694
1019.74	33.5886
1021.39	32.7495
1023.04	31.7453
1024.69	30.8459
1026.34	30.814
1028	30.8944
1029.65	29.2891
1031.3	28.4234
1032.95	26.6593
1034.6	26.4011
1036.25	25.1666
1037.9	25.1449
1039.54	23.862
1041.19	22.3205
1042.84	21.726
1044.49	22.2109
1046.14	23.3412
1047.78	23.2544
1049.43	22.9929
1051.08	21.1411
1052.72	20.2234
1054.37	19.2383
1056.02	18.4514
1057.66	19.2658
1059.31	19.2018
1060.95	19.6515
1062.6	19.5858
1064.24	18.6372
1065.88	17.972
1067.53	17.2176
1069.17	17.5168
1070.81	16.9526
1072.45	16.0867
1074.1	16.0995
1075.74	16.7519
1077.38	16.6231
1079.02	17.0819
1080.66	16.8833
1082.3	17.8195
1083.94	18.5545
1085.58	17.6896
1087.22	17.3117
1088.86	17.5258
1090.5	17.1086
1092.14	15.8654
1093.78	15.1636
1095.42	15.3471
1097.05	16.2071
1098.69	15.839
1100.33	15.9873
1101.96	15.5525
1103.6	15.2802
1105.24	15.6416
1106.87	15.8924
1108.51	15.2016
1110.14	14.82
1111.78	13.7166
1113.41	13.617
1115.05	14.1113
1116.68	14.7513
1118.31	14.5237
1119.95	14.3971
1121.58	13.2932
1123.21	12.6093
1124.85	11.7735
1126.48	12.0041
1128.11	11.7334
1129.74	10.5417
1131.37	9.82804
1133	9.41279
1134.63	10.1619
1136.26	9.30014
1137.89	8.53215
1139.52	8.41832
1141.15	7.4247
1142.78	7.83925
1144.41	7.67669
1146.04	6.81433
1147.66	7.6323
1149.29	7.27525
1150.92	7.06642
1152.55	6.49512
1154.17	6.41201
1155.8	7.41189
1157.43	7.54412
1159.05	7.07367
1160.68	6.50409
1162.3	5.38569
1163.93	4.4184
1165.55	3.60869
1167.17	2.99227
1168.8	2.7077
1170.42	1.62671
1172.05	1.93479
1173.67	1.65924
1175.29	2.11574
1176.91	3.13277
1178.54	3.8287
1180.16	4.25053
1181.78	4.64778
1183.4	4.56964
1185.02	4.77159
1186.64	5.77396
1188.26	6.45597
1189.88	6.7837
1191.5	7.64297
1193.12	9.13326
1194.74	11.0872
1196.36	13.1061
1197.97	13.4055
1199.59	14.0442
1201.21	14.7185
1202.83	16.3712
1204.44	18.2169
1206.06	20.1108
1207.68	22.2137
1209.29	22.661
1210.91	23.2213
1212.52	24.3355
1214.14	25.489
1215.75	27.8386
1217.37	30.269
1218.98	32.5671
1220.59	35.2016
1222.21	37.3325
1223.82	40.3723
1225.43	41.7909
1227.05	43.3912
1228.66	45.5752
1230.27	46.7345
1231.88	48.3008
1233.49	50.3138
1235.1	51.8721
1236.72	52.9632
1238.33	53.2186
1239.94	53.6205
1241.55	53.7365
1243.16	54.4157
1244.76	55.4225
1246.37	56.5306
1247.98	57.4505
1249.59	57.4574
1251.2	58.1602
1252.8	58.6357
1254.41	58.8961
1256.02	60.4294
1257.62	60.9246
1259.23	60.9277
1260.84	59.9675
1262.44	58.605
1264.05	57.9033
1265.66	57.602
1267.26	57.8993
1268.86	57.0295
1270.47	56.6904
1272.07	56.2041
1273.67	56.8434
1275.28	56.4354
1276.88	55.9298
1278.48	55.7177
1280.09	55.786
1281.69	55.6701
1283.29	55.6428
1284.89	54.7157
1286.49	54.9457
1288.09	55.6654
1289.69	56.2038
1291.29	56.3028
1292.89	56.7774
1294.49	57.8498
1296.09	59.3932
1297.69	59.317
1299.29	59.7164
1300.89	60.1629
1302.49	60.9331
1304.08	61.6408
1305.68	60.5908
1307.28	62.2366
1308.88	62.6384
1310.47	63.3463
1312.07	64.1329
1313.66	65.3093
1315.26	65.495
1316.85	66.5309
1318.45	67.6103
1320.04	68.4145
1321.64	69.7564
1323.23	70.8134
1324.83	71.7458
1326.42	71.6041
1328.01	71.8195
1329.61	71.8388
1331.2	71.4909
1332.79	71.2051
1334.38	71.1763
1335.97	71.1112
1337.56	70.0482
1339.16	69.0425
1340.75	68.2164
1342.34	67.3041
1343.93	66.7326
1345.52	66.7829
1347.11	65.2007
1348.7	64.4443
1350.29	64.5695
1351.87	63.6771
1353.46	64.2065
1355.05	63.3134
1356.64	62.2651
1358.22	61.6571
1359.81	60.2422
1361.4	58.585
1362.98	57.4929
1364.57	55.699
1366.16	55.0072
1367.74	53.1543
1369.33	50.4834
1370.91	48.5591
1372.5	48.037
1374.08	46.951
1375.67	44.7843
1377.25	43.8168
1378.83	43.162
1380.41	41.2958
1382	40.4457
1383.58	39.3532
1385.16	38.7765
1386.74	38.8795
1388.33	38.414
1389.91	38.5282
1391.49	38.1123
1393.07	37.3649
1394.65	36.6504
1396.23	37.0513
1397.81	35.817
1399.39	35.2502
1400.97	35.6944
1402.55	35.5413
1404.13	35.6375
1405.7	35.2131
1407.28	36.6405
1408.86	36.9115
1410.44	37.9674
1412.01	39.6366
1413.59	41.2469
1415.17	44.1864
1416.74	45.797
1418.32	48.0276
1419.89	49.8047
1421.47	52.7671
1423.04	55.726
1424.62	58.4236
1426.19	60.3557
1427.77	64.6395
1429.34	67.4937
1430.91	70.4452
1432.49	73.9402
1434.06	76.2507
1435.63	78.9402
1437.2	81.344
1438.78	82.917
1440.35	84.208
1441.92	85.7787
1443.49	86.2137
1445.06	87.3344
1446.63	88.2943
1448.2	89.3384
1449.77	89.8169
1451.34	89.5777
1452.91	88.4033
1454.48	86.9206
1456.05	86.4366
1457.62	84.613
1459.18	82.8571
1460.75	81.533
1462.32	78.9294
1463.89	76.4856
1465.45	73.7034
1467.02	71.0032
1468.59	67.1102
1470.15	63.5547
1471.72	59.3821
1473.28	55.7799
1474.85	52.4856
1476.41	48.2293
1477.98	45.2935
1479.54	42.4672
1481.1	39.9989
1482.67	36.1587
1484.23	33.4441
1485.79	30.8751
1487.36	27.9067
1488.92	25.7694
1490.48	23.1103
1492.04	21.6119
1493.61	19.9252
1495.17	17.2374
1496.73	15.8997
1498.29	13.8263
1499.85	13.3823
1501.41	12.4981
1502.97	11.9528
1504.53	11.4079
1506.09	11.8012
1507.65	10.3962
1509.2	10.6575
1510.76	10.5113
1512.32	10.5884
1513.88	10.7894
1515.43	11.3911
1516.99	10.9822
1518.55	10.678
1520.1	11.6925
1521.66	13.3313
1523.22	13.9311
1524.77	14.5315
1526.33	14.6788
1527.88	14.2259
1529.44	14.9244
1530.99	15.8889
1532.54	17.1839
1534.1	18.0847
1535.65	18.8242
1537.21	20.2131
1538.76	20.7994
1540.31	21.3902
1541.86	22.7611
1543.42	23.1726
1544.97	24.12
1546.52	25.6757
1548.07	26.8106
1549.62	28.2584
1551.17	30.3355
1552.72	31.2555
1554.27	32.3822
1555.82	33.8077
1557.37	35.4765
1558.92	36.0611
1560.47	36.5756
1562.02	37.9196
1563.56	38.7632
1565.11	40.5286
1566.66	42.5233
1568.21	44.3843
1569.75	45.7187
1571.3	47.2114
1572.85	48.6886
1574.39	49.9849
1575.94	51.1274
1577.49	52.5885
1579.03	53.1529
1580.57	53.7921
1582.12	54.9226
1583.66	56.5824
1585.21	58.1143
1586.75	59.8546
1588.3	60.4453
1589.84	61.7132
1591.38	62.3614
1592.92	63.0079
1594.47	62.7363
1596.01	63.357
1597.55	62.9671
1599.09	62.3865
1600.63	60.7237
1602.17	60.2862
1603.71	60.2598
1605.25	59.9445
1606.79	59.9901
1608.33	60.3964
1609.87	59.4619
1611.41	59.2533
1612.95	59.0223
1614.49	59.3238
1616.03	58.4393
1617.57	58.6674
1619.1	58.8821
1620.64	59.1386
1622.18	59.213
1623.72	59.0444
1625.25	58.6489
1626.79	59.0414
1628.32	59.0492
1629.86	58.9533
1631.39	59.8107
1632.93	59.3237
1634.46	59.5798
1636	59.8436
1637.53	60.8794
1639.07	62.0625
1640.6	62.8518
1642.13	63.0106
1643.67	63.8424
1645.2	64.2277
1646.73	64.714
1648.26	65.4493
1649.8	65.6068
1651.33	65.8089
1652.86	66.0578
1654.39	66.2666
1655.92	66.8435
1657.45	68.1681
1658.98	68.5629
1660.51	67.6743
1662.04	66.6912
1663.57	66.0188
1665.1	65.4312
1666.63	64.7315
1668.16	63.2308
1669.68	61.7836
1671.21	60.0031
1672.74	58.4712
1674.27	56.2394
1675.79	55.5336
1677.32	53.6567
1678.85	52.1124
1680.37	50.4309
1681.9	48.3775
1683.42	46.9632
1684.95	44.3465
1686.47	41.5474
1688	39.8139
1689.52	36.7211
1691.05	34.7594
1692.57	32.3154
1694.09	30.1167
1695.62	28.0196
1697.14	25.9794
1698.66	23.3018
1700.18	21.821
1701.71	20.2814
1703.23	18.8451
1704.75	16.3128
1706.27	14.6958
1707.79	12.867
1709.31	10.8443
1710.83	10.3251
1712.35	9.42487
1713.87	8.21695
1715.39	7.39008
1716.91	6.05522
1718.43	5.42406
1719.95	5.59561
1721.47	5.27726
1722.99	5.20279
1724.5	4.55376
1726.02	4.058
1727.54	3.55951
1729.06	3.36861
1730.57	3.38348
1732.09	3.63035
1733.61	2.90397
1735.12	1.87772
1736.64	1.1982
1738.15	1.63335
1739.67	1.76201
1741.18	1.75254
1742.7	1.99622
1744.21	2.12116
1745.72	2.2803
1747.24	2.57315
1748.75	2.90397
1750.26	2.68331
1751.77	2.81489
1753.29	2.50037
1754.8	2.73986
1756.31	1.9794
1757.82	1.54206
1759.33	0.829567
1760.84	-0.306435
1762.36	-0.480422
1763.87	-0.636277
1765.38	-0.741395
1766.89	-0.262594
1768.4	-0.235124
1769.91	0.12157
1771.41	0.363198
1772.92	-0.00134936
1774.43	-0.119762
1775.94	-0.0257208
1777.45	-0.611354
1778.95	-0.720053
1780.46	-0.49382
1781.97	0.440267
1783.48	0.346386
1784.98	0.522394
1786.49	1.20613
1787.99	1.3185
1789.5	1.27741
1791.01	2.03107
1792.51	2.27486
1794.01	2.4228
1795.52	3.0178
1797.02	3.18159
1798.53	3.3392
1800.03	2.96716
1801.53	3.47958
1803.04	3.71461
1804.54	3.75018
1806.04	3.50204
1807.54	3.54151
1809.05	3.5455
1810.55	3.73124
1812.05	4.41612
1813.55	5.15578
1815.05	5.66533
1816.55	6.55175
1818.05	7.11517
1819.55	7.50974
1821.05	7.84842
1822.55	8.26713
1824.05	8.56276
1825.55	8.8827
1827.05	9.30304
1828.55	9.5765
1830.04	8.97469
1831.54	8.32406
1833.04	8.82531
1834.54	8.81704
1836.03	9.28378
1837.53	9.66841
1839.03	9.66998
1840.52	10.121
1842.02	10.4353
1843.51	9.75985
1845.01	9.30476
1846.5	8.55168
1848	9.10159
1849.49	9.42196
1850.99	9.51182
1852.48	8.98742
1853.97	9.71049
1855.47	9.87768
1856.96	9.67584
1858.45	9.79531
1859.94	10.282
1861.44	10.1672
1862.93	10.1453
1864.42	10.5162
1865.91	10.8926
1867.4	10.9586
1868.89	11.2638
1870.38	11.1881
1871.87	10.6896
1873.36	10.9614
1874.85	11.0629
1876.34	11.5266
1877.83	11.2191
1879.32	10.9838
1880.81	11.6036
1882.3	12.4402
1882.57	12.8244
1884.07	13.4016
1885.56	14.0596
1887.06	13.9247
1888.55	14.4387
1890.04	14.6745
1891.54	15.3759
1893.03	15.9601
1894.52	15.9846
1896.02	16.5466
1897.51	17.0664
1899	16.8094
1900.49	17.102
1901.98	16.5972
1903.47	16.0555
1904.96	16.642
1906.45	17.1847
1907.94	16.9042
1909.43	17.1195
1910.92	16.478
1912.41	16.2673
1913.9	17.2254
1915.39	17.162
1916.88	16.8247
1918.37	16.8116
1919.85	17.6618
1921.34	18.2142
1922.83	18.0415
1924.32	18.0338
1925.8	17.8652
1927.29	18.195
1928.78	17.2981
1930.26	17.9818
1931.75	18.0071
1933.23	17.7741
1934.72	17.7316
1936.2	17.6085
1937.69	17.9453
1939.17	17.9076
1940.66	17.5642
1942.14	16.8368
1943.63	16.5356
1945.11	16.8484
1946.59	17.5536
1948.07	17.4029
1949.56	17.452
1951.04	17.5036
1952.52	17.3377
1954	18.1527
1955.48	18.2508
1956.96	17.9396
1958.45	17.9497
1959.93	17.3466
1961.41	16.9624
1962.89	17.1078
1964.37	17.31
1965.85	17.4081
1967.32	16.849
1968.8	16.9219
1970.28	17.6785
1971.76	17.8468
1973.24	17.7642
1974.72	18.3756
1976.19	17.9068
1977.67	18.4812
1979.15	19.0875
1980.63	19.2836
1982.1	19.2811
1983.58	19.2202
1985.05	19.2208
1986.53	19.6293
1988	20.0649
1989.48	20.0784
1990.95	20.5541
1992.43	21.0862
1993.9	22.4249
1995.38	22.5907
1996.85	22.2843
1998.32	22.6262
1999.8	22.9949
2001.27	22.68
2002.74	22.1478
2004.22	22.1655
2005.69	21.9501
2007.16	22.1276
2008.63	22.7782
2010.1	23.4437
2011.57	23.692
2013.04	23.2284
2014.51	22.8267
2015.98	22.9305
2017.45	23.6167
2018.92	23.1898
2020.39	23.0117
2021.86	22.8333
2023.33	22.8267
2024.8	22.3314
2026.27	21.7308
2027.74	21.7621
2029.2	21.0782
2030.67	21.0223
2032.14	21.0581
2033.61	21.0904
2035.07	21.8437
2036.54	21.3461
2038.01	21.2278
2039.47	20.8628
2040.94	20.8857
2042.4	21.2935
2043.87	21.6127
2045.33	21.4967
2046.8	21.5364
2048.26	21.7425
2049.72	21.5113
2051.19	21.4228
2052.65	22.228
2054.12	22.7262
2055.58	22.5655
2057.04	22.5497
2058.5	22.7176
2059.97	23.3183
2061.43	23.7603
2062.89	24.094
2064.35	24.3864
2065.81	24.9744
2067.27	25.2695
2068.73	24.8054
2070.19	25.1293
2071.65	26.4391
2073.11	26.7349
2074.57	26.2056
2076.03	26.487
2077.49	27.2811
2078.95	27.973
2080.41	28.2944
2081.87	28.5923
2083.32	28.2556
2084.78	27.1332
2086.24	27.4178
2087.7	27.5876
2089.15	27.5771
2090.61	27.716
2092.07	27.1614
2093.52	27.5248
2094.98	27.7386
2096.43	27.5394
2097.89	27.5456
2099.34	27.6236
2100.8	27.6959
2102.25	27.1644
2103.71	28.0777
2105.16	28.3195
2106.61	28.0179
2108.07	27.214
2109.52	26.6035
2110.97	26.9044
2112.43	26.9232
2113.88	27.0825
2115.33	27.5683
2116.78	28.1047
2118.23	28.3111
2119.68	28.8733
2121.13	28.679
2122.59	29.3491
2124.04	29.5866
2125.49	30.614
2126.94	30.9253
2128.39	30.5007
2129.83	30.9057
2131.28	31.0427
2132.73	31.6874
