#Acq. time (s)=	45
#Accumulations=	2
#Range (cm-¹)=	200...3150
#Windows=	2
#Auto scanning=	Off
#Autofocus=	Off
#Macrospot=	Off
#AutoExposure=	Off
#Spike filter=	Multiple accum.
#Delay time (s)=	0
#Binning=	1
#Readout mode=	Signal
#DeNoise=	Off
#ICS correction=	On
#Dark correction=	Off
#Inst. Process=	Off
#Detector Gain=	Best Dynamic Range
#Detector ADC=	20 kHz       
#Detector temperature (°C)=	-69.85
#Instrument=	LabRAM HR Evol
#Detector=	Synapse
#Objective=	x100
#Grating=	600 gr/mm
#ND Filter=	100%
#Laser (nm)=	532 
#Hole=	100.021
#Range=	Auto
#Laser Pol.=	No
#Raman. Pol.=	No
#Laser Pol. (°)=	-0.0007625
#Raman Pol. (°)=	89.9995
#Collection=	Microscope
#StageXY=	Marzhauser
#StageZ=	Marzhauser
#X (µm)=	9025.6
#Y (µm)=	-3089.3
#Z (µm)=	-55.2
#Full time(mm:ss)=	3:05
#Project=	
#Sample=	
#Site=	
#Title=	Thy_00_07_14_2x_45s_532 nm_x100_100%_600 gr_mm
#Remark=	
#Date=	28.06.2022 11:06
#Acquired=	28.06.2022 11:06:46
#Base:Fit=	10.08.2022 10:06:44
#Base:Fit=	10.08.2022 10:07:16
#Base:Fit=	10.08.2022 10:07:25
#Base:Fit=	10.08.2022 10:07:44
#Base:Fit=	10.08.2022 10:07:56
#Base:Sub=	10.08.2022 10:08:40
#Filter:Polynom=	16.08.2022 10:26:06
#AxisType[0]=Intens
#AxisUnit[0]=Cnt
#AxisType[1]=Spectr
#AxisUnit[1]=1/cm
200.407	12.5314
202.221	14.7288
204.035	16.0574
205.849	16.7816
207.665	17.0153
209.478	17.4169
211.291	17.6163
213.104	17.7426
214.916	18.3606
216.73	18.238
218.541	18.8266
220.352	17.81
222.163	18.1117
223.973	17.706
225.785	16.2176
227.595	16.0807
229.404	16.3443
231.213	15.5254
233.022	14.3651
234.83	13.4032
236.638	12.9112
238.448	12.1617
240.255	11.9855
242.062	11.0778
243.868	10.9197
245.675	9.91899
247.48	8.93842
249.286	7.45148
251.091	5.80801
252.896	5.17059
254.702	4.45274
256.506	4.99723
258.31	5.1761
260.113	4.44958
261.916	3.23094
263.719	2.32508
265.521	2.71035
267.323	2.40587
269.125	2.34801
270.926	2.61286
272.727	2.96955
274.527	2.06844
276.328	1.35031
278.127	1.24963
279.927	1.33885
281.726	1.23834
283.525	1.09272
285.323	0.982818
287.121	1.70543
288.919	1.64801
290.716	0.964697
292.513	1.30143
294.31	1.90663
296.104	3.48686
297.9	4.59927
299.696	4.6421
301.491	4.99883
303.286	5.76003
305.081	6.59821
306.875	6.4814
308.669	7.34452
310.463	7.58633
312.256	8.56104
314.047	8.53815
315.839	9.26515
317.631	10.9165
319.423	11.7365
321.215	11.1154
323.006	11.3846
324.794	12.414
326.585	12.4362
328.375	12.6566
330.165	12.5103
331.954	12.5742
333.741	13.2312
335.53	12.264
337.318	12.3267
339.106	11.8277
340.894	10.9616
342.679	10.872
344.466	10.28
346.253	9.98711
348.039	9.50697
349.823	8.80466
351.608	8.179
353.393	7.84473
355.176	8.47322
356.961	7.91402
358.745	7.68484
360.529	6.45295
362.31	5.31816
364.093	4.56266
365.876	4.51863
367.657	4.9325
369.439	4.56057
371.221	3.76285
373	2.97543
374.781	2.6086
376.56	1.52914
378.34	1.0773
380.12	0.691511
381.898	1.44241
383.677	1.54001
385.456	1.70948
387.233	1.26395
389.011	1.56979
390.787	1.36747
392.565	1.71518
394.34	1.41325
396.117	1.46597
397.894	1.65985
399.668	2.18534
401.444	2.1934
403.217	1.77738
404.993	2.1052
406.766	2.51997
408.54	2.90798
410.312	1.94804
412.086	2.58071
413.858	2.94624
415.631	2.42633
417.402	3.59218
419.174	4.08909
420.944	4.94077
422.716	4.37339
424.486	4.16946
426.257	4.49375
428.025	3.97798
429.794	4.40227
431.564	5.01047
433.332	5.15828
435.101	5.24051
436.868	5.4404
438.637	5.1582
440.403	5.02738
442.169	5.24845
443.937	5.75059
445.703	5.82064
447.468	6.17025
449.234	6.1041
450.999	6.67817
452.765	7.07441
454.528	8.22023
456.292	7.96342
458.057	7.60399
459.819	7.85634
461.582	8.6363
463.344	9.26942
465.107	9.4764
466.868	10.015
468.629	9.56763
470.392	9.83789
472.152	11.1445
473.912	11.9561
475.672	12.3993
477.433	12.4267
479.192	12.1419
480.951	12.0785
482.709	12.3612
484.469	12.6661
486.226	12.1942
487.984	12.3377
489.74	12.4451
491.499	12.6967
493.255	13.9748
495.011	15.2367
496.767	15.5236
498.522	15.4188
500.277	16.0712
502.033	17.1621
503.788	16.775
505.541	17.6645
507.295	17.7177
509.048	18.2141
510.801	18.0435
512.553	19.0205
514.308	18.98
516.06	18.4593
517.811	19.2832
519.562	18.4619
521.313	18.066
523.063	17.885
524.814	17.5457
526.563	18.7578
528.313	19.2164
530.062	19.6157
531.811	19.4689
533.559	19.9244
535.308	19.7634
537.055	19.4557
538.803	19.8039
540.55	19.1084
542.297	18.9436
544.043	17.5022
545.789	17.914
547.535	17.4359
549.281	17.224
551.026	16.6663
552.771	15.5365
554.515	14.748
556.259	14.1476
558.003	13.5948
559.747	13.3352
561.49	11.8971
563.233	10.4915
564.975	9.71821
566.717	8.36334
568.459	6.64249
570.2	6.24496
571.942	5.15425
573.68	5.20939
575.421	4.21973
577.161	4.59895
578.901	3.86139
580.64	3.2636
582.379	2.92196
584.118	1.95878
585.855	1.61273
587.593	1.2763
589.331	1.4672
591.068	0.994939
592.805	1.97123
594.54	1.64344
596.277	1.35293
598.013	1.38058
599.749	1.38678
601.484	0.757177
603.217	1.00975
604.952	1.13754
606.687	1.02896
608.421	1.74875
610.153	1.93906
611.886	3.19647
613.619	4.88809
615.35	4.92499
617.083	5.30938
618.815	5.51045
620.547	6.49893
622.276	6.71256
624.008	8.02988
625.738	8.49616
627.467	8.47896
629.197	9.96515
630.927	10.1757
632.655	10.2306
634.384	10.2452
636.113	10.7094
637.839	10.8816
639.568	10.9543
641.293	11.8552
643.021	12.3882
644.748	13.4348
646.473	14.2661
648.2	14.5871
649.924	15.3526
651.65	16.4737
653.376	17.109
655.099	17.2752
656.824	17.9118
658.546	18.5393
660.271	18.8796
661.993	18.5047
663.716	19.8368
665.438	19.8993
667.161	19.6105
668.881	19.9391
670.604	19.8742
672.324	20.1438
674.045	20.6407
675.765	20.6265
677.486	21.1136
679.204	20.137
680.925	20.4565
682.643	21.0928
684.361	21.6036
686.08	21.3042
687.797	22.0216
689.516	22.923
691.232	22.9518
692.95	24.175
694.666	25.1075
696.382	24.9507
698.099	26.5283
699.813	26.9
701.528	26.6011
703.244	27.3247
704.958	27.8213
706.673	28.1697
708.387	28.564
710.099	29.601
711.814	29.6549
713.526	30.6332
715.238	31.5901
716.949	31.4484
718.663	31.5865
720.374	33.195
722.084	33.8551
723.796	35.4481
725.506	36.9995
727.216	38.2969
728.925	39.5713
730.636	41.384
732.345	42.164
734.053	42.6989
735.761	43.7826
737.471	44.4965
739.178	44.4718
740.885	44.9866
742.592	46.9125
744.298	48.4426
746.006	49.7683
747.712	51.6581
749.417	53.0604
751.122	54.6577
752.827	55.624
754.532	58.1295
756.236	59.7519
757.942	61.5159
759.645	62.5965
761.348	63.0049
763.051	64.6835
764.753	65.2199
766.456	67.68
768.158	67.9205
769.859	68.5337
771.56	69.6585
773.261	70.683
774.964	70.5633
776.664	71.2945
778.364	71.5256
780.064	71.9539
781.763	71.991
783.462	73.2764
785.16	73.8266
786.859	73.8057
788.557	74.6531
790.255	75.2083
791.952	75.2786
793.649	76.2535
795.346	77.2156
797.042	76.6593
798.738	76.4346
800.434	76.7268
802.127	75.9233
803.823	75.6578
805.517	76.2801
807.212	75.5114
808.906	75.7926
810.6	75.7642
812.293	75.1689
813.987	74.9123
815.68	74.3366
817.372	74.292
819.064	73.621
820.754	73.5222
822.446	72.9536
824.137	73.3626
825.828	74.751
827.519	74.802
829.209	75.2051
830.897	75.4377
832.587	75.0237
834.276	74.9191
835.966	75.9352
837.654	75.0791
839.341	74.9292
841.029	73.3183
842.717	71.5911
844.404	70.4583
846.091	69.4871
847.776	69.1135
849.463	67.5642
851.149	66.2209
852.833	64.7187
854.519	64.0825
856.204	62.9948
857.889	62.392
859.572	60.9798
861.256	60.8117
862.94	60.5067
864.622	60.2229
866.305	59.3555
867.988	58.671
869.669	58.3305
871.351	58.3073
873.033	57.8555
874.713	56.9959
876.395	56.341
878.074	56.236
879.755	54.4316
881.435	53.1393
883.114	52.91
884.794	52.1196
886.471	49.958
888.15	49.6632
889.829	48.2862
891.506	46.9492
893.184	46.4336
894.861	46.0864
896.538	45.4943
898.214	45.3088
899.891	44.9281
901.566	45.5257
903.242	43.6749
904.916	43.694
906.592	43.4575
908.266	43.6614
909.941	43.996
911.614	43.1267
913.288	43.4653
914.961	42.7259
916.635	42.8353
918.306	43.2533
919.979	43.1699
921.651	41.278
923.321	40.9702
924.994	40.3503
926.664	39.4915
928.336	40.3058
930.005	40.4341
931.674	40.5702
933.345	40.8785
935.014	40.6175
936.682	41.9901
938.352	42.4861
940.019	42.8242
941.687	43.4537
943.356	43.5184
945.022	44.4297
946.689	45.5721
948.357	44.6772
950.022	46.0706
951.688	47.5311
953.355	48.8859
955.02	49.0903
956.684	48.2613
958.348	47.6097
960.014	46.5858
961.678	45.5024
963.341	45.8686
965.004	47.6655
966.669	49.3918
968.331	49.9738
969.993	51.3562
971.655	53.0642
973.316	53.9886
974.979	55.5474
976.64	56.392
978.3	57.5462
979.961	57.803
981.62	57.8613
983.28	58.852
984.941	59.077
986.6	58.652
988.259	59.0022
989.917	57.9329
991.575	58.2186
993.233	57.4312
994.89	56.521
996.547	56.4934
998.204	55.4412
999.86	55.5381
1001.52	55.6254
1003.17	54.9865
1004.83	54.2009
1006.49	54.0346
1008.14	54.2412
1009.79	53.7253
1011.45	54.0833
1013.1	53.4014
1014.76	52.2847
1016.41	51.4927
1018.06	50.1531
1019.72	49.647
1021.37	48.4145
1023.02	46.5592
1024.67	45.3536
1026.32	43.7437
1027.97	42.4511
1029.62	41.5919
1031.27	39.4064
1032.92	38.7987
1034.57	37.4385
1036.22	35.5704
1037.87	34.4672
1039.52	32.6574
1041.17	30.8105
1042.82	30.9647
1044.47	31.8116
1046.11	32.8143
1047.76	33.3013
1049.41	32.8834
1051.06	31.2862
1052.7	30.9915
1054.35	29.8322
1055.99	28.5667
1057.64	27.1814
1059.28	26.0809
1060.93	25.1984
1062.57	24.1156
1064.22	24.3082
1065.86	23.8022
1067.5	22.3632
1069.15	21.5506
1070.79	20.5496
1072.43	20.7634
1074.08	21.6137
1075.72	20.7038
1077.36	21.1593
1079	20.9908
1080.64	21.3662
1082.28	21.9997
1083.92	22.205
1085.56	21.7559
1087.2	22.5736
1088.84	22.8978
1090.48	23.341
1092.12	23.5842
1093.76	23.408
1095.39	23.6448
1097.03	24.2847
1098.67	25.0395
1100.31	25.305
1101.94	25.0792
1103.58	24.9823
1105.22	24.5946
1106.85	25.145
1108.49	25.0822
1110.12	25.335
1111.76	25.0934
1113.39	24.3297
1115.03	24.5299
1116.66	24.796
1118.29	24.3578
1119.93	23.9662
1121.56	21.6881
1123.19	20.7341
1124.82	20.9892
1126.46	18.8023
1128.09	17.8736
1129.72	17.4226
1131.35	15.4336
1132.98	14.6436
1134.61	14.3736
1136.24	13.2718
1137.87	12.3628
1139.5	11.8812
1141.13	11.1568
1142.76	10.826
1144.39	10.3482
1146.01	9.3478
1147.64	8.22618
1149.27	7.93235
1150.9	7.37162
1152.53	6.74602
1154.15	6.9359
1155.78	5.9003
1157.4	3.89249
1159.03	3.62854
1160.65	2.82102
1162.28	2.54041
1163.9	1.89911
1165.53	1.67727
1167.15	1.59023
1168.78	2.0581
1170.4	2.55562
1172.02	3.44773
1173.65	4.70104
1175.27	5.17895
1176.89	6.7401
1178.51	8.56944
1180.14	8.73244
1181.76	9.59917
1183.38	10.4279
1185	12.1181
1186.62	13.6159
1188.24	14.7891
1189.86	15.334
1191.48	17.0624
1193.1	18.7914
1194.71	20.3615
1196.33	22.1849
1197.95	22.9113
1199.57	24.156
1201.19	25.8277
1202.8	26.7252
1204.42	29.0898
1206.04	31.0899
1207.65	32.6637
1209.27	36.2074
1210.88	38.4054
1212.5	39.6228
1214.12	41.9684
1215.73	43.8754
1217.35	45.6092
1218.96	47.8495
1220.57	49.6708
1222.19	51.4755
1223.8	54.1554
1225.41	55.9774
1227.03	57.3023
1228.64	59.9341
1230.25	61.7646
1231.86	62.4415
1233.47	63.6037
1235.08	64.4565
1236.69	64.8985
1238.31	65.0442
1239.92	65.5943
1241.52	65.6573
1243.13	66.8608
1244.74	67.2309
1246.35	67.688
1247.96	68.2777
1249.57	69.0322
1251.18	69.2063
1252.78	69.6256
1254.39	69.6952
1256	70.0522
1257.6	69.6041
1259.21	69.62
1260.82	69.2319
1262.42	69.1334
1264.03	69.0414
1265.63	69.1315
1267.24	69.3063
1268.84	68.7863
1270.45	68.86
1272.05	68.7991
1273.65	67.8458
1275.26	67.0326
1276.86	66.5423
1278.46	66.6937
1280.06	68.4079
1281.67	69.9193
1283.27	69.2861
1284.87	70.0626
1286.47	70.6915
1288.07	71.3487
1289.67	71.9305
1291.27	71.9928
1292.87	72.5415
1294.47	74.5262
1296.07	76.0756
1297.67	77.5186
1299.27	79.3456
1300.87	79.5892
1302.47	80.6839
1304.06	82.2847
1305.66	83.7806
1307.26	85.2185
1308.85	86.8989
1310.45	88.3563
1312.05	88.75
1313.64	89.8923
1315.24	90.8917
1316.83	92.6464
1318.43	93.5051
1320.02	93.8512
1321.62	94.2917
1323.21	94.3724
1324.8	93.4663
1326.4	94.0349
1327.99	93.4706
1329.59	93.3709
1331.18	93.2522
1332.77	93.1291
1334.36	93.0559
1335.95	92.1009
1337.54	91.1011
1339.14	90.5919
1340.73	89.8411
1342.32	88.4673
1343.91	87.7845
1345.5	87.0771
1347.09	85.2631
1348.67	82.5704
1350.26	80.4492
1351.85	78.4815
1353.44	77.189
1355.03	75.5876
1356.62	74.2877
1358.2	72.841
1359.79	71.5033
1361.38	69.3108
1362.96	66.4015
1364.55	65.2572
1366.14	63.4989
1367.72	61.6092
1369.31	60.463
1370.89	58.8005
1372.48	57.4291
1374.06	56.641
1375.64	55.56
1377.23	53.7854
1378.81	52.1131
1380.39	50.5242
1381.98	50.4951
1383.56	50.1081
1385.14	49.7638
1386.72	48.9521
1388.3	48.9613
1389.89	48.791
1391.47	46.7473
1393.05	46.361
1394.63	45.7094
1396.21	44.5763
1397.79	43.0162
1399.37	41.8715
1400.95	41.6003
1402.52	41.7618
1404.1	42.2629
1405.68	42.9061
1407.26	43.9208
1408.84	46.2573
1410.42	48.1097
1411.99	49.43
1413.57	51.7298
1415.15	53.145
1416.72	55.9324
1418.3	58.3498
1419.87	61.5023
1421.45	64.9729
1423.02	68.4574
1424.6	72.3576
1426.17	75.2352
1427.75	79.313
1429.32	83.152
1430.89	87.7962
1432.47	91.5113
1434.04	95.2062
1435.61	98.1541
1437.18	101.571
1438.76	105.076
1440.33	107.275
1441.9	109.71
1443.47	112.169
1445.04	113.941
1446.61	115.453
1448.18	116.505
1449.75	116.767
1451.32	117.226
1452.89	116.704
1454.46	115.764
1456.03	114.645
1457.6	113.285
1459.16	111.511
1460.73	109.888
1462.3	106.991
1463.87	104.142
1465.43	101.025
1467	97.0597
1468.56	91.9189
1470.13	86.8506
1471.7	82.7622
1473.26	77.1677
1474.83	72.5013
1476.39	67.5829
1477.96	63.2434
1479.52	58.7623
1481.08	54.9782
1482.65	51.0616
1484.21	47.287
1485.77	43.7126
1487.34	40.0648
1488.9	36.1964
1490.46	32.9143
1492.02	30.6064
1493.58	27.9833
1495.15	26.072
1496.71	24.3278
1498.27	22.7126
1499.83	21.8193
1501.39	21.1021
1502.95	20.6596
1504.51	19.8077
1506.07	19.1683
1507.63	18.5567
1509.18	18.4583
1510.74	17.4804
1512.3	17.587
1513.86	16.9268
1515.41	17.7868
1516.97	18.1061
1518.53	18.4821
1520.08	18.921
1521.64	19.6573
1523.2	20.2305
1524.75	20.8844
1526.31	21.4821
1527.86	22.779
1529.42	24.0598
1530.97	25.7564
1532.52	27.8681
1534.08	29.1588
1535.63	29.5399
1537.19	30.5824
1538.74	31.8492
1540.29	32.6922
1541.84	34.0854
1543.4	34.7872
1544.95	35.8749
1546.5	37.0389
1548.05	38.8659
1549.6	40.1389
1551.15	41.548
1552.7	43.8876
1554.25	45.159
1555.8	46.8768
1557.35	48.7041
1558.9	50.3501
1560.45	51.3075
1562	52.4393
1563.54	53.3834
1565.09	55.1895
1566.64	57.0255
1568.19	58.9868
1569.73	61.2991
1571.28	62.2394
1572.83	64.1726
1574.37	65.6152
1575.92	67.607
1577.47	70.455
1579.01	72.359
1580.56	73.7841
1582.1	75.2616
1583.64	77.1443
1585.19	79.1569
1586.73	80.4925
1588.28	81.7014
1589.82	83.6267
1591.36	84.3366
1592.9	85.3884
1594.45	85.8537
1595.99	85.9781
1597.53	86.5083
1599.07	87.2603
1600.61	87.3198
1602.15	87.2729
1603.69	87.286
1605.23	87.0738
1606.77	85.9716
1608.31	85.3928
1609.85	84.1073
1611.39	82.9184
1612.93	81.4107
1614.47	80.7647
1616.01	79.9172
1617.55	79.2678
1619.08	78.8121
1620.62	78.4384
1622.16	78.1543
1623.7	77.9039
1625.23	77.8808
1626.77	77.1854
1628.3	77.3235
1629.84	77.2563
1631.37	77.2153
1632.91	77.5589
1634.44	77.9337
1635.98	78.2169
1637.51	79.1461
1639.05	80.0503
1640.58	80.5601
1642.11	82.222
1643.65	84.439
1645.18	86.4816
1646.71	88.0846
1648.24	89.8433
1649.78	91.8016
1651.31	93.2278
1652.84	95.5813
1654.37	97.4842
1655.9	98.3696
1657.43	99.7026
1658.96	100.944
1660.49	102.082
1662.02	101.765
1663.55	102.009
1665.08	101.78
1666.61	101.648
1668.14	100.269
1669.66	99.353
1671.19	98.2023
1672.72	96.5818
1674.25	95.3937
1675.77	92.575
1677.3	90.0976
1678.83	87.1595
1680.35	84.257
1681.88	80.917
1683.4	77.747
1684.93	75.2491
1686.45	71.9594
1687.98	68.838
1689.5	64.9093
1691.03	61.791
1692.55	58.9359
1694.07	55.9636
1695.6	53.3299
1697.12	50.1607
1698.64	46.8159
1700.17	44.362
1701.69	41.4867
1703.21	39.4682
1704.73	36.9267
1706.25	34.3236
1707.77	31.663
1709.29	29.1423
1710.81	27.0988
1712.33	25.3138
1713.85	23.5493
1715.37	21.9981
1716.89	20.6839
1718.41	20.2254
1719.93	19.3843
1721.45	18.4971
1722.97	17.7794
1724.49	17.2174
1726	16.3667
1727.52	16.2436
1729.04	16.2537
1730.55	15.635
1732.07	15.1747
1733.59	14.5906
1735.1	13.8608
1736.62	13.5656
1738.13	12.991
1739.65	13.3077
1741.16	12.6887
1742.68	12.7058
1744.19	11.6978
1745.7	11.009
1747.22	10.4869
1748.73	9.51758
1750.24	9.1898
1751.76	8.26599
1753.27	8.65518
1754.78	7.66137
1756.29	7.30728
1757.8	6.86516
1759.31	6.81891
1760.83	6.9103
1762.34	6.84056
1763.85	6.60432
1765.36	5.9072
1766.87	5.6139
1768.38	5.53459
1769.89	5.47937
1771.39	5.59561
1772.9	5.09299
1774.41	4.34371
1775.92	4.07163
1777.43	3.64202
1778.94	3.19289
1780.44	2.15456
1781.95	2.29581
1783.46	1.75464
1784.96	1.96026
1786.47	1.69732
1787.97	1.82083
1789.48	2.01793
1790.99	2.18599
1792.49	1.65847
1794	2.18308
1795.5	1.9902
1797	2.36849
1798.51	2.50937
1800.01	2.2605
1801.51	1.9879
1803.02	1.76187
1804.52	1.99676
1806.02	2.19921
1807.53	2.2484
1809.03	1.99152
1810.53	2.59001
1812.03	3.07797
1813.53	3.06456
1815.03	3.08695
1816.53	3.02981
1818.03	2.91854
1819.53	2.36367
1821.03	2.65615
1822.53	3.05379
1824.03	3.13183
1825.53	3.58509
1827.03	3.93748
1828.53	3.83434
1830.02	3.27211
1831.52	3.52255
1833.02	4.34029
1834.52	4.51563
1836.01	4.08442
1837.51	4.22461
1839.01	4.19849
1840.5	3.66763
1842	3.79328
1843.49	3.82322
1844.99	3.37982
1846.48	2.48712
1847.98	1.89333
1849.47	1.26613
1850.97	1.56189
1852.46	1.4546
1853.95	1.16484
1855.45	1.38052
1856.94	1.46182
1858.43	1.58314
1859.93	1.39776
1861.42	1.25157
1862.91	1.05433
1864.4	0.206145
1865.89	0.525247
1867.38	0.403125
1868.87	0.968601
1870.36	0.61202
1871.85	1.22909
1873.34	1.07012
1874.83	1.22416
1876.32	1.58842
1877.81	2.03904
1879.3	2.61163
1880.79	2.14492
1882.28	2.1885
1882.52	2.66042
1884.02	2.71178
1885.51	2.97334
1887.01	3.27531
1888.5	3.35528
1889.99	3.53219
1891.49	3.78763
1892.98	3.97218
1894.47	4.54579
1895.97	4.20012
1897.46	4.52862
1898.95	4.37863
1900.44	4.33901
1901.93	4.26555
1903.42	4.79169
1904.91	4.48041
1906.4	4.52958
1907.89	3.50994
1909.38	3.0614
1910.87	3.31192
1912.36	2.70545
1913.85	2.24191
1915.34	2.00275
1916.83	1.58119
1918.32	1.57184
1919.8	1.95469
1921.29	2.99651
1922.78	3.40792
1924.27	4.03593
1925.75	3.67334
1927.24	4.07362
1928.73	4.07619
1930.21	3.69143
1931.7	3.7812
1933.18	3.47362
1934.67	3.11079
1936.15	3.17754
1937.64	3.8878
1939.12	4.96655
1940.61	4.78082
1942.09	4.58402
1943.57	4.18367
1945.06	4.35297
1946.54	4.17058
1948.02	4.80001
1949.51	5.0089
1950.99	5.40021
1952.47	5.38388
1953.95	4.70335
1955.43	5.76934
1956.91	6.10346
1958.4	5.98171
1959.88	6.62589
1961.36	6.70551
1962.84	6.82496
1964.32	7.1188
1965.8	7.46375
1967.27	7.66858
1968.75	7.80512
1970.23	7.54922
1971.71	7.36699
1973.19	6.86604
1974.67	6.53937
1976.14	6.77631
1977.62	6.18847
1979.1	5.34997
1980.58	5.61317
1982.05	4.57044
1983.53	4.04479
1985	4.16928
1986.48	4.68662
1987.95	4.55332
1989.43	4.14432
1990.9	4.28932
1992.38	4.78193
1993.85	5.02704
1995.33	5.04553
1996.8	4.18853
1998.27	3.94281
1999.75	3.27428
2001.22	3.07469
2002.69	2.01876
2004.16	2.11138
2005.64	2.48658
2007.11	2.36336
2008.58	1.67469
2010.05	1.92001
2011.52	2.22615
2012.99	2.3576
2014.46	1.62633
2015.93	2.30103
2017.4	2.53282
2018.87	2.53994
2020.34	3.38854
2021.81	4.57261
2023.28	4.30233
2024.75	4.47291
2026.22	4.33077
2027.69	4.80033
2029.15	5.92543
2030.62	6.39004
2032.09	6.71623
2033.56	6.8396
2035.02	6.64006
2036.49	6.21981
2037.96	6.5093
2039.42	6.84683
2040.89	6.59807
2042.35	6.28544
2043.82	6.11725
2045.28	5.56442
2046.75	5.79688
2048.21	6.01743
2049.67	5.84334
2051.14	5.11595
2052.6	5.16903
2054.07	5.22134
2055.53	4.24096
2056.99	4.43787
2058.45	4.52716
2059.92	5.31147
2061.38	4.72412
2062.84	5.37523
2064.3	6.36846
2065.76	6.65028
2067.22	6.52772
2068.68	6.53167
2070.14	5.95987
2071.6	6.20668
2073.06	5.90776
2074.52	6.31153
2075.98	7.13259
2077.44	8.0169
2078.9	8.02282
2080.36	7.60407
2081.82	7.58226
2083.27	8.3379
2084.73	8.10911
2086.19	7.88559
2087.65	7.66402
2089.1	8.49803
2090.56	8.64281
2092.02	8.59541
2093.47	8.9995
2094.93	8.68139
2096.38	7.72324
2097.84	7.44439
2099.29	7.35377
2100.75	7.09148
2102.2	6.85841
2103.66	6.89297
2105.11	5.94937
2106.56	5.14798
2108.02	4.75898
2109.47	5.00804
2110.92	5.02031
2112.38	4.33473
2113.83	4.06432
2115.28	4.32871
2116.73	4.22298
2118.18	3.93121
2119.63	3.72827
2121.09	3.23344
2122.54	2.7433
2123.99	2.84667
2125.44	2.88069
2126.89	2.92141
2128.34	2.64564
