#Acq. time (s)=	45
#Accumulations=	2
#Range (cm-¹)=	200...3150
#Windows=	2
#Auto scanning=	Off
#Autofocus=	Off
#Macrospot=	Off
#AutoExposure=	Off
#Spike filter=	Multiple accum.
#Delay time (s)=	0
#Binning=	1
#Readout mode=	Signal
#DeNoise=	Off
#ICS correction=	On
#Dark correction=	Off
#Inst. Process=	Off
#Detector Gain=	Best Dynamic Range
#Detector ADC=	20 kHz       
#Detector temperature (°C)=	-69.85
#Instrument=	LabRAM HR Evol
#Detector=	Synapse
#Objective=	x100
#Grating=	600 gr/mm
#ND Filter=	100%
#Laser (nm)=	532 
#Hole=	100.021
#Range=	Auto
#Laser Pol.=	No
#Raman. Pol.=	No
#Laser Pol. (°)=	-0.0007625
#Raman Pol. (°)=	89.9995
#Collection=	Microscope
#StageXY=	Marzhauser
#StageZ=	Marzhauser
#X (µm)=	8982.7
#Y (µm)=	-3064.7
#Z (µm)=	-55.15
#Full time(mm:ss)=	3:18
#Project=	
#Sample=	
#Site=	
#Title=	Thy_00_07_29_2x_45s_532 nm_x100_100%_600 gr_mm
#Remark=	
#Date=	28.06.2022 12:14
#Acquired=	28.06.2022 12:14:12
#Base:Fit=	10.08.2022 10:07:56
#Base:Sub=	10.08.2022 10:08:40
#Filter:Polynom=	16.08.2022 10:26:06
#AxisType[0]=Intens
#AxisUnit[0]=Cnt
#AxisType[1]=Spectr
#AxisUnit[1]=1/cm
200.407	3.5203
202.221	4.61201
204.035	2.87644
205.849	2.42661
207.665	2.31708
209.478	2.21827
211.291	2.40101
213.104	1.5426
214.916	2.20122
216.73	1.79299
218.541	2.09853
220.352	1.27604
222.163	1.35763
223.973	0.382179
225.785	0.156331
227.595	0.139085
229.404	-0.0407459
231.213	-0.0832034
233.022	0.274459
234.83	1.3556
236.638	1.18745
238.448	0.296236
240.255	0.566094
242.062	0.482425
243.868	0.597272
245.675	0.465639
247.48	1.50142
249.286	1.22964
251.091	1.36873
252.896	1.30676
254.702	1.8687
256.506	1.89203
258.31	2.1351
260.113	3.70815
261.916	4.82428
263.719	5.61591
265.521	7.16966
267.323	7.24726
269.125	7.02375
270.926	8.1821
272.727	10.6837
274.527	11.4023
276.328	11.3718
278.127	12.1739
279.927	11.9769
281.726	12.2399
283.525	12.3761
285.323	12.7279
287.121	13.5823
288.919	14.7428
290.716	14.2709
292.513	14.7294
294.31	16.1287
296.104	17.2534
297.9	17.8619
299.696	18.9507
301.491	19.5234
303.286	20.1872
305.081	21.867
306.875	21.6409
308.669	21.4434
310.463	21.3819
312.256	22.1148
314.047	21.6332
315.839	22.3164
317.631	22.7814
319.423	22.563
321.215	22.3809
323.006	22.0618
324.794	21.2729
326.585	19.4257
328.375	18.1095
330.165	17.5158
331.954	17.1357
333.741	16.9643
335.53	15.8696
337.318	16.1011
339.106	14.9469
340.894	14.721
342.679	13.9785
344.466	13.9307
346.253	13.7218
348.039	14.1993
349.823	15.4035
351.608	14.8737
353.393	14.3895
355.176	12.9861
356.961	13.3091
358.745	12.6415
360.529	14.0757
362.31	14.0611
364.093	12.2142
365.876	12.1884
367.657	13.5716
369.439	13.7879
371.221	13.9297
373	15.3772
374.781	16.8207
376.56	17.596
378.34	19.1567
380.12	18.7908
381.898	19.8049
383.677	20.8778
385.456	21.2244
387.233	22.2023
389.011	22.9955
390.787	23.4443
392.565	24.4839
394.34	24.2311
396.117	24.023
397.894	23.529
399.668	22.9726
401.444	21.8609
403.217	20.8792
404.993	21.1159
406.766	20.2927
408.54	18.8855
410.312	17.8564
412.086	16.1574
413.858	14.8393
415.631	14.1074
417.402	13.0666
419.174	13.6963
420.944	13.2963
422.716	11.6901
424.486	11.0554
426.257	10.823
428.025	10.2808
429.794	8.41924
431.564	7.67724
433.332	7.3962
435.101	7.06672
436.868	5.38229
438.637	5.22619
440.403	4.12631
442.169	3.61026
443.937	4.04547
445.703	5.85935
447.468	5.03858
449.234	6.23962
450.999	6.14317
452.765	7.40834
454.528	7.85783
456.292	8.44786
458.057	8.12006
459.819	9.19108
461.582	9.93949
463.344	9.96034
465.107	10.3357
466.868	10.0586
468.629	10.6807
470.392	11.8748
472.152	12.4827
473.912	13.2978
475.672	15.3269
477.433	15.0818
479.192	15.2691
480.951	15.667
482.709	15.3327
484.469	15.9005
486.226	16.1525
487.984	16.6151
489.74	17.3555
491.499	17.7874
493.255	18.8299
495.011	18.456
496.767	18.618
498.522	18.6607
500.277	19.1878
502.033	19.7181
503.788	19.6917
505.541	19.5311
507.295	20.5069
509.048	19.9981
510.801	19.4615
512.553	19.9009
514.308	19.534
516.06	18.4601
517.811	16.8466
519.562	16.9402
521.313	17.6703
523.063	17.9894
524.814	17.3095
526.563	18.6874
528.313	18.3219
530.062	18.1389
531.811	18.2419
533.559	17.3906
535.308	16.3508
537.055	16.3618
538.803	15.3643
540.55	14.7043
542.297	14.6741
544.043	14.1343
545.789	13.052
547.535	12.5277
549.281	11.5728
551.026	11.9774
552.771	11.2485
554.515	11.4824
556.259	11.6857
558.003	10.8595
559.747	9.41256
561.49	10.1749
563.233	10.0638
564.975	9.09441
566.717	9.18818
568.459	9.45259
570.2	9.02568
571.942	9.11338
573.68	8.42958
575.421	7.76655
577.161	6.67229
578.901	6.39845
580.64	6.88092
582.379	6.23635
584.118	5.76958
585.855	5.79114
587.593	5.78855
589.331	4.97489
591.068	5.11804
592.805	5.17805
594.54	4.67271
596.277	3.70897
598.013	3.75218
599.749	4.01013
601.484	2.72003
603.217	1.8063
604.952	2.17246
606.687	2.49256
608.421	2.55401
610.153	1.95602
611.886	1.21799
613.619	1.90158
615.35	1.28616
617.083	1.99425
618.815	2.83699
620.547	2.34214
622.276	3.56172
624.008	3.62988
625.738	3.90313
627.467	3.9356
629.197	3.95541
630.927	3.50231
632.655	4.06041
634.384	4.1031
636.113	4.64261
637.839	4.71433
639.568	4.36682
641.293	3.97836
643.021	4.20821
644.748	4.41828
646.473	4.45632
648.2	6.20839
649.924	5.6714
651.65	6.3683
653.376	6.98626
655.099	7.57448
656.824	7.03342
658.546	7.17441
660.271	6.75095
661.993	7.0248
663.716	8.19553
665.438	9.16799
667.161	9.6729
668.881	9.3286
670.604	9.33694
672.324	10.4031
674.045	10.3247
675.765	10.5396
677.486	10.2018
679.204	10.4866
680.925	10.6747
682.643	10.5149
684.361	11.2745
686.08	10.1308
687.797	9.96488
689.516	11.5863
691.232	12.985
692.95	13.1204
694.666	14.3925
696.382	16.115
698.099	16.3722
699.813	17.495
701.528	17.8623
703.244	18.5979
704.958	18.7522
706.673	19.3683
708.387	21.0414
710.099	20.9202
711.814	22.1749
713.526	23.3888
715.238	25.1807
716.949	26.7133
718.663	27.815
720.374	28.5441
722.084	29.9031
723.796	30.884
725.506	32.6814
727.216	33.0734
728.925	35.6858
730.636	36.2329
732.345	38.1638
734.053	39.5097
735.761	40.7783
737.471	41.6523
739.178	41.7606
740.885	42.8574
742.592	42.8504
744.298	44.4268
746.006	46.8229
747.712	49.0216
749.417	51.3852
751.122	51.5917
752.827	52.7645
754.532	53.7994
756.236	55.3423
757.942	57.8989
759.645	58.0104
761.348	58.5976
763.051	59.4435
764.753	59.9727
766.456	59.8901
768.158	59.4942
769.859	60.309
771.56	60.5074
773.261	61.7799
774.964	61.5159
776.664	61.5472
778.364	60.8009
780.064	60.287
781.763	59.5161
783.462	59.0166
785.16	58.3932
786.859	57.9192
788.557	58.0816
790.255	58.8586
791.952	58.8398
793.649	58.1525
795.346	58.2129
797.042	58.2841
798.738	58.1606
800.434	57.7362
802.127	57.1607
803.823	56.0257
805.517	55.4417
807.212	54.6999
808.906	54.6373
810.6	53.3142
812.293	52.4084
813.987	51.75
815.68	50.7985
817.372	51.1588
819.064	50.5439
820.754	49.997
822.446	48.3292
824.137	48.3435
825.828	48.4345
827.519	48.5398
829.209	49.165
830.897	48.9428
832.587	48.2731
834.276	47.6066
835.966	46.4003
837.654	46.4383
839.341	46.0732
841.029	45.5322
842.717	44.812
844.404	42.4539
846.091	41.5032
847.776	39.9617
849.463	37.9939
851.149	37.1074
852.833	35.3557
854.519	34.9361
856.204	34.177
857.889	34.3584
859.572	32.4149
861.256	32.5876
862.94	31.2268
864.622	30.0739
866.305	30.1771
867.988	30.4101
869.669	28.4984
871.351	28.0955
873.033	27.3325
874.713	26.2908
876.395	25.0574
878.074	23.6045
879.755	23.6208
881.435	23.2464
883.114	22.8624
884.794	23.1255
886.471	22.8763
888.15	21.5905
889.829	21.2355
891.506	20.6492
893.184	19.8329
894.861	19.4788
896.538	19.6455
898.214	18.7567
899.891	19.346
901.566	19.7922
903.242	19.7704
904.916	19.0334
906.592	18.919
908.266	19.289
909.941	19.3896
911.614	18.8388
913.288	18.5798
914.961	17.9995
916.635	19.0892
918.306	18.828
919.979	18.2149
921.651	18.4638
923.321	17.9613
924.994	17.4961
926.664	16.7147
928.336	16.4672
930.005	15.9814
931.674	16.1524
933.345	16.092
935.014	15.9843
936.682	16.0846
938.352	17.25
940.019	18.4095
941.687	19.6112
943.356	18.5866
945.022	19.2654
946.689	19.6942
948.357	21.0978
950.022	21.2637
951.688	20.5047
953.355	19.1275
955.02	20.2228
956.684	19.5735
958.348	19.3059
960.014	17.793
961.678	17.4115
963.341	17.8964
965.004	18.2865
966.669	18.7034
968.331	20.0018
969.993	20.0504
971.655	20.7555
973.316	21.6466
974.979	23.0525
976.64	24.3119
978.3	26.0207
979.961	26.6645
981.62	26.7251
983.28	27.91
984.941	27.9368
986.6	28.3147
988.259	27.129
989.917	26.7356
991.575	27.2991
993.233	27.7409
994.89	27.8428
996.547	28.1841
998.204	28.0016
999.86	28.1799
1001.52	26.8058
1003.17	25.8123
1004.83	25.5401
1006.49	24.6985
1008.14	25.5921
1009.79	25.2791
1011.45	25.2446
1013.1	23.7407
1014.76	22.7657
1016.41	21.5911
1018.06	20.6848
1019.72	20.6522
1021.37	19.9821
1023.02	19.5656
1024.67	18.6713
1026.32	17.8858
1027.97	16.7416
1029.62	16.3357
1031.27	15.0656
1032.92	12.8409
1034.57	10.3271
1036.22	9.49255
1037.87	8.83887
1039.52	7.34863
1041.17	6.26293
1042.82	4.87858
1044.47	5.60159
1046.11	6.36396
1047.76	6.43454
1049.41	6.63847
1051.06	5.97504
1052.7	6.046
1054.35	5.58024
1055.99	5.28522
1057.64	5.52904
1059.28	5.09847
1060.93	4.56015
1062.57	3.84237
1064.22	2.90777
1065.86	3.43303
1067.5	3.02946
1069.15	4.06025
1070.79	4.20852
1072.43	4.91071
1074.08	6.76325
1075.72	6.59995
1077.36	6.89203
1079	7.46603
1080.64	6.93501
1082.28	6.19647
1083.92	7.24048
1085.56	7.03838
1087.2	7.52778
1088.84	8.53518
1090.48	9.8159
1092.12	9.71479
1093.76	9.03829
1095.39	9.16393
1097.03	10.9776
1098.67	13.2297
1100.31	13.9075
1101.94	15.4546
1103.58	16.3661
1105.22	17.8962
1106.85	17.9131
1108.49	17.9969
1110.12	17.5411
1111.76	18.8501
1113.39	18.4118
1115.03	18.0463
1116.66	18.0483
1118.29	18.9361
1119.93	18.4679
1121.56	18.2862
1123.19	18.0288
1124.82	17.6604
1126.46	16.7595
1128.09	16.0809
1129.72	14.4535
1131.35	14.2345
1132.98	13.2322
1134.61	13.8841
1136.24	13.3473
1137.87	13.6044
1139.5	13.2364
1141.13	13.6914
1142.76	13.8198
1144.39	13.1457
1146.01	14.3358
1147.64	15.1171
1149.27	15.1859
1150.9	15.485
1152.53	14.5536
1154.15	14.6608
1155.78	14.1609
1157.4	12.5219
1159.03	11.7859
1160.65	11.0618
1162.28	8.90593
1163.9	8.6951
1165.53	9.16687
1167.15	8.44156
1168.78	8.81987
1170.4	9.13039
1172.02	10.0434
1173.65	9.8988
1175.27	10.4859
1176.89	11.8009
1178.51	12.1458
1180.14	12.5464
1181.76	12.9293
1183.38	13.1218
1185	13.415
1186.62	13.7498
1188.24	13.8829
1189.86	14.8102
1191.48	15.1102
1193.1	15.8868
1194.71	16.1001
1196.33	16.9118
1197.95	17.3138
1199.57	17.5231
1201.19	18.346
1202.8	19.7533
1204.42	21.2929
1206.04	22.156
1207.65	24.1904
1209.27	26.1956
1210.88	28.5323
1212.5	30.4713
1214.12	33.3247
1215.73	36.1565
1217.35	38.8218
1218.96	41.2786
1220.57	44.3146
1222.19	46.9538
1223.8	49.7105
1225.41	52.4625
1227.03	56.207
1228.64	58.5536
1230.25	60.6416
1231.86	62.9602
1233.47	65.0995
1235.08	67.1077
1236.69	67.6536
1238.31	69.2035
1239.92	70.6499
1241.52	71.9571
1243.13	73.1346
1244.74	73.5207
1246.35	74.1118
1247.96	74.2871
1249.57	74.7815
1251.18	75.5863
1252.78	76.1263
1254.39	76.3443
1256	77.0513
1257.6	76.8269
1259.21	76.4056
1260.82	77.1972
1262.42	76.1859
1264.03	74.6183
1265.63	75.0412
1267.24	75.0657
1268.84	74.2505
1270.45	73.7221
1272.05	73.8596
1273.65	74.1073
1275.26	73.7775
1276.86	73.7914
1278.46	74.245
1280.06	75.5684
1281.67	77.6253
1283.27	79.7424
1284.87	80.8887
1286.47	82.6332
1288.07	84.9609
1289.67	87.0854
1291.27	89.5728
1292.87	89.9305
1294.47	91.8157
1296.07	93.0887
1297.67	95.3305
1299.27	97.1474
1300.87	100.287
1302.47	103.361
1304.06	106.411
1305.66	108.83
1307.26	111.582
1308.85	113.414
1310.45	115.725
1312.05	117.662
1313.64	118.432
1315.24	118.497
1316.83	119.49
1318.43	119.637
1320.02	120.213
1321.62	119.744
1323.21	120.072
1324.8	119.815
1326.4	120.064
1327.99	120.401
1329.59	119.951
1331.18	119.521
1332.77	118.309
1334.36	117.751
1335.95	115.951
1337.54	114.129
1339.14	113.301
1340.73	112.313
1342.32	110.808
1343.91	110.378
1345.5	109.661
1347.09	108.316
1348.67	107.647
1350.26	107.405
1351.85	106.458
1353.44	105.157
1355.03	104.513
1356.62	103.315
1358.2	102.411
1359.79	101.302
1361.38	100.183
1362.96	98.3456
1364.55	96.4886
1366.14	95.9089
1367.72	94.4227
1369.31	92.8573
1370.89	90.7058
1372.48	89.1805
1374.06	88.91
1375.64	88.4777
1377.23	88.5081
1378.81	88.8627
1380.39	89.4268
1381.98	88.6707
1383.56	87.5111
1385.14	86.9724
1386.72	85.8965
1388.3	84.4678
1389.89	84.2262
1391.47	82.1843
1393.05	80.4053
1394.63	79.2957
1396.21	78.6299
1397.79	77.3651
1399.37	76.9985
1400.95	75.9625
1402.52	75.1701
1404.1	74.6262
1405.68	73.4748
1407.26	73.3378
1408.84	73.0662
1410.42	74.1538
1411.99	74.6726
1413.57	75.6954
1415.15	76.6175
1416.72	78.5694
1418.3	80.9815
1419.87	82.9927
1421.45	85.7124
1423.02	89.5101
1424.6	92.2609
1426.17	96.569
1427.75	99.2084
1429.32	102.25
1430.89	104.545
1432.47	107.905
1434.04	110.008
1435.61	112.021
1437.18	115.202
1438.76	117.944
1440.33	119.825
1441.9	122.319
1443.47	124.892
1445.04	126.811
1446.61	127.777
1448.18	128.934
1449.75	129.283
1451.32	129.057
1452.89	128.628
1454.46	128.689
1456.03	128.678
1457.6	128.701
1459.16	127.967
1460.73	125.902
1462.3	123.588
1463.87	121.876
1465.43	118.847
1467	115.781
1468.56	112.454
1470.13	107.641
1471.7	102.924
1473.26	98.8785
1474.83	94.5699
1476.39	90.6085
1477.96	87.8777
1479.52	82.8885
1481.08	79.858
1482.65	76.8615
1484.21	73.6788
1485.77	70.5979
1487.34	68.5491
1488.9	66.4744
1490.46	63.7317
1492.02	62.2744
1493.58	60.4695
1495.15	58.6916
1496.71	57.3544
1498.27	57.2794
1499.83	57.3867
1501.39	57.3296
1502.95	56.1172
1504.51	56.0468
1506.07	54.8942
1507.63	55.2429
1509.18	54.2748
1510.74	53.9007
1512.3	54.0559
1513.86	54.8471
1515.41	55.3556
1516.97	54.9221
1518.53	54.9395
1520.08	56.3089
1521.64	56.4702
1523.2	57.3408
1524.75	58.4593
1526.31	59.7804
1527.86	60.7749
1529.42	61.4505
1530.97	63.6598
1532.52	64.9983
1534.08	67.073
1535.63	68.6156
1537.19	69.579
1538.74	69.2643
1540.29	70.5606
1541.84	71.8093
1543.4	73.187
1544.95	74.342
1546.5	75.9221
1548.05	77.8787
1549.6	80.1928
1551.15	83.9987
1552.7	86.8778
1554.25	90.5411
1555.8	94.5861
1557.35	96.8113
1558.9	100.534
1560.45	102.714
1562	106.159
1563.54	108.58
1565.09	111.294
1566.64	114
1568.19	115.855
1569.73	118.969
1571.28	120.45
1572.83	123.352
1574.37	127
1575.92	130.383
1577.47	132.98
1579.01	134.638
1580.56	135.502
1582.1	136.625
1583.64	137.821
1585.19	139.346
1586.73	140.14
1588.28	141.706
1589.82	142.882
1591.36	142.553
1592.9	142.23
1594.45	142.066
1595.99	141.824
1597.53	141.464
1599.07	139.321
1600.61	138.051
1602.15	136.141
1603.69	133.976
1605.23	132.144
1606.77	131.029
1608.31	129.456
1609.85	128.099
1611.39	126.441
1612.93	124.532
1614.47	122.626
1616.01	120.772
1617.55	120.585
1619.08	120.02
1620.62	119.299
1622.16	118.727
1623.7	118.516
1625.23	117.297
1626.77	117.618
1628.3	118.164
1629.84	117.82
1631.37	118.304
1632.91	118.531
1634.44	118.065
1635.98	117.275
1637.51	117.483
1639.05	118.196
1640.58	118.031
1642.11	118.821
1643.65	120.537
1645.18	121.029
1646.71	122.642
1648.24	122.973
1649.78	123.454
1651.31	123.247
1652.84	123.181
1654.37	123.013
1655.9	122.083
1657.43	121.141
1658.96	120.381
1660.49	119.039
1662.02	117.467
1663.55	114.969
1665.08	112.911
1666.61	110.397
1668.14	107.691
1669.66	104.906
1671.19	102.234
1672.72	99.1032
1674.25	96.2926
1675.77	92.088
1677.3	90.0457
1678.83	86.7363
1680.35	84.1829
1681.88	81.0936
1683.4	78.0758
1684.93	73.6435
1686.45	69.7922
1687.98	66.1056
1689.5	63.1302
1691.03	59.5126
1692.55	56.9041
1694.07	53.7501
1695.6	50.0726
1697.12	46.0193
1698.64	43.7149
1700.17	40.5971
1701.69	38.0842
1703.21	37.0396
1704.73	34.309
1706.25	31.8446
1707.77	30.2405
1709.29	28.6584
1710.81	27.2861
1712.33	25.7709
1713.85	24.5013
1715.37	23.3881
1716.89	22.1338
1718.41	21.9551
1719.93	21.6435
1721.45	20.4635
1722.97	19.5544
1724.49	18.4784
1726	18.1879
1727.52	18.0417
1729.04	18.1156
1730.55	17.3397
1732.07	16.8244
1733.59	16.4658
1735.1	15.1687
1736.62	15.0817
1738.13	15.0664
1739.65	14.7599
1741.16	15.0531
1742.68	14.9063
1744.19	14.1296
1745.7	13.7076
1747.22	13.564
1748.73	12.8854
1750.24	12.0417
1751.76	12.0123
1753.27	12.3499
1754.78	11.4532
1756.29	12.0298
1757.8	10.9393
1759.31	10.039
1760.83	9.73216
1762.34	10.0093
1763.85	10.0104
1765.36	9.01671
1766.87	8.36861
1768.38	7.99102
1769.89	7.08546
1771.39	6.98034
1772.9	7.15731
1774.41	7.71942
1775.92	7.44176
1777.43	7.86991
1778.94	7.91637
1780.44	7.7883
1781.95	7.79996
1783.46	7.77044
1784.96	7.84001
1786.47	7.60651
1787.97	6.71369
1789.48	5.70957
1790.99	5.96134
1792.49	6.10492
1794	6.29742
1795.5	6.12584
1797	5.60674
1798.51	6.03215
1800.01	5.83482
1801.51	5.58084
1803.02	5.02457
1804.52	4.78585
1806.02	4.3555
1807.53	4.28721
1809.03	3.96839
1810.53	3.67958
1812.03	3.68259
1813.53	3.40272
1815.03	2.95432
1816.53	3.03588
1818.03	2.75889
1819.53	2.91089
1821.03	3.01541
1822.53	3.15927
1824.03	3.33676
1825.53	3.98073
1827.03	3.97378
1828.53	3.36927
1830.02	2.85792
1831.52	3.18806
1833.02	2.67761
1834.52	2.87432
1836.01	3.58683
1837.51	3.09874
1839.01	2.3185
1840.5	2.57424
1842	2.64102
1843.49	3.2445
1844.99	3.19619
1846.48	3.06051
1847.98	2.81002
1849.47	2.59349
1850.97	2.343
1852.46	2.835
1853.95	2.57907
1855.45	1.75157
1856.94	1.48411
1858.43	1.14974
1859.93	1.37195
1861.42	1.15241
1862.91	0.952111
1864.4	0.767872
1865.89	0.708973
1867.38	0.530308
1868.87	0.634716
1870.36	-0.0284829
1871.85	-0.302586
1873.34	-0.11791
1874.83	-0.660286
1876.32	-0.0619181
1877.81	-0.297198
1879.3	0.00540809
1880.79	0.284205
1882.28	1.00046
1882.52	1.06173
1884.02	1.25334
1885.51	1.1127
1887.01	2.05247
1888.5	1.93961
1889.99	3.09111
1891.49	3.86104
1892.98	4.37183
1894.47	3.52822
1895.97	4.06149
1897.46	3.96457
1898.95	3.62708
1900.44	3.14152
1901.93	3.04519
1903.42	3.4294
1904.91	3.75952
1906.4	3.01012
1907.89	3.70936
1909.38	3.94661
1910.87	3.57905
1912.36	3.99199
1913.85	3.97997
1915.34	3.75931
1916.83	4.0029
1918.32	3.68238
1919.8	4.47125
1921.29	4.48068
1922.78	4.75917
1924.27	5.01198
1925.75	5.37507
1927.24	5.27448
1928.73	4.56367
1930.21	5.54525
1931.7	5.20187
1933.18	5.17529
1934.67	5.0726
1936.15	4.73915
1937.64	4.2445
1939.12	3.87144
1940.61	4.08907
1942.09	4.30568
1943.57	4.09199
1945.06	4.2145
1946.54	4.23658
1948.02	4.0358
1949.51	4.97665
1950.99	4.30383
1952.47	4.60223
1953.95	4.93625
1955.43	4.64914
1956.91	4.17729
1958.4	4.93156
1959.88	4.82527
1961.36	4.171
1962.84	3.22429
1964.32	4.01245
1965.8	3.40309
1967.27	2.81129
1968.75	2.10205
1970.23	2.57435
1971.71	2.95443
1973.19	3.17542
1974.67	3.3942
1976.14	3.21108
1977.62	3.40771
1979.1	3.46237
1980.58	4.20037
1982.05	5.19487
1983.53	5.77723
1985	6.37192
1986.48	6.7243
1987.95	6.72183
1989.43	7.33043
1990.9	7.8511
1992.38	7.88533
1993.85	8.1989
1995.33	7.40417
1996.8	7.76705
1998.27	7.91314
1999.75	8.01849
2001.22	7.9841
2002.69	7.8314
2004.16	8.60701
2005.64	7.77334
2007.11	7.64515
2008.58	7.52586
2010.05	6.85931
2011.52	6.44624
2012.99	6.0809
2014.46	5.86087
2015.93	5.69113
2017.4	4.54545
2018.87	3.84664
2020.34	3.59825
2021.81	3.31072
2023.28	3.67099
2024.75	2.78121
2026.22	2.82786
2027.69	2.46718
2029.15	2.46554
2030.62	2.39873
2032.09	3.01336
2033.56	2.29378
2035.02	2.70257
2036.49	3.17305
2037.96	3.81431
2039.42	3.18207
2040.89	3.3567
2042.35	3.4242
2043.82	3.99745
2045.28	4.66972
2046.75	4.46366
2048.21	4.18145
2049.67	3.89583
2051.14	4.54279
2052.6	4.97387
2054.07	5.63511
2055.53	5.84023
2056.99	6.31226
2058.45	6.81204
2059.92	6.86024
2061.38	6.81604
2062.84	7.25
2064.3	7.3714
2065.76	6.94372
2067.22	6.82506
2068.68	7.12723
2070.14	7.45535
2071.6	7.60872
2073.06	7.86857
2074.52	7.34706
2075.98	7.08345
2077.44	6.68433
2078.9	6.19715
2080.36	5.70352
2081.82	5.7433
2083.27	5.10011
2084.73	4.87033
2086.19	4.78712
2087.65	4.57069
2089.1	4.1663
2090.56	3.40027
2092.02	4.03035
2093.47	4.12672
2094.93	4.46548
2096.38	4.2012
2097.84	3.83991
2099.29	3.9908
2100.75	4.25369
2102.2	4.53573
2103.66	4.30369
2105.11	4.54288
2106.56	4.08558
2108.02	4.53904
2109.47	4.3799
2110.92	3.96546
2112.38	3.9153
2113.83	4.42241
2115.28	4.22643
2116.73	4.69335
2118.18	4.12997
2119.63	4.36182
2121.09	3.60589
2122.54	4.01802
2123.99	4.31971
2125.44	4.33206
2126.89	5.57754
2128.34	5.88788
2129.79	6.07614
2131.23	6.234
2132.68	5.71716
2134.13	5.43907
