#Acq. time (s)=	45
#Accumulations=	2
#Range (cm-¹)=	200...3150
#Windows=	2
#Auto scanning=	Off
#Autofocus=	Off
#Macrospot=	Off
#AutoExposure=	Off
#Spike filter=	Multiple accum.
#Delay time (s)=	0
#Binning=	1
#Readout mode=	Signal
#DeNoise=	Off
#ICS correction=	On
#Dark correction=	Off
#Inst. Process=	Off
#Detector Gain=	Best Dynamic Range
#Detector ADC=	20 kHz       
#Detector temperature (°C)=	-69.85
#Instrument=	LabRAM HR Evol
#Detector=	Synapse
#Objective=	x100
#Grating=	600 gr/mm
#ND Filter=	100%
#Laser (nm)=	532 
#Hole=	100.021
#Range=	Auto
#Laser Pol.=	No
#Raman. Pol.=	No
#Laser Pol. (°)=	-0.0007625
#Raman Pol. (°)=	89.9995
#Collection=	Microscope
#StageXY=	Marzhauser
#StageZ=	Marzhauser
#X (µm)=	2183.2
#Y (µm)=	1230.6
#Z (µm)=	442.2
#Full time(mm:ss)=	3:18
#Project=	
#Sample=	
#Site=	
#Title=	Thy_10_08_33_2x_45s_532 nm_x100_100%_600 gr_mm
#Remark=	
#Date=	05.07.2022 16:37
#Acquired=	05.07.2022 16:37:18
#Base:Fit=	10.08.2022 09:46:25
#Base:Sub=	10.08.2022 09:46:49
#Filter:Polynom=	16.08.2022 10:24:56
#AxisType[0]=Intens
#AxisUnit[0]=Cnt
#AxisType[1]=Spectr
#AxisUnit[1]=1/cm
200.43	5.34133
202.244	9.47379
204.059	12.3479
205.873	13.9565
207.688	15.4583
209.501	16.4522
211.314	16.8971
213.127	17.0746
214.941	18.1011
216.753	18.7034
218.564	18.9785
220.375	19.3994
222.186	20.3966
223.999	20.5803
225.809	20.7298
227.618	21.0843
229.428	21.7383
231.236	22.0844
233.045	21.9602
234.855	23.0581
236.663	24.0725
238.471	24.2855
240.278	24.5696
242.085	24.9752
243.891	25.4955
245.698	25.8568
247.503	25.7323
249.309	25.2105
251.116	24.4192
252.921	24.8505
254.725	24.6815
256.529	24.8535
258.333	25.7895
260.136	27.3545
261.939	28.3144
263.742	29.2352
265.544	30.1994
267.346	30.2257
269.148	30.5972
270.949	31.1222
272.75	31.0113
274.55	31.8433
276.351	32.6268
278.15	32.2011
279.95	32.5962
281.749	32.7628
283.548	33.2469
285.346	33.5053
287.144	33.8161
288.942	33.6675
290.739	33.4252
292.536	33.7725
294.333	33.5076
296.129	34.1922
297.925	33.5493
299.721	32.7918
301.514	33.2333
303.309	33.717
305.104	34.2263
306.898	34.12
308.692	33.3419
310.486	32.9281
312.279	33.4406
314.072	32.458
315.862	31.8007
317.654	31.9441
319.446	31.7112
321.238	31.7962
323.029	32.0003
324.819	31.7893
326.608	31.3864
328.398	30.7835
330.188	30.7354
331.977	31.0763
333.766	30.7722
335.553	30.4332
337.341	29.9852
339.129	29.7388
340.917	29.11
342.704	27.8667
344.489	27.3613
346.275	27.2094
348.062	27.5299
349.845	27.4769
351.631	26.2791
353.416	25.9741
355.201	25.1627
356.984	23.8235
358.768	23.4156
360.552	23.3321
362.333	23.3281
364.116	23.5973
365.899	22.9383
367.68	23.0607
369.462	23.2356
371.243	23.471
373.023	22.7801
374.804	22.418
376.585	22.9055
378.363	22.7874
380.143	22.9585
381.923	23.3038
383.7	23.0327
385.479	23.9548
387.256	23.4626
389.034	23.3048
390.812	23.3646
392.588	23.2896
394.365	23.1735
396.14	23.5341
397.916	23.369
399.691	24.0473
401.467	24.5137
403.24	23.3421
405.015	23.5559
406.788	23.8795
408.563	23.3911
410.335	23.4614
412.109	22.9373
413.88	21.584
415.654	22.0292
417.424	22.1682
419.197	21.8991
420.967	21.5074
422.739	19.9859
424.508	19.6244
426.279	19.0343
428.048	18.7253
429.819	17.1936
431.587	16.9894
433.356	16.9915
435.124	16.1552
436.891	15.6086
438.66	15.1919
440.426	14.4803
442.194	14.0849
443.96	12.8782
445.725	12.2282
447.492	12.1838
449.257	11.6199
451.021	11.6646
452.787	12.0276
454.551	12.0034
456.314	13.1318
458.079	13.2429
459.842	12.9873
461.604	12.968
463.368	14.0018
465.13	14.4334
466.891	15.1665
468.654	15.2915
470.415	15.8682
472.175	16.8349
473.935	17.9933
475.696	18.3602
477.456	19.0141
479.215	19.7041
480.973	20.8068
482.733	21.5876
484.491	22.4641
486.249	22.561
488.006	22.7977
489.765	23.146
491.522	23.3084
493.278	24.3484
495.034	24.1637
496.789	24.9177
498.544	25.3202
500.301	25.7387
502.056	25.219
503.81	25.9837
505.564	26.0863
507.317	25.7015
509.071	25.5404
510.825	25.6692
512.578	26.1872
514.33	25.6676
516.082	25.4685
517.833	24.904
519.585	25.2174
521.335	24.4074
523.086	24.4473
524.836	24.6603
526.586	24.4442
528.335	22.6424
530.085	21.3865
531.835	21.0604
533.584	21.3153
535.332	21.1824
537.08	20.8025
538.827	21.255
540.574	21.1537
542.321	20.9411
544.068	20.1705
545.814	19.5508
547.56	18.7376
549.305	18.8628
551.05	19.1644
552.795	18.5514
554.54	18.8366
556.282	18.4442
558.025	18.4378
559.769	19.3238
561.512	19.3457
563.255	19.1175
564.997	18.3402
566.739	17.5842
568.481	16.8844
570.223	15.9815
571.964	15.2363
573.705	14.9466
575.443	14.6531
577.183	13.7947
578.923	12.8148
580.663	11.4087
582.402	10.7092
584.141	10.9861
585.879	10.9025
587.615	10.8624
589.353	10.0438
591.09	10.1132
592.828	9.83627
594.564	9.53275
596.299	8.86787
598.035	8.72203
599.771	8.28967
601.506	8.04794
603.242	7.99056
604.974	7.98056
606.709	8.0105
608.443	8.245
610.177	8.62196
611.908	9.01005
613.642	9.01187
615.374	9.13732
617.105	10.1071
618.837	10.7676
620.569	11.3306
622.3	11.3062
624.03	11.314
625.761	12.3786
627.491	12.4805
629.219	13.4832
630.949	13.1342
632.677	14.7281
634.406	15.2744
636.135	16.3167
637.861	16.634
639.59	16.9534
641.318	17.8113
643.043	17.8784
644.77	18.3927
646.495	19.2483
648.222	19.5158
649.948	19.4019
651.672	19.4377
653.398	19.1283
655.121	18.3829
656.846	18.6048
658.569	18.9946
660.293	19.9982
662.015	20.1654
663.738	21.2695
665.46	21.6474
667.183	22.4906
668.903	24.6782
670.626	25.4834
672.346	26.0372
674.067	25.4724
675.787	25.3398
677.508	25.4054
679.226	26.2827
680.947	26.838
682.665	27.3995
684.385	27.7484
686.102	28.6414
687.821	29.447
689.538	29.7105
691.254	31.0547
692.972	32.3754
694.688	32.9628
696.406	33.3619
698.121	33.9231
699.835	33.6679
701.552	33.5523
703.266	33.9962
704.98	34.5283
706.695	35.8873
708.409	36.1057
710.121	37.4283
711.836	38.7686
713.548	39.3809
715.26	40.5136
716.973	41.3293
718.685	42.5208
720.396	42.1833
722.108	43.1631
723.818	44.1676
725.528	45.0159
727.238	46.207
728.949	46.3722
730.658	47.4041
732.367	48.8037
734.075	49.5675
735.785	50.2617
737.493	50.3329
739.2	51.1014
740.907	51.9622
742.614	53.5261
744.322	54.8368
746.028	56.4737
747.734	58.0005
749.439	59.4652
751.144	60.1087
752.849	61.6416
754.555	63.3758
756.26	63.3597
757.963	63.7295
759.667	63.8938
761.37	65.1806
763.073	65.4127
764.775	66.2912
766.477	66.9656
768.179	66.8848
769.883	67.9532
771.584	69.2198
773.285	70.2803
774.986	70.2304
776.686	71.3788
778.386	71.678
780.085	71.4773
781.785	72.2964
783.484	73.0805
785.182	73.282
786.881	74.3891
788.579	75.7942
790.276	77.1047
791.974	78.3908
793.671	79.3036
795.367	81.0355
797.064	81.4511
798.76	81.6971
800.456	82.0554
802.151	83.336
803.846	82.4946
805.541	82.3325
807.234	82.7761
808.928	83.2037
810.622	83.5046
812.315	83.62
814.008	83.1729
815.701	84.6635
817.394	85.7557
819.086	85.6181
820.778	85.3094
822.468	84.7092
824.159	85.264
825.85	85.2614
827.541	85.3826
829.231	85.7492
830.921	85.5478
832.609	85.1928
834.298	84.4449
835.987	83.895
837.676	83.0827
839.364	82.2913
841.051	79.8205
842.738	78.8791
844.426	77.122
846.113	75.8707
847.798	74.1276
849.484	73.2217
851.171	72.2547
852.857	70.7857
854.54	70.4276
856.226	68.7735
857.911	67.5087
859.593	66.4936
861.278	65.9121
862.961	64.5845
864.645	63.4818
866.327	63.0678
868.01	62.7164
869.692	61.5417
871.373	60.8021
873.055	60.0262
874.735	59.9221
876.416	59.3504
878.097	58.9532
879.776	58.2672
881.457	57.0837
883.135	56.7752
884.815	56.2445
886.495	55.7317
888.172	54.2967
889.851	54.4119
891.528	54.7539
893.206	54.6753
894.882	54.5472
896.56	54.0099
898.237	53.8809
899.912	53.1795
901.589	52.5996
903.263	51.8319
904.94	51.7302
906.614	50.9728
908.289	50.6401
909.962	50.2022
911.635	49.2763
913.31	49.1642
914.982	48.8813
916.656	48.8587
918.328	49.1372
920.001	48.4959
921.672	47.7298
923.345	47.2918
925.015	46.6402
926.685	46.2996
928.357	45.6509
930.026	46.0642
931.698	45.2511
933.366	44.1206
935.035	43.7311
936.705	43.0882
938.373	42.5057
940.041	42.1199
941.71	41.735
943.377	40.547
945.044	38.6181
946.712	38.0359
948.378	37.9678
950.044	38.1695
951.709	37.4007
953.376	36.3287
955.041	35.4094
956.706	35.5939
958.372	35.0391
960.036	33.6454
961.699	33.3783
963.362	33.1288
965.027	33.5221
966.69	34.2866
968.352	33.9578
970.014	34.3522
971.676	33.7392
973.339	34.1369
975	34.8275
976.661	34.8313
978.322	35.3116
979.982	34.8884
981.642	35.0065
983.303	35.3687
984.962	36.4713
986.621	35.7795
988.28	35.1644
989.938	34.282
991.596	34.3359
993.254	34.5369
994.911	34.7555
996.57	35.4285
998.227	35.9158
999.884	36.2354
1001.54	36.4776
1003.2	35.8671
1004.85	35.6856
1006.51	35.6387
1008.16	34.6217
1009.82	34.0771
1011.47	32.9649
1013.12	32.0742
1014.78	30.9538
1016.43	31.129
1018.08	31.1212
1019.74	29.6412
1021.39	28.8226
1023.04	27.4999
1024.69	25.9179
1026.34	24.8449
1028	24.4232
1029.65	23.6689
1031.3	23.5029
1032.95	21.9458
1034.6	20.8086
1036.25	19.923
1037.9	18.1966
1039.54	17.6509
1041.19	16.201
1042.84	17.0243
1044.49	18.0705
1046.14	18.4926
1047.78	19.3597
1049.43	18.7642
1051.08	18.7413
1052.72	19.0109
1054.37	18.6208
1056.02	20.0052
1057.66	20.4086
1059.31	18.7106
1060.95	18.8328
1062.6	18.9223
1064.24	19.2263
1065.88	19.3001
1067.53	19.1579
1069.17	18.6682
1070.81	18.5647
1072.45	19.3196
1074.1	19.7374
1075.74	20.9644
1077.38	21.0513
1079.02	21.7289
1080.66	21.4783
1082.3	21.5253
1083.94	21.8001
1085.58	20.8582
1087.22	20.9449
1088.86	21.5807
1090.5	20.9705
1092.14	21.2876
1093.78	21.8202
1095.42	22.5201
1097.05	23.1805
1098.69	23.9986
1100.33	23.7108
1101.96	22.8452
1103.6	23.34
1105.24	22.8121
1106.87	22.1722
1108.51	22.5493
1110.14	21.5777
1111.78	20.2364
1113.41	20.0898
1115.05	18.4095
1116.68	18.2381
1118.31	17.2949
1119.95	16.1116
1121.58	16.0265
1123.21	16.3842
1124.85	17.1306
1126.48	16.2831
1128.11	15.682
1129.74	16.0543
1131.37	15.4132
1133	15.5966
1134.63	15.1166
1136.26	14.6793
1137.89	14.4501
1139.52	13.3525
1141.15	12.6135
1142.78	13.3202
1144.41	13.1249
1146.04	12.6045
1147.66	12.7288
1149.29	12.4741
1150.92	12.1398
1152.55	12.346
1154.17	12.0157
1155.8	11.7411
1157.43	11.3894
1159.05	10.7535
1160.68	10.7473
1162.3	10.2293
1163.93	10.3649
1165.55	10.42
1167.17	9.62146
1168.8	10.5213
1170.42	10.9858
1172.05	10.9083
1173.67	12.4059
1175.29	13.46
1176.91	13.5503
1178.54	14.6892
1180.16	14.8655
1181.78	14.2768
1183.4	14.212
1185.02	14.3061
1186.64	13.9037
1188.26	14.6232
1189.88	14.7145
1191.5	14.4697
1193.12	14.9659
1194.74	15.9693
1196.36	16.5641
1197.97	17.5187
1199.59	18.8456
1201.21	19.9631
1202.83	20.9029
1204.44	22.4263
1206.06	23.7014
1207.68	24.3896
1209.29	25.5408
1210.91	26.3563
1212.52	26.9032
1214.14	27.5653
1215.75	28.9041
1217.37	29.58
1218.98	30.3214
1220.59	31.1031
1222.21	32.3458
1223.82	32.7873
1225.43	33.8713
1227.05	34.9489
1228.66	35.7137
1230.27	36.3174
1231.88	36.6333
1233.49	38.1192
1235.1	38.6676
1236.72	39.5612
1238.33	40.0916
1239.94	41.0086
1241.55	40.7462
1243.16	41.3729
1244.76	41.9855
1246.37	43.1781
1247.98	43.7801
1249.59	44.5186
1251.2	45.9777
1252.8	46.4684
1254.41	47.0358
1256.02	46.8926
1257.62	46.7604
1259.23	46.916
1260.84	46.7272
1262.44	47.2814
1264.05	47.8879
1265.66	47.478
1267.26	48.6296
1268.86	49.4681
1270.47	48.7376
1272.07	49.8816
1273.67	50.7277
1275.28	50.3814
1276.88	51.4306
1278.48	51.3821
1280.09	52.415
1281.69	52.2007
1283.29	52.4305
1284.89	53.523
1286.49	54.5423
1288.09	54.8555
1289.69	55.4995
1291.29	55.5757
1292.89	57.0691
1294.49	56.7976
1296.09	57.4134
1297.69	57.6274
1299.29	57.4451
1300.89	57.9287
1302.49	58.2442
1304.08	59.3802
1305.68	60.2831
1307.28	61.389
1308.88	61.7751
1310.47	62.9871
1312.07	64.3969
1313.66	65.9675
1315.26	66.5292
1316.85	66.3601
1318.45	66.8931
1320.04	66.8861
1321.64	66.8376
1323.23	66.6881
1324.83	66.885
1326.42	67.0822
1328.01	66.9105
1329.61	66.4976
1331.2	66.1975
1332.79	65.2135
1334.38	64.659
1335.97	63.2808
1337.56	62.4828
1339.16	62.6501
1340.75	62.066
1342.34	61.61
1343.93	60.6591
1345.52	59.7845
1347.11	59.4939
1348.7	57.2486
1350.29	55.7323
1351.87	54.6247
1353.46	53.7701
1355.05	51.5721
1356.64	50.7648
1358.22	49.2645
1359.81	48.6802
1361.4	47.6533
1362.98	46.8103
1364.57	45.6867
1366.16	44.1031
1367.74	43.1157
1369.33	41.7303
1370.91	40.4448
1372.5	39.9033
1374.08	38.8499
1375.67	38.3433
1377.25	37.75
1378.83	37.2232
1380.41	36.4099
1382	36.6108
1383.58	37.0704
1385.16	36.3194
1386.74	36.4698
1388.33	36.8364
1389.91	36.8405
1391.49	36.0634
1393.07	35.3507
1394.65	35.1804
1396.23	33.9149
1397.81	33.5438
1399.39	32.8727
1400.97	32.7188
1402.55	32.0354
1404.13	32.9993
1405.7	33.1973
1407.28	33.7801
1408.86	34.5759
1410.44	35.2374
1412.01	35.4869
1413.59	36.3738
1415.17	37.3971
1416.74	39.3126
1418.32	41.5603
1419.89	43.3832
1421.47	44.9567
1423.04	46.1609
1424.62	49.1383
1426.19	50.6682
1427.77	52.1641
1429.34	54.167
1430.91	56.7532
1432.49	59.4363
1434.06	60.6003
1435.63	62.6407
1437.2	64.4282
1438.78	66.1599
1440.35	68.2317
1441.92	69.0021
1443.49	69.3842
1445.06	71.2606
1446.63	72.8457
1448.2	72.9826
1449.77	73.5013
1451.34	73.4447
1452.91	73.4064
1454.48	72.5186
1456.05	71.6179
1457.62	70.9954
1459.18	69.6664
1460.75	68.518
1462.32	67.1883
1463.89	64.9711
1465.45	63.1572
1467.02	61.3567
1468.59	58.3999
1470.15	55.3146
1471.72	52.9657
1473.28	49.9882
1474.85	46.2908
1476.41	43.8476
1477.98	41.2072
1479.54	38.443
1481.1	36.4102
1482.67	34.3785
1484.23	32.1412
1485.79	29.8178
1487.36	27.2837
1488.92	24.1237
1490.48	22.6408
1492.04	22.1602
1493.61	21.359
1495.17	20.1379
1496.73	19.7335
1498.29	19.1744
1499.85	18.3529
1501.41	17.5854
1502.97	18.1151
1504.53	17.4468
1506.09	17.1967
1507.65	16.826
1509.2	17.0015
1510.76	16.4331
1512.32	16.2144
1513.88	16.2277
1515.43	16.6118
1516.99	16.7517
1518.55	16.6336
1520.1	16.5918
1521.66	17.7683
1523.22	19.5513
1524.77	19.4206
1526.33	19.5577
1527.88	20.5406
1529.44	20.8673
1530.99	21.6493
1532.54	22.3989
1534.1	22.7772
1535.65	23.7367
1537.21	24.0392
1538.76	24.5953
1540.31	26.4472
1541.86	26.1204
1543.42	26.899
1544.97	27.4004
1546.52	28.4574
1548.07	29.1551
1549.62	30.5309
1551.17	30.9975
1552.72	32.4402
1554.27	34.0016
1555.82	34.9134
1557.37	35.5891
1558.92	36.6296
1560.47	36.554
1562.02	37.0586
1563.56	37.4913
1565.11	38.1325
1566.66	40.4871
1568.21	42.0199
1569.75	42.9167
1571.3	43.6772
1572.85	44.4512
1574.39	46.024
1575.94	46.8879
1577.49	47.3048
1579.03	47.8465
1580.57	49.1425
1582.12	50.112
1583.66	50.802
1585.21	50.553
1586.75	50.9636
1588.3	51.4602
1589.84	52.1395
1591.38	52.3341
1592.92	52.7294
1594.47	52.5042
1596.01	52.181
1597.55	52.0419
1599.09	51.9232
1600.63	51.8753
1602.17	51.0646
1603.71	50.5594
1605.25	50.5307
1606.79	50.0617
1608.33	49.7455
1609.87	49.8853
1611.41	49.6657
1612.95	49.9627
1614.49	49.4813
1616.03	49.2612
1617.57	49.33
1619.1	49.1417
1620.64	49.689
1622.18	50.1585
1623.72	50.4102
1625.25	49.9976
1626.79	50.0643
1628.32	50.0295
1629.86	50.8067
1631.39	50.8702
1632.93	50.9863
1634.46	51.3367
1636	51.7408
1637.53	52.503
1639.07	53.9638
1640.6	55.8105
1642.13	56.9367
1643.67	57.8041
1645.2	56.7746
1646.73	57.3179
1648.26	57.6698
1649.8	58.1496
1651.33	59.1641
1652.86	59.0152
1654.39	59.4134
1655.92	60.0886
1657.45	60.169
1658.98	60.1146
1660.51	58.767
1662.04	57.6087
1663.57	57.9626
1665.1	57.4926
1666.63	56.5037
1668.16	54.8974
1669.68	53.2967
1671.21	51.4771
1672.74	49.9234
1674.27	48.6252
1675.79	47.4603
1677.32	46.24
1678.85	44.2126
1680.37	42.9202
1681.9	41.8986
1683.42	40.3088
1684.95	38.5643
1686.47	36.4217
1688	34.0041
1689.52	31.6654
1691.05	28.9468
1692.57	28.1182
1694.09	26.1935
1695.62	23.9305
1697.14	22.4049
1698.66	20.5064
1700.18	18.6629
1701.71	17.4731
1703.23	15.9663
1704.75	14.5109
1706.27	13.1996
1707.79	12.0832
1709.31	11.508
1710.83	11.3503
1712.35	11.4533
1713.87	10.9125
1715.39	10.3946
1716.91	9.51464
1718.43	8.08735
1719.95	6.85069
1721.47	6.66968
1722.99	6.41431
1724.5	6.3006
1726.02	5.59916
1727.54	5.70782
1729.06	5.18066
1730.57	5.08988
1732.09	4.5985
1733.61	4.33719
1735.12	4.12188
1736.64	3.66538
1738.15	3.91452
1739.67	3.57057
1741.18	2.92864
1742.7	2.87315
1744.21	2.45002
1745.72	2.10033
1747.24	1.99037
1748.75	2.38248
1750.26	2.50783
1751.77	1.98934
1753.29	1.82032
1754.8	1.29663
1756.31	1.10335
1757.82	0.920572
1759.33	0.314904
1760.84	-0.0206299
1762.36	-0.806207
1763.87	-0.663328
1765.38	-0.942479
1766.89	-0.670941
1768.4	-0.21286
1769.91	-1.1336
1771.41	-1.10536
1772.92	-0.638006
1774.43	-0.735502
1775.94	-0.659764
1777.45	-0.558001
1778.95	-0.623193
1780.46	-0.0721627
1781.97	0.0826178
1783.48	0.68986
1784.98	0.971789
1786.49	1.68169
1787.99	1.55019
1789.5	1.408
1791.01	1.63919
1792.51	1.42836
1794.01	1.14733
1795.52	1.06688
1797.02	1.52934
1798.53	0.761377
1800.03	0.98253
1801.53	0.870516
1803.04	1.47207
1804.54	1.23052
1806.04	1.01285
1807.54	1.20797
1809.05	1.58078
1810.55	1.33344
1812.05	1.47157
1813.55	1.65827
1815.05	1.93553
1816.55	2.08116
1818.05	2.69931
1819.55	2.70713
1821.05	3.25712
1822.55	3.44685
1824.05	3.61991
1825.55	3.73485
1827.05	3.26087
1828.55	3.5097
1830.04	4.0026
1831.54	4.64255
1833.04	4.84203
1834.54	4.79731
1836.03	5.25272
1837.53	5.39797
1839.03	5.9583
1840.52	6.8317
1842.02	7.67253
1843.51	8.06002
1845.01	8.26743
1846.5	8.45338
1848	9.2687
1849.49	9.52845
1850.99	9.59151
1852.48	9.93014
1853.97	9.97281
1855.47	10.4876
1856.96	10.4228
1858.45	11.2857
1859.94	11.0297
1861.44	11.8031
1862.93	11.2469
1864.42	11.0531
1865.91	11.1498
1867.4	11.3147
1868.89	11.2938
1870.38	11.6571
1871.87	11.4171
1873.36	11.3743
1874.85	11.4224
1876.34	11.5216
1877.83	11.823
1879.32	12.1103
1880.81	11.7478
1882.3	11.8368
1882.57	11.5689
1884.07	12.1356
1885.56	12.0977
1887.06	12.2958
1888.55	12.8031
1890.04	12.4711
1891.54	12.69
1893.03	12.2142
1894.52	11.7225
1896.02	11.5863
1897.51	11.6575
1899	11.5311
1900.49	11.0887
1901.98	11.2486
1903.47	11.3927
1904.96	10.9605
1906.45	11.5839
1907.94	11.8312
1909.43	11.8
1910.92	11.6859
1912.41	11.998
1913.9	12.2885
1915.39	12.0095
1916.88	12.2887
1918.37	11.9798
1919.85	11.4556
1921.34	11.2131
1922.83	11.0698
1924.32	11.0824
1925.8	10.8137
1927.29	10.7582
1928.78	11.3642
1930.26	10.7553
1931.75	10.3665
1933.23	10.0062
1934.72	10.7543
1936.2	10.1533
1937.69	10.3119
1939.17	10.7218
1940.66	10.4675
1942.14	10.3316
1943.63	10.8866
1945.11	11.174
1946.59	11.5764
1948.07	11.5368
1949.56	11.6737
1951.04	12.2548
1952.52	11.9883
1954	11.612
1955.48	12.1265
1956.96	12.5172
1958.45	12.8787
1959.93	12.1993
1961.41	12.3316
1962.89	11.6449
1964.37	10.5813
1965.85	10.8626
1967.32	10.8631
1968.8	11.1644
1970.28	11.1697
1971.76	10.8837
1973.24	10.9405
1974.72	11.2867
1976.19	11.4801
1977.67	12.0841
1979.15	12.6066
1980.63	13.3088
1982.1	12.9916
1983.58	12.8909
1985.05	13.2106
1986.53	12.7431
1988	12.9848
1989.48	13.0775
1990.95	12.4849
1992.43	11.6548
1993.9	11.4071
1995.38	11.5843
1996.85	12.0229
1998.32	11.7528
1999.8	11.5241
2001.27	12.078
2002.74	11.7702
2004.22	11.5333
2005.69	11.6472
2007.16	11.4038
2008.63	11.0846
2010.1	10.3371
2011.57	10.2967
2013.04	10.2429
2014.51	10.225
2015.98	10.2063
2017.45	9.92315
2018.92	9.22208
2020.39	8.66652
2021.86	8.84982
2023.33	8.88316
2024.8	9.2216
2026.27	8.16569
2027.74	8.25387
2029.2	7.9695
2030.67	7.98865
2032.14	7.25049
2033.61	6.94864
2035.07	7.25524
2036.54	6.86625
2038.01	6.73662
2039.47	7.92235
2040.94	7.86069
2042.4	7.81875
2043.87	8.03057
2045.33	9.08193
2046.8	9.87975
2048.26	10.2471
2049.72	10.7007
2051.19	10.6445
2052.65	10.7752
2054.12	10.8901
2055.58	10.7267
2057.04	10.7703
2058.5	10.7667
2059.97	10.8682
2061.43	11.5271
2062.89	11.3707
2064.35	11.1524
2065.81	11.7022
2067.27	11.6076
2068.73	11.5373
2070.19	11.4749
2071.65	11.4878
2073.11	11.6886
2074.57	11.5467
2076.03	10.8919
2077.49	11.2836
2078.95	10.6317
2080.41	10.539
2081.87	10.2061
2083.32	10.1779
2084.78	10.5127
2086.24	10.8886
2087.7	10.6848
2089.15	10.6504
2090.61	10.7816
2092.07	11.1123
2093.52	11.8878
2094.98	12.0871
2096.43	12.2356
2097.89	12.1025
2099.34	11.9797
2100.8	12.7871
2102.25	12.6293
2103.71	12.798
2105.16	13.0415
2106.61	12.9865
2108.07	13.197
2109.52	12.9526
2110.97	13.3211
2112.43	13.4747
2113.88	13.1303
2115.33	13.8804
2116.78	14.4792
2118.23	14.857
2119.68	14.9344
2121.13	14.759
2122.59	15.183
2124.04	15.2037
2125.49	16.1217
2126.94	16.6237
2128.39	17.4134
2129.83	18.0135
2131.28	18.8886
