#Acq. time (s)=	45
#Accumulations=	2
#Range (cm-¹)=	200...3150
#Windows=	2
#Auto scanning=	Off
#Autofocus=	Off
#Macrospot=	Off
#AutoExposure=	Off
#Spike filter=	Multiple accum.
#Delay time (s)=	0
#Binning=	1
#Readout mode=	Signal
#DeNoise=	Off
#ICS correction=	On
#Dark correction=	Off
#Inst. Process=	Off
#Detector Gain=	Best Dynamic Range
#Detector ADC=	20 kHz       
#Detector temperature (°C)=	-69.85
#Instrument=	LabRAM HR Evol
#Detector=	Synapse
#Objective=	x100
#Grating=	600 gr/mm
#ND Filter=	100%
#Laser (nm)=	532 
#Hole=	100.021
#Range=	Auto
#Laser Pol.=	No
#Raman. Pol.=	No
#Laser Pol. (°)=	-0.0007625
#Raman Pol. (°)=	89.9995
#Collection=	Microscope
#StageXY=	Marzhauser
#StageZ=	Marzhauser
#X (µm)=	9020.7
#Y (µm)=	-3082.1
#Z (µm)=	-54.6
#Full time(mm:ss)=	3:19
#Project=	
#Sample=	
#Site=	
#Title=	Thy_00_07_17_2x_45s_532 nm_x100_100%_600 gr_mm
#Remark=	
#Date=	28.06.2022 11:18
#Acquired=	28.06.2022 11:18:54
#Base:Fit=	10.08.2022 10:06:44
#Base:Fit=	10.08.2022 10:07:16
#Base:Fit=	10.08.2022 10:07:25
#Base:Fit=	10.08.2022 10:07:44
#Base:Fit=	10.08.2022 10:07:56
#Base:Sub=	10.08.2022 10:08:40
#Filter:Polynom=	16.08.2022 10:26:06
#AxisType[0]=Intens
#AxisUnit[0]=Cnt
#AxisType[1]=Spectr
#AxisUnit[1]=1/cm
200.407	-3.37899
202.221	1.56209
204.035	2.15342
205.849	1.9825
207.665	2.66766
209.478	3.2666
211.291	4.19883
213.104	5.01072
214.916	6.33275
216.73	7.63977
218.541	8.19929
220.352	8.58422
222.163	9.68176
223.973	10.9511
225.785	11.363
227.595	11.5251
229.404	11.653
231.213	11.7494
233.022	11.2146
234.83	10.6885
236.638	10.6021
238.448	10.6284
240.255	10.7645
242.062	10.0659
243.868	10.3281
245.675	10.1801
247.48	9.8103
249.286	9.19812
251.091	9.14369
252.896	8.72998
254.702	7.86923
256.506	7.24699
258.31	7.55465
260.113	5.77969
261.916	5.58194
263.719	5.50724
265.521	5.75063
267.323	6.38058
269.125	6.13285
270.926	6.52206
272.727	6.82635
274.527	6.31204
276.328	7.18112
278.127	7.229
279.927	7.11834
281.726	6.878
283.525	7.10144
285.323	7.86858
287.121	8.52412
288.919	9.90436
290.716	10.8312
292.513	10.8696
294.31	13.2504
296.104	15.0027
297.9	15.7439
299.696	17.3529
301.491	19.5209
303.286	20.7156
305.081	22.923
306.875	24.2933
308.669	25.3543
310.463	27.5527
312.256	28.8685
314.047	29.2566
315.839	29.0402
317.631	30.066
319.423	30.9132
321.215	31.5352
323.006	31.4211
324.794	31.6571
326.585	33.0234
328.375	34.2177
330.165	34.3428
331.954	34.1351
333.741	34.3847
335.53	33.861
337.318	34.4773
339.106	34.1688
340.894	33.9446
342.679	33.132
344.466	33.0561
346.253	32.7628
348.039	33.2073
349.823	32.9105
351.608	33.1795
353.393	33.4126
355.176	33.3356
356.961	33.0655
358.745	31.5354
360.529	31.3959
362.31	31.299
364.093	31.4726
365.876	32.1885
367.657	32.6072
369.439	33.8777
371.221	34.141
373	33.6454
374.781	32.9978
376.56	32.7365
378.34	32.8194
380.12	32.2122
381.898	32.4444
383.677	32.1212
385.456	32.2863
387.233	31.8867
389.011	31.8313
390.787	32.0343
392.565	31.2862
394.34	31.0096
396.117	30.5095
397.894	29.7447
399.668	29.4617
401.444	27.9001
403.217	27.208
404.993	26.826
406.766	26.5378
408.54	24.5203
410.312	23.9852
412.086	23.5723
413.858	23.4515
415.631	23.2897
417.402	21.6288
419.174	20.4897
420.944	19.2108
422.716	18.8196
424.486	19.0623
426.257	18.8444
428.025	16.4713
429.794	15.7635
431.564	15.5697
433.332	15.4454
435.101	15.6606
436.868	15.2939
438.637	15.8901
440.403	15.412
442.169	15.583
443.937	16.1823
445.703	17.0718
447.468	18.4257
449.234	21.0038
450.999	22.8274
452.765	24.3822
454.528	25.5187
456.292	26.5538
458.057	27.9208
459.819	27.7778
461.582	28.2302
463.344	29.6979
465.107	31.2375
466.868	32.8853
468.629	33.2103
470.392	34.7509
472.152	35.2002
473.912	36.7566
475.672	37.582
477.433	39.2704
479.192	40.3456
480.951	41.4877
482.709	42.8275
484.469	43.0633
486.226	43.3023
487.984	43.6509
489.74	43.6379
491.499	44.7404
493.255	46.332
495.011	46.7127
496.767	47.7072
498.522	49.1286
500.277	49.3375
502.033	49.516
503.788	49.314
505.541	48.8704
507.295	49.2197
509.048	48.5018
510.801	48.333
512.553	47.8013
514.308	46.7441
516.06	45.7175
517.811	45.6183
519.562	44.8721
521.313	44.1794
523.063	43.72
524.814	42.8782
526.563	42.4996
528.313	40.5141
530.062	40.8416
531.811	41.2047
533.559	40.0997
535.308	39.2024
537.055	38.5482
538.803	38.0255
540.55	36.6673
542.297	34.8224
544.043	34.4051
545.789	33.3984
547.535	31.2092
549.281	30.3876
551.026	29.2688
552.771	28.3017
554.515	27.3205
556.259	26.3134
558.003	25.7759
559.747	25.3937
561.49	25.7825
563.233	25.5471
564.975	24.5855
566.717	22.9916
568.459	22.4988
570.2	21.8468
571.942	20.1586
573.68	19.7177
575.421	19.5655
577.161	19.5399
578.901	19.8907
580.64	19.4183
582.379	17.5388
584.118	17.0509
585.855	16.3761
587.593	16.3622
589.331	16.0137
591.068	15.0231
592.805	14.8127
594.54	14.3026
596.277	13.813
598.013	14.2467
599.749	14.5226
601.484	14.623
603.217	14.6121
604.952	13.7849
606.687	13.9986
608.421	14.4358
610.153	14.3187
611.886	13.4544
613.619	14.0316
615.35	14.6618
617.083	15.5303
618.815	14.6531
620.547	14.1638
622.276	14.8698
624.008	15.284
625.738	14.921
627.467	13.5816
629.197	13.5598
630.927	13.7992
632.655	14.0135
634.384	14.5254
636.113	15.0226
637.839	14.78
639.568	15.8399
641.293	16.5729
643.021	17.7405
644.748	18.0214
646.473	18.5536
648.2	19.6979
649.924	19.3268
651.65	18.8186
653.376	19.1972
655.099	19.6936
656.824	19.3988
658.546	18.3712
660.271	18.3209
661.993	18.4306
663.716	18.1856
665.438	17.7523
667.161	17.3865
668.881	16.9113
670.604	17.3182
672.324	16.7891
674.045	16.9521
675.765	16.8767
677.486	17.0196
679.204	18.2027
680.925	18.3689
682.643	19.4348
684.361	20.3706
686.08	20.469
687.797	20.9435
689.516	21.3372
691.232	21.3515
692.95	22.0352
694.666	22.4314
696.382	22.8949
698.099	23.3388
699.813	24.8105
701.528	24.3593
703.244	23.4209
704.958	23.0682
706.673	23.075
708.387	23.3895
710.099	23.5807
711.814	24.1346
713.526	25.195
715.238	26.5608
716.949	27.7063
718.663	29.038
720.374	28.9779
722.084	29.4415
723.796	31.3686
725.506	33.1962
727.216	34.2307
728.925	35.5902
730.636	36.3773
732.345	38.1216
734.053	40.0616
735.761	41.3873
737.471	43.5535
739.178	45.5899
740.885	47.2045
742.592	49.4011
744.298	51.0908
746.006	53.7243
747.712	55.7774
749.417	57.4787
751.122	59.8295
752.827	62.4189
754.532	64.4211
756.236	66.6374
757.942	67.2608
759.645	69.8765
761.348	71.1999
763.051	72.4535
764.753	74.0518
766.456	74.8937
768.158	75.785
769.859	76.7622
771.56	77.8547
773.261	78.3845
774.964	78.829
776.664	78.8084
778.364	78.8914
780.064	78.5953
781.763	77.8449
783.462	75.7948
785.16	75.3926
786.859	73.6594
788.557	72.7221
790.255	71.6226
791.952	71.1978
793.649	71.0971
795.346	70.1953
797.042	68.915
798.738	67.9929
800.434	67.0029
802.127	65.9665
803.823	64.3507
805.517	62.7617
807.212	62.0232
808.906	60.9521
810.6	59.7459
812.293	60.1269
813.987	59.5743
815.68	59.6081
817.372	60.9914
819.064	62.6639
820.754	64.0416
822.446	64.9312
824.137	66.547
825.828	67.7489
827.519	69.0658
829.209	69.7129
830.897	70.9865
832.587	72.4287
834.276	73.2889
835.966	74.4011
837.654	74.2786
839.341	73.3194
841.029	73.2294
842.717	72.532
844.404	73.3455
846.091	71.8848
847.776	71.4393
849.463	71.207
851.149	70.691
852.833	69.4246
854.519	68.8012
856.204	67.6316
857.889	66.4133
859.572	64.5611
861.256	62.7713
862.94	60.6865
864.622	58.8363
866.305	57.3045
867.988	55.7786
869.669	55.0094
871.351	52.945
873.033	50.8587
874.713	49.1408
876.395	47.1598
878.074	45.001
879.755	43.3952
881.435	42.652
883.114	41.7829
884.794	39.9483
886.471	38.0491
888.15	35.6782
889.829	34.3793
891.506	33.1397
893.184	32.4734
894.861	33.0937
896.538	33.7814
898.214	33.8413
899.891	34.7975
901.566	36.1549
903.242	36.5978
904.916	36.7603
906.592	38.3075
908.266	39.3766
909.941	39.7758
911.614	40.5683
913.288	41.7476
914.961	43.2428
916.635	44.4393
918.306	44.0597
919.979	44.4002
921.651	44.5651
923.321	45.2223
924.994	46.2942
926.664	45.6479
928.336	45.2243
930.005	45.0641
931.674	45.8949
933.345	46.5075
935.014	46.3596
936.682	46.4302
938.352	46.6042
940.019	46.1294
941.687	46.1549
943.356	45.2898
945.022	45.6286
946.689	44.9885
948.357	45.3362
950.022	43.7858
951.688	42.5514
953.355	41.1991
955.02	40.2388
956.684	38.3314
958.348	36.3773
960.014	33.2274
961.678	32.0351
963.341	30.8225
965.004	29.6585
966.669	28.1971
968.331	27.6313
969.993	26.6313
971.655	26.7972
973.316	27.6945
974.979	27.8718
976.64	28.7314
978.3	30.1017
979.961	30.5732
981.62	30.5137
983.28	31.3545
984.941	31.6756
986.6	32.0278
988.259	32.7913
989.917	33.3141
991.575	33.3804
993.233	34.6218
994.89	34.6162
996.547	35.4107
998.204	35.8041
999.86	36.8875
1001.52	38.3042
1003.17	39.8592
1004.83	40.8014
1006.49	41.2845
1008.14	42.1185
1009.79	42.7441
1011.45	44.5436
1013.1	46.0686
1014.76	47.0628
1016.41	47.4958
1018.06	47.3028
1019.72	47.2761
1021.37	46.8809
1023.02	47.5612
1024.67	47.275
1026.32	46.0948
1027.97	44.8106
1029.62	43.5314
1031.27	42.4853
1032.92	40.6238
1034.57	38.5365
1036.22	36.2967
1037.87	33.5992
1039.52	31.4823
1041.17	29.5282
1042.82	28.4273
1044.47	28.1078
1046.11	27.6953
1047.76	26.8079
1049.41	27.1774
1051.06	27.1146
1052.7	26.5793
1054.35	27.3162
1055.99	26.9146
1057.64	26.1131
1059.28	25.4434
1060.93	25.4477
1062.57	25.0054
1064.22	24.9313
1065.86	26.2172
1067.5	25.4564
1069.15	25.7691
1070.79	26.2008
1072.43	26.6386
1074.08	27.5119
1075.72	28.1102
1077.36	28.2178
1079	29.7402
1080.64	30.0429
1082.28	31.2774
1083.92	32.4041
1085.56	32.3499
1087.2	32.9975
1088.84	33.8813
1090.48	35.4194
1092.12	35.9253
1093.76	37.3484
1095.39	37.5916
1097.03	38.2649
1098.67	38.5765
1100.31	38.3491
1101.94	39.1239
1103.58	39.6334
1105.22	40.4355
1106.85	38.7792
1108.49	39.2808
1110.12	39.0777
1111.76	38.5264
1113.39	37.325
1115.03	36.0971
1116.66	35.0328
1118.29	34.8467
1119.93	35.2134
1121.56	34.997
1123.19	34.4963
1124.82	33.4751
1126.46	33.1001
1128.09	32.1211
1129.72	31.8246
1131.35	32.369
1132.98	31.6678
1134.61	30.8527
1136.24	30.5914
1137.87	29.7763
1139.5	29.5381
1141.13	28.6626
1142.76	28.7401
1144.39	27.4815
1146.01	26.9516
1147.64	26.3771
1149.27	25.2449
1150.9	23.8166
1152.53	22.4388
1154.15	20.2684
1155.78	18.7062
1157.4	17.0232
1159.03	15.2801
1160.65	13.7863
1162.28	12.1271
1163.9	11.8472
1165.53	11.451
1167.15	10.1954
1168.78	9.56237
1170.4	8.22475
1172.02	7.79548
1173.65	8.68557
1175.27	9.36667
1176.89	8.88667
1178.51	9.40944
1180.14	8.84963
1181.76	7.97223
1183.38	8.86571
1185	8.52144
1186.62	8.87841
1188.24	9.11733
1189.86	9.85196
1191.48	9.36893
1193.1	8.93159
1194.71	10.5881
1196.33	12.0061
1197.95	13.5474
1199.57	14.1136
1201.19	15.6417
1202.8	17.0786
1204.42	18.7819
1206.04	18.6586
1207.65	20.3389
1209.27	21.6802
1210.88	23.9183
1212.5	25.3783
1214.12	26.721
1215.73	27.5499
1217.35	29.5583
1218.96	30.4146
1220.57	31.975
1222.19	33.4014
1223.8	35.1062
1225.41	35.8717
1227.03	36.9994
1228.64	38.0224
1230.25	37.894
1231.86	37.9681
1233.47	38.4706
1235.08	39.3479
1236.69	40.0251
1238.31	40.6565
1239.92	41.5303
1241.52	41.5298
1243.13	41.5132
1244.74	41.656
1246.35	41.0169
1247.96	40.6844
1249.57	40.7048
1251.18	41.6093
1252.78	41.6914
1254.39	41.9827
1256	40.7299
1257.6	39.8009
1259.21	40.1808
1260.82	40.282
1262.42	39.8543
1264.03	40.1402
1265.63	39.1335
1267.24	38.0855
1268.84	38.0141
1270.45	37.2377
1272.05	36.5253
1273.65	36.5226
1275.26	37.0705
1276.86	36.5769
1278.46	35.9571
1280.06	36.3554
1281.67	36.4159
1283.27	36.6021
1284.87	36.102
1286.47	36.9878
1288.07	38.4455
1289.67	39.7332
1291.27	40.7923
1292.87	41.803
1294.47	42.9015
1296.07	44.6303
1297.67	46.324
1299.27	47.8668
1300.87	50.0111
1302.47	52.1096
1304.06	53.7194
1305.66	55.7729
1307.26	58.0651
1308.85	60.3986
1310.45	62.5682
1312.05	64.6354
1313.64	65.98
1315.24	68.0683
1316.83	68.7375
1318.43	69.8742
1320.02	71.7074
1321.62	72.8058
1323.21	74.2922
1324.8	75.4507
1326.4	76.2591
1327.99	77.7516
1329.59	77.9387
1331.18	78.2682
1332.77	78.2543
1334.36	79.0144
1335.95	79.0242
1337.54	79.725
1339.14	79.8945
1340.73	78.7566
1342.32	77.1852
1343.91	76.6611
1345.5	75.7905
1347.09	74.9207
1348.67	74.4552
1350.26	73.0323
1351.85	71.4813
1353.44	71.1561
1355.03	69.411
1356.62	68.7135
1358.2	66.7205
1359.79	65.537
1361.38	63.8874
1362.96	62.5806
1364.55	61.5074
1366.14	61.1829
1367.72	59.631
1369.31	59.5392
1370.89	58.7241
1372.48	58.0083
1374.06	57.1564
1375.64	57.2371
1377.23	55.5548
1378.81	55.5557
1380.39	55.2868
1381.98	54.8193
1383.56	54.3594
1385.14	54.3927
1386.72	53.8424
1388.3	52.9146
1389.89	52.483
1391.47	51.2237
1393.05	51.1261
1394.63	50.397
1396.21	50.1134
1397.79	49.8086
1399.37	50.2382
1400.95	50.0818
1402.52	49.9683
1404.1	49.4147
1405.68	49.2767
1407.26	49.7753
1408.84	48.7907
1410.42	48.9332
1411.99	49.038
1413.57	49.2222
1415.15	50.2111
1416.72	51.9222
1418.3	51.9577
1419.87	53.2736
1421.45	55.4053
1423.02	57.0393
1424.6	58.8087
1426.17	61.2164
1427.75	63.3863
1429.32	66.1103
1430.89	68.4493
1432.47	70.4107
1434.04	72.3643
1435.61	74.0112
1437.18	74.5097
1438.76	76.0427
1440.33	78.2143
1441.9	79.9242
1443.47	82.154
1445.04	83.5387
1446.61	84.3645
1448.18	84.8506
1449.75	84.8313
1451.32	84.2557
1452.89	83.3269
1454.46	82.2534
1456.03	81.5927
1457.6	80.9358
1459.16	79.5619
1460.73	77.9405
1462.3	76.4827
1463.87	74.5242
1465.43	71.5931
1467	69.0174
1468.56	66.8591
1470.13	64.44
1471.7	61.9583
1473.26	58.8948
1474.83	56.4723
1476.39	53.0116
1477.96	50.2689
1479.52	46.5116
1481.08	42.9534
1482.65	38.7587
1484.21	36.4632
1485.77	33.1694
1487.34	29.1273
1488.9	27.5774
1490.46	25.63
1492.02	24.4529
1493.58	23.1787
1495.15	21.7378
1496.71	20.1449
1498.27	19.9607
1499.83	19.3697
1501.39	18.3711
1502.95	18.5717
1504.51	18.7972
1506.07	17.6314
1507.63	17.6043
1509.18	16.7476
1510.74	16.239
1512.3	15.9024
1513.86	15.1312
1515.41	16.0394
1516.97	16.605
1518.53	17.584
1520.08	18.1741
1521.64	18.4327
1523.2	18.2822
1524.75	18.7867
1526.31	18.8936
1527.86	19.5708
1529.42	19.8455
1530.97	20.7072
1532.52	22.1618
1534.08	23.8179
1535.63	24.2435
1537.19	25.9685
1538.74	27.1914
1540.29	28.8145
1541.84	30.3288
1543.4	31.9082
1544.95	33.7403
1546.5	35.641
1548.05	36.4546
1549.6	37.5901
1551.15	38.944
1552.7	39.5649
1554.25	40.0201
1555.8	40.9468
1557.35	41.8953
1558.9	43.8459
1560.45	44.9274
1562	46.6613
1563.54	47.4792
1565.09	48.0296
1566.64	49.7454
1568.19	50.076
1569.73	51.6066
1571.28	53.0801
1572.83	54.6684
1574.37	54.9317
1575.92	54.9959
1577.47	55.4447
1579.01	56.2798
1580.56	57.0993
1582.1	57.3716
1583.64	57.7526
1585.19	58.7673
1586.73	59.1906
1588.28	60.0234
1589.82	60.2381
1591.36	60.7137
1592.9	61.6391
1594.45	60.7228
1595.99	61.2972
1597.53	61.2347
1599.07	60.6976
1600.61	60.1016
1602.15	60.3035
1603.69	60.0076
1605.23	60.1987
1606.77	60.3454
1608.31	60.8425
1609.85	61.0645
1611.39	60.7742
1612.93	60.532
1614.47	60.3597
1616.01	60.3903
1617.55	61.058
1619.08	61.549
1620.62	60.9333
1622.16	60.6311
1623.7	59.7683
1625.23	59.4392
1626.77	60.045
1628.3	59.4333
1629.84	59.6275
1631.37	60.2539
1632.91	61.5265
1634.44	61.7908
1635.98	62.0996
1637.51	62.288
1639.05	61.9921
1640.58	61.9986
1642.11	62.864
1643.65	64.0187
1645.18	65.2023
1646.71	66.8374
1648.24	67.0863
1649.78	66.543
1651.31	65.8597
1652.84	66.9651
1654.37	67.4538
1655.9	68.1646
1657.43	68.797
1658.96	69.3096
1660.49	69.9723
1662.02	69.4735
1663.55	69.1488
1665.08	68.7711
1666.61	68.0476
1668.14	67.4448
1669.66	66.3072
1671.19	65.4919
1672.72	64.9338
1674.25	63.4852
1675.77	62.3091
1677.3	61.0987
1678.83	60.3501
1680.35	58.9002
1681.88	57.5581
1683.4	55.134
1684.93	53.1285
1686.45	50.1967
1687.98	48.4295
1689.5	46.3812
1691.03	44.3684
1692.55	42.8303
1694.07	40.2935
1695.6	37.5253
1697.12	34.9415
1698.64	33.0919
1700.17	30.9447
1701.69	29.9158
1703.21	28.3639
1704.73	27.0447
1706.25	26.028
1707.77	24.3172
1709.29	22.7484
1710.81	20.217
1712.33	18.6924
1713.85	16.6581
1715.37	15.723
1716.89	15.086
1718.41	14.7254
1719.93	13.5092
1721.45	12.7903
1722.97	11.6804
1724.49	10.2176
1726	9.1656
1727.52	9.01187
1729.04	9.15223
1730.55	8.62999
1732.07	8.97335
1733.59	8.92268
1735.1	8.58027
1736.62	8.39134
1738.13	7.59899
1739.65	8.30657
1741.16	8.24744
1742.68	8.27012
1744.19	7.56462
1745.7	8.12399
1747.22	8.76393
1748.73	8.27571
1750.24	8.03857
1751.76	7.80096
1753.27	7.69832
1754.78	7.4381
1756.29	7.06998
1757.8	6.81243
1759.31	6.39667
1760.83	6.49516
1762.34	6.29079
1763.85	6.82729
1765.36	6.38494
1766.87	6.11226
1768.38	6.10479
1769.89	5.82506
1771.39	6.56258
1772.9	6.76428
1774.41	6.56359
1775.92	6.58152
1777.43	6.57579
1778.94	6.06322
1780.44	6.11052
1781.95	5.90054
1783.46	5.73879
1784.96	5.4574
1786.47	5.28435
1787.97	5.71216
1789.48	5.82996
1790.99	6.03344
1792.49	5.4443
1794	5.58659
1795.5	5.12593
1797	4.43286
1798.51	4.22138
1800.01	3.55893
1801.51	3.12975
1803.02	3.42402
1804.52	3.36755
1806.02	3.11544
1807.53	3.0487
1809.03	3.27135
1810.53	3.35084
1812.03	3.13511
1813.53	3.23096
1815.03	3.53318
1816.53	2.85472
1818.03	2.52644
1819.53	2.13326
1821.03	2.63866
1822.53	1.80015
1824.03	1.2919
1825.53	1.17478
1827.03	1.00406
1828.53	0.946074
1830.02	0.692006
1831.52	1.19445
1833.02	1.39296
1834.52	1.93477
1836.01	1.93552
1837.51	1.94159
1839.01	1.66576
1840.5	0.929439
1842	1.06607
1843.49	1.5642
1844.99	1.54218
1846.48	1.73655
1847.98	1.11232
1849.47	1.01678
1850.97	1.2049
1852.46	0.795339
1853.95	1.31463
1855.45	1.80061
1856.94	2.0517
1858.43	1.69581
1859.93	1.95617
1861.42	2.56373
1862.91	2.85882
1864.4	2.99898
1865.89	2.28352
1867.38	2.46926
1868.87	2.59202
1870.36	2.15905
1871.85	2.43029
1873.34	2.74582
1874.83	2.64241
1876.32	3.19739
1877.81	3.67845
1879.3	4.39247
1880.79	4.81343
1882.28	4.90217
1882.52	4.90687
1884.02	4.39366
1885.51	4.75079
1887.01	4.78108
1888.5	4.52984
1889.99	4.7762
1891.49	4.36681
1892.98	4.76482
1894.47	4.97765
1895.97	4.86013
1897.46	4.64001
1898.95	4.80588
1900.44	4.6718
1901.93	5.02842
1903.42	5.18086
1904.91	5.62261
1906.4	5.56353
1907.89	5.54412
1909.38	5.23234
1910.87	5.2146
1912.36	5.11117
1913.85	5.1698
1915.34	5.89166
1916.83	5.75913
1918.32	5.65669
1919.8	5.38237
1921.29	5.40619
1922.78	6.14895
1924.27	6.08115
1925.75	5.64628
1927.24	6.52042
1928.73	5.6685
1930.21	5.44656
1931.7	5.76912
1933.18	5.5323
1934.67	5.42845
1936.15	5.01351
1937.64	4.62071
1939.12	4.08291
1940.61	4.04418
1942.09	3.36172
1943.57	3.18061
1945.06	3.10617
1946.54	2.89086
1948.02	3.22248
1949.51	3.2422
1950.99	2.90022
1952.47	2.82628
1953.95	2.96145
1955.43	2.6317
1956.91	2.6658
1958.4	3.09759
1959.88	3.33408
1961.36	2.50676
1962.84	2.81009
1964.32	3.22805
1965.8	2.30563
1967.27	2.88676
1968.75	2.37908
1970.23	2.2318
1971.71	1.9639
1973.19	2.49373
1974.67	2.2886
1976.14	2.87562
1977.62	3.0913
1979.1	3.6737
1980.58	3.97523
1982.05	4.53433
1983.53	4.9505
1985	4.98646
1986.48	5.06139
1987.95	5.67123
1989.43	6.37591
1990.9	6.60066
1992.38	6.62653
1993.85	6.56874
1995.33	6.77879
1996.8	6.68776
1998.27	6.47811
1999.75	5.93216
2001.22	6.04552
2002.69	5.08567
2004.16	5.35126
2005.64	5.16082
2007.11	4.4943
2008.58	4.72263
2010.05	4.64628
2011.52	4.56831
2012.99	4.5733
2014.46	3.79697
2015.93	3.45021
2017.4	2.87312
2018.87	3.03366
2020.34	3.49934
2021.81	3.42567
2023.28	3.2335
2024.75	3.55981
2026.22	4.2025
2027.69	4.44487
2029.15	3.88884
2030.62	3.80129
2032.09	3.33101
2033.56	3.07841
2035.02	3.05797
2036.49	3.69856
2037.96	3.5206
2039.42	3.01462
2040.89	3.32539
2042.35	3.18913
2043.82	3.69391
2045.28	3.60395
2046.75	3.89875
2048.21	3.44755
2049.67	3.6925
2051.14	4.03919
2052.6	4.04155
2054.07	3.82183
2055.53	4.0211
2056.99	3.78547
2058.45	3.98063
2059.92	4.34264
2061.38	4.77204
2062.84	4.86992
2064.3	5.26823
2065.76	4.49644
2067.22	4.49394
2068.68	3.98388
2070.14	4.21559
2071.6	4.1449
2073.06	3.59041
2074.52	3.84025
2075.98	3.8476
2077.44	4.09745
2078.9	3.98541
2080.36	4.53601
2081.82	4.42568
2083.27	4.10645
2084.73	3.91645
2086.19	3.7852
2087.65	3.44451
2089.1	3.61931
2090.56	2.86172
2092.02	3.31312
2093.47	2.76033
2094.93	2.16375
2096.38	2.75575
2097.84	2.51007
2099.29	2.6245
2100.75	2.1401
2102.2	2.37756
2103.66	1.71283
2105.11	1.78421
2106.56	2.56167
2108.02	2.44368
2109.47	3.06673
2110.92	2.71434
2112.38	2.92545
2113.83	2.78441
2115.28	2.96252
2116.73	3.11207
2118.18	2.98843
2119.63	3.19751
2121.09	2.97469
2122.54	3.57069
2123.99	4.07032
2125.44	4.30769
