#Acq. time (s)=	45
#Accumulations=	2
#Range (cm-¹)=	200...3150
#Windows=	2
#Auto scanning=	Off
#Autofocus=	Off
#Macrospot=	Off
#AutoExposure=	Off
#Spike filter=	Multiple accum.
#Delay time (s)=	0
#Binning=	1
#Readout mode=	Signal
#DeNoise=	Off
#ICS correction=	On
#Dark correction=	Off
#Inst. Process=	Off
#Detector Gain=	Best Dynamic Range
#Detector ADC=	20 kHz       
#Detector temperature (°C)=	-69.85
#Instrument=	LabRAM HR Evol
#Detector=	Synapse
#Objective=	x100
#Grating=	600 gr/mm
#ND Filter=	100%
#Laser (nm)=	532 
#Hole=	100.021
#Range=	Auto
#Laser Pol.=	No
#Raman. Pol.=	No
#Laser Pol. (°)=	-0.0007625
#Raman Pol. (°)=	89.9995
#Collection=	Microscope
#StageXY=	Marzhauser
#StageZ=	Marzhauser
#X (µm)=	236.4
#Y (µm)=	1684.1
#Z (µm)=	427.6
#Full time(mm:ss)=	3:18
#Project=	
#Sample=	
#Site=	
#Title=	Thy_40_11_38_2x_45s_532 nm_x100_100%_600 gr_mm
#Remark=	
#Date=	05.07.2022 12:42
#Acquired=	05.07.2022 12:42:29
#Base:Fit=	10.08.2022 10:01:35
#Base:Sub=	10.08.2022 10:01:52
#Filter:Polynom=	16.08.2022 10:21:53
#AxisType[0]=Intens
#AxisUnit[0]=Cnt
#AxisType[1]=Spectr
#AxisUnit[1]=1/cm
200.43	42.5597
202.244	40.574
204.059	37.8589
205.873	34.8535
207.688	32.4429
209.501	30.3404
211.314	28.5534
213.127	26.5686
214.941	25.6819
216.753	23.9693
218.564	22.2289
220.375	21.7853
222.186	20.974
223.999	20.5859
225.809	19.8324
227.618	18.0733
229.428	16.1776
231.236	14.2271
233.045	12.937
234.855	12.2221
236.663	11.5792
238.471	10.5021
240.278	10.1964
242.085	9.31749
243.891	9.03707
245.698	8.97422
247.503	8.72251
249.309	8.99716
251.116	9.79039
252.921	8.66414
254.725	8.16203
256.529	6.61973
258.333	6.52825
260.136	7.00968
261.939	7.06432
263.742	6.95509
265.544	6.60999
267.346	6.32384
269.148	6.81643
270.949	6.0298
272.75	5.87448
274.55	5.51411
276.351	6.18965
278.15	5.68393
279.95	5.58224
281.749	4.98412
283.548	5.0825
285.346	5.62538
287.144	5.86181
288.942	6.1312
290.739	6.32935
292.536	6.36458
294.333	7.19919
296.129	7.47803
297.925	7.83715
299.721	8.13096
301.514	7.83025
303.309	8.34952
305.104	8.78806
306.898	9.26544
308.692	9.73761
310.486	10.5565
312.279	10.2061
314.072	10.6126
315.862	9.63835
317.654	8.66247
319.446	8.92423
321.238	9.01038
323.029	9.3007
324.819	9.66641
326.608	9.78984
328.398	10.3909
330.188	11.1697
331.977	10.8447
333.766	11.1688
335.553	11.0256
337.341	10.9634
339.129	10.3478
340.917	9.87393
342.704	8.47216
344.489	7.92197
346.275	7.58499
348.062	8.00186
349.845	7.33191
351.631	6.25013
353.416	5.13567
355.201	3.57581
356.984	3.36344
358.768	3.83002
360.552	3.21771
362.333	3.83404
364.116	3.33336
365.899	2.91208
367.68	3.17277
369.462	3.25518
371.243	3.1109
373.023	3.99806
374.804	4.44239
376.585	4.28471
378.363	4.7104
380.143	4.90093
381.923	3.95695
383.7	5.3633
385.479	5.36494
387.256	5.3744
389.034	4.4882
390.812	4.83414
392.588	5.45925
394.365	6.47877
396.14	7.79649
397.916	7.32229
399.691	7.57106
401.467	7.62846
403.24	7.9794
405.015	6.88066
406.788	7.7509
408.563	8.14741
410.335	7.96846
412.109	8.2936
413.88	8.70704
415.654	8.85733
417.424	9.04111
419.197	8.82584
420.967	8.64109
422.739	8.74582
424.508	8.49064
426.279	7.61641
428.048	6.18126
429.819	6.7253
431.587	6.36474
433.356	5.7268
435.124	5.4065
436.891	5.22312
438.66	4.83053
440.426	4.53235
442.194	4.4043
443.96	4.57656
445.725	5.61784
447.492	6.4701
449.257	6.39362
451.021	6.90216
452.787	6.98082
454.551	7.2302
456.314	7.07117
458.079	6.9132
459.842	7.7328
461.604	8.52773
463.368	9.01789
465.13	9.81238
466.891	10.1737
468.654	10.5695
470.415	10.7569
472.175	11.9567
473.935	11.1306
475.696	11.1884
477.456	11.6789
479.215	12.8967
480.973	13.3792
482.733	14.4033
484.491	14.3651
486.249	14.0993
488.006	14.7606
489.765	15.5118
491.522	16.061
493.278	16.7664
495.034	17.6873
496.789	17.8019
498.544	18.3179
500.301	18.6382
502.056	19.6106
503.81	20.0731
505.564	20.5447
507.317	20.6649
509.071	20.1605
510.825	20.2334
512.578	20.1521
514.33	20.3915
516.082	20.9592
517.833	21.5858
519.585	21.3445
521.335	21.8252
523.086	22.5829
524.836	22.5617
526.586	21.8778
528.335	22.7003
530.085	22.5803
531.835	22.7201
533.584	22.8357
535.332	22.9694
537.08	22.4012
538.827	22.0636
540.574	21.5164
542.321	20.411
544.068	19.8551
545.814	20.6155
547.56	21.0497
549.305	20.8728
551.05	20.8422
552.795	20.6006
554.54	20.013
556.282	18.9974
558.025	17.9068
559.769	17.6051
561.512	16.8022
563.255	15.7398
564.997	15.0133
566.739	13.6848
568.481	12.933
570.223	12.3845
571.964	11.2279
573.705	10.364
575.443	10.2856
577.183	9.99294
578.923	9.12776
580.663	8.44267
582.402	7.66944
584.141	7.17054
585.879	6.21898
587.615	5.44657
589.353	5.67594
591.09	5.59347
592.828	5.88912
594.564	6.10373
596.299	5.73001
598.035	5.71434
599.771	5.11481
601.506	5.66121
603.242	5.80379
604.974	6.4992
606.709	7.42878
608.443	7.53905
610.177	7.63646
611.908	7.8472
613.642	7.87903
615.374	9.27081
617.105	9.05286
618.837	9.606
620.569	9.82944
622.3	10.5011
624.03	10.9353
625.761	11.7632
627.491	12.6731
629.219	13.0037
630.949	14.1555
632.677	15.3265
634.406	15.6491
636.135	16.7191
637.861	17.4918
639.59	17.2972
641.318	18.1503
643.043	19.6497
644.77	20.3891
646.495	20.8479
648.222	21.4902
649.948	21.4348
651.672	22.1943
653.398	23.3835
655.121	23.8768
656.846	24.662
658.569	25.6145
660.293	26.6337
662.015	27.4953
663.738	27.5377
665.46	27.5665
667.183	28.0418
668.903	28.4257
670.626	28.9865
672.346	30.0567
674.067	31.5659
675.787	33.4991
677.508	34.821
679.226	36.1357
680.947	37.0351
682.665	37.4376
684.385	38.9598
686.102	40.7393
687.821	41.9245
689.538	43.4093
691.254	44.1781
692.972	45.1126
694.688	45.2774
696.406	46.6737
698.121	47.1426
699.835	47.9761
701.552	49.3954
703.266	49.717
704.98	50.5988
706.695	51.0949
708.409	51.693
710.121	51.8746
711.836	52.7952
713.548	53.2097
715.26	52.5535
716.973	53.7717
718.685	53.7995
720.396	54.144
722.108	54.4703
723.818	54.5151
725.528	55.3033
727.238	56.5151
728.949	57.9546
730.658	57.4264
732.367	57.2195
734.075	57.641
735.785	57.6855
737.493	58.0649
739.2	58.8258
740.907	58.1676
742.614	59.6936
744.322	59.7061
746.028	60.4512
747.734	60.5465
749.439	61.4418
751.144	62.5477
752.849	64.1708
754.555	66.0193
756.26	67.852
757.963	70.3606
759.667	71.8978
761.37	72.8381
763.073	74.5552
764.775	76.1589
766.477	76.8074
768.179	77.9022
769.883	79.3379
771.584	79.9036
773.285	80.4707
774.986	82.3969
776.686	83.0122
778.386	83.84
780.085	84.8603
781.785	86.2044
783.484	86.4183
785.182	87.3213
786.881	87.3043
788.579	87.4266
790.276	87.1268
791.974	86.9947
793.671	88.1442
795.367	88.7106
797.064	88.592
798.76	87.4321
800.456	87.2378
802.151	87.6504
803.846	88.3255
805.541	89.0286
807.234	89.7317
808.928	91.143
810.622	92.5026
812.315	93.235
814.008	93.5902
815.701	93.3778
817.394	94.0951
819.086	94.1544
820.778	94.6521
822.468	94.7813
824.159	94.9585
825.85	95.6486
827.541	97.0777
829.231	96.9587
830.921	97.1445
832.609	97.4231
834.298	98.6668
835.987	97.8629
837.676	97.7906
839.364	97.8561
841.051	96.4875
842.738	96.2041
844.426	93.2706
846.113	91.919
847.798	90.77
849.484	88.9447
851.171	86.7406
852.857	84.9521
854.54	82.9692
856.226	80.3565
857.911	78.6902
859.593	76.3414
861.278	73.9985
862.961	71.1331
864.645	69.692
866.327	68.2505
868.01	65.6566
869.692	63.5537
871.373	62.6252
873.055	61.7394
874.735	60.4661
876.416	59.1967
878.097	58.1818
879.776	56.4023
881.457	54.9879
883.135	54.6441
884.815	54.9031
886.495	55.2719
888.172	55.9754
889.851	56.1909
891.528	56.2144
893.206	57.5038
894.882	58.1723
896.56	58.1155
898.237	57.4574
899.912	57.864
901.589	57.6921
903.263	56.9861
904.94	58.0441
906.614	58.0835
908.289	58.6315
909.962	59.4332
911.635	59.5713
913.31	58.7135
914.982	58.4555
916.656	59.2812
918.328	58.4854
920.001	57.2144
921.672	57.4471
923.345	56.6968
925.015	54.1662
926.685	53.3688
928.357	51.1658
930.026	50.7312
931.698	50.1155
933.366	49.0864
935.035	48.3257
936.705	48.4678
938.373	47.7738
940.041	46.3265
941.71	45.7129
943.377	44.4746
945.044	44.0198
946.712	43.6349
948.378	43.9023
950.044	44.5715
951.709	43.8388
953.376	44.3006
955.041	45.2013
956.706	43.7634
958.372	43.3025
960.036	42.5473
961.699	43.5847
963.362	44.3102
965.027	44.6784
966.69	45.4119
968.352	46.1545
970.014	47.4441
971.676	48.2102
973.339	49.0967
975	48.5763
976.661	48.9616
978.322	47.3421
979.982	46.3607
981.642	46.4202
983.303	47.0759
984.962	47.223
986.621	46.8153
988.28	46.4804
989.938	46.1966
991.596	45.98
993.254	45.6917
994.911	45.3128
996.57	45.0616
998.227	44.8322
999.884	44.0995
1001.54	42.3651
1003.2	41.1683
1004.85	40.7349
1006.51	39.8594
1008.16	39.46
1009.82	39.8272
1011.47	39.9739
1013.12	40.5614
1014.78	40.4932
1016.43	39.8439
1018.08	40.1867
1019.74	39.8206
1021.39	38.5718
1023.04	37.9419
1024.69	37.5212
1026.34	37.1881
1028	36.9776
1029.65	37.4291
1031.3	37.0558
1032.95	37.0494
1034.6	36.7644
1036.25	36.3151
1037.9	36.2428
1039.54	35.5859
1041.19	35.9394
1042.84	35.7166
1044.49	35.7826
1046.14	35.1503
1047.78	35.3476
1049.43	35.1766
1051.08	35.0317
1052.72	33.8946
1054.37	32.1345
1056.02	30.5592
1057.66	29.6803
1059.31	28.6943
1060.95	27.9388
1062.6	28.2466
1064.24	28.2656
1065.88	27.4757
1067.53	25.7966
1069.17	25.1618
1070.81	24.3956
1072.45	24.7534
1074.1	23.4819
1075.74	23.4657
1077.38	23.6053
1079.02	22.8616
1080.66	22.2649
1082.3	21.4448
1083.94	21.8333
1085.58	22.4313
1087.22	24.2215
1088.86	24.6833
1090.5	25.7178
1092.14	25.9943
1093.78	26.7584
1095.42	27.135
1097.05	27.1315
1098.69	26.8168
1100.33	26.9355
1101.96	27.0646
1103.6	27.7737
1105.24	28.2968
1106.87	28.3896
1108.51	28.2411
1110.14	26.8867
1111.78	26.5282
1113.41	25.7945
1115.05	25.2634
1116.68	25.3228
1118.31	24.0363
1119.95	23.4914
1121.58	22.0683
1123.21	21.5068
1124.85	20.8856
1126.48	19.9798
1128.11	19.7159
1129.74	19.2269
1131.37	16.9373
1133	15.6493
1134.63	14.3348
1136.26	13.3635
1137.89	12.9994
1139.52	12.7155
1141.15	10.9256
1142.78	10.5694
1144.41	10.4029
1146.04	9.79944
1147.66	8.5763
1149.29	7.64772
1150.92	7.48634
1152.55	6.25804
1154.17	5.9935
1155.8	5.57148
1157.43	4.96784
1159.05	4.1146
1160.68	3.31874
1162.3	3.8294
1163.93	3.88684
1165.55	4.34779
1167.17	5.20911
1168.8	6.42262
1170.42	5.73807
1172.05	5.96902
1173.67	5.001
1175.29	5.65773
1176.91	5.45854
1178.54	4.95262
1180.16	5.36786
1181.78	6.33885
1183.4	6.21382
1185.02	6.19812
1186.64	5.7139
1188.26	5.08915
1189.88	4.75077
1191.5	5.22111
1193.12	6.05057
1194.74	6.82074
1196.36	7.11883
1197.97	8.02425
1199.59	8.8444
1201.21	9.61309
1202.83	10.6313
1204.44	12.1021
1206.06	13.0665
1207.68	14.3553
1209.29	16.2143
1210.91	17.3442
1212.52	18.7047
1214.14	20.9266
1215.75	23.0019
1217.37	24.5888
1218.98	26.2427
1220.59	27.3365
1222.21	28.8125
1223.82	30.1701
1225.43	31.1152
1227.05	31.3373
1228.66	32.2381
1230.27	33.5885
1231.88	34.2418
1233.49	34.9516
1235.1	35.9057
1236.72	37.0859
1238.33	38.7709
1239.94	40.7705
1241.55	42.2535
1243.16	44.6987
1244.76	44.6139
1246.37	45.9694
1247.98	47.9116
1249.59	47.9664
1251.2	48.7019
1252.8	49.4762
1254.41	50.8819
1256.02	52.0049
1257.62	52.9106
1259.23	53.877
1260.84	54.9212
1262.44	55.2659
1264.05	54.5843
1265.66	56.1114
1267.26	57.1764
1268.86	58.3363
1270.47	59.5547
1272.07	60.5485
1273.67	60.9704
1275.28	61.2921
1276.88	61.9129
1278.48	63.7015
1280.09	64.9096
1281.69	65.076
1283.29	65.3026
1284.89	65.2149
1286.49	65.4105
1288.09	66.0941
1289.69	67.165
1291.29	66.6944
1292.89	67.2207
1294.49	67.0798
1296.09	67.4663
1297.69	66.7764
1299.29	66.2529
1300.89	66.3614
1302.49	65.6931
1304.08	64.6025
1305.68	64.3575
1307.28	65.0001
1308.88	64.6712
1310.47	64.6668
1312.07	64.2115
1313.66	65.0172
1315.26	66.1552
1316.85	67.0852
1318.45	66.8575
1320.04	65.542
1321.64	66.0756
1323.23	66.271
1324.83	64.9223
1326.42	65.3646
1328.01	65.3362
1329.61	64.9075
1331.2	64.3264
1332.79	64.1121
1334.38	63.8886
1335.97	62.9604
1337.56	63.0871
1339.16	62.1666
1340.75	61.8772
1342.34	61.3586
1343.93	60.6021
1345.52	61.201
1347.11	60.4004
1348.7	59.4809
1350.29	58.3635
1351.87	57.0449
1353.46	55.9452
1355.05	54.7484
1356.64	53.9369
1358.22	52.9407
1359.81	50.8015
1361.4	48.9156
1362.98	47.6753
1364.57	46.1897
1366.16	45.0363
1367.74	43.5703
1369.33	42.2995
1370.91	40.3381
1372.5	39.4171
1374.08	38.2824
1375.67	37.0418
1377.25	35.5487
1378.83	34.692
1380.41	33.8002
1382	32.5538
1383.58	32.6212
1385.16	32.1415
1386.74	32.5667
1388.33	31.2813
1389.91	30.3761
1391.49	29.6731
1393.07	29.1721
1394.65	27.848
1396.23	26.5569
1397.81	25.3613
1399.39	25.1059
1400.97	25.2491
1402.55	24.7326
1404.13	24.3797
1405.7	24.5177
1407.28	25.3274
1408.86	25.1677
1410.44	25.3614
1412.01	26.4585
1413.59	26.6587
1415.17	27.5067
1416.74	28.4649
1418.32	29.6476
1419.89	30.844
1421.47	32.1424
1423.04	33.567
1424.62	36.1436
1426.19	37.8001
1427.77	39.9879
1429.34	42.0582
1430.91	43.9321
1432.49	45.72
1434.06	47.4857
1435.63	49.079
1437.2	52.1739
1438.78	53.9473
1440.35	55.8038
1441.92	56.8949
1443.49	57.5779
1445.06	59.4115
1446.63	60.7225
1448.2	62.4095
1449.77	63.9622
1451.34	65.0532
1452.91	65.5304
1454.48	65.4792
1456.05	65.5792
1457.62	65.2913
1459.18	64.2157
1460.75	63.0623
1462.32	62.2567
1463.89	59.8391
1465.45	58.1127
1467.02	54.5983
1468.59	52.0324
1470.15	49.7464
1471.72	47.5173
1473.28	44.973
1474.85	43.117
1476.41	40.7478
1477.98	38.1289
1479.54	35.7404
1481.1	33.5118
1482.67	30.2624
1484.23	28.0415
1485.79	25.6657
1487.36	22.3784
1488.92	20.5618
1490.48	18.6854
1492.04	16.4623
1493.61	15.4227
1495.17	14.4639
1496.73	14.1277
1498.29	13.266
1499.85	13.254
1501.41	13.2456
1502.97	13.4791
1504.53	11.9814
1506.09	12.5345
1507.65	11.8857
1509.2	11.8707
1510.76	12.2761
1512.32	13.3137
1513.88	13.8945
1515.43	14.6478
1516.99	14.4572
1518.55	15.2009
1520.1	15.5865
1521.66	16.6046
1523.22	17.9061
1524.77	18.7045
1526.33	19.5196
1527.88	20.4862
1529.44	21.27
1530.99	21.4297
1532.54	21.1857
1534.1	21.2696
1535.65	21.696
1537.21	22.5078
1538.76	23.1721
1540.31	24.4947
1541.86	24.7287
1543.42	25.7418
1544.97	27.5518
1546.52	29.194
1548.07	30.1571
1549.62	32.3242
1551.17	33.5329
1552.72	34.4893
1554.27	34.9767
1555.82	35.965
1557.37	37.1237
1558.92	38.3213
1560.47	39.2188
1562.02	40.7585
1563.56	41.4936
1565.11	42.1319
1566.66	44.0192
1568.21	45.1418
1569.75	45.5893
1571.3	48.5854
1572.85	50.1143
1574.39	51.406
1575.94	53.1014
1577.49	54.8384
1579.03	56.5443
1580.57	57.5003
1582.12	57.6178
1583.66	58.4312
1585.21	58.8932
1586.75	59.453
1588.3	60.5601
1589.84	61.205
1591.38	61.2109
1592.92	61.0312
1594.47	61.51
1596.01	61.2659
1597.55	61.1595
1599.09	60.8145
1600.63	60.5434
1602.17	59.813
1603.71	58.9145
1605.25	58.8338
1606.79	58.3647
1608.33	57.3666
1609.87	56.7233
1611.41	56.6815
1612.95	57.142
1614.49	57.5655
1616.03	56.9318
1617.57	57.2791
1619.1	56.6464
1620.64	57.2724
1622.18	58.4023
1623.72	58.5098
1625.25	58.756
1626.79	58.9524
1628.32	58.9304
1629.86	59.1635
1631.39	59.6181
1632.93	61.3414
1634.46	62.5965
1636	63.3988
1637.53	64.4081
1639.07	64.8895
1640.6	65.5887
1642.13	67.4178
1643.67	69.6314
1645.2	70.9297
1646.73	72.1156
1648.26	74.5324
1649.8	75.5925
1651.33	76.5036
1652.86	77.7341
1654.39	78.3036
1655.92	78.9373
1657.45	78.4957
1658.98	77.3321
1660.51	76.8326
1662.04	77.3743
1663.57	76.4246
1665.1	76.5364
1666.63	75.3006
1668.16	74.0852
1669.68	72.6628
1671.21	71.322
1672.74	69.9081
1674.27	68.8818
1675.79	66.4081
1677.32	64.0822
1678.85	61.5359
1680.37	59.1112
1681.9	56.8228
1683.42	53.7786
1684.95	51.2655
1686.47	48.1922
1688	45.9964
1689.52	43.1754
1691.05	39.9892
1692.57	37.2049
1694.09	35.0186
1695.62	32.7107
1697.14	30.7138
1698.66	28.1745
1700.18	25.3695
1701.71	22.7627
1703.23	20.6679
1704.75	18.8461
1706.27	17.0576
1707.79	15.0676
1709.31	13.8719
1710.83	11.6013
1712.35	9.40783
1713.87	8.0817
1715.39	6.61302
1716.91	6.06399
1718.43	5.50256
1719.95	4.3696
1721.47	3.02553
1722.99	2.2562
1724.5	2.25638
1726.02	2.07463
1727.54	1.63895
1729.06	1.61623
1730.57	1.79151
1732.09	1.46185
1733.61	0.645754
1735.12	0.670317
1736.64	1.62501
1738.15	2.57154
1739.67	2.75549
1741.18	3.4784
1742.7	3.53503
1744.21	3.99037
1745.72	4.08936
1747.24	4.56955
1748.75	5.41212
1750.26	5.0618
1751.77	4.25545
1753.29	4.10313
1754.8	3.76003
1756.31	3.72354
1757.82	3.64367
1759.33	3.92498
1760.84	4.06161
1762.36	3.83956
1763.87	4.0576
1765.38	3.32009
1766.89	3.12691
1768.4	3.11403
1769.91	2.76798
1771.41	2.38807
1772.92	1.76682
1774.43	1.82871
1775.94	1.52344
1777.45	1.34165
1778.95	1.13479
1780.46	0.606177
1781.97	0.237804
1783.48	-0.183697
1784.98	-0.177613
1786.49	-0.6429
1787.99	-0.634634
1789.5	-1.09614
1791.01	-1.49729
1792.51	-1.37186
1794.01	-1.41252
1795.52	-1.72389
1797.02	-1.65225
1798.53	-1.47059
1800.03	-1.09099
1801.53	-0.750404
1803.04	-0.888225
1804.54	-0.75699
1806.04	-0.361794
1807.54	-0.326733
1809.05	-0.481826
1810.55	0.0174021
1812.05	0.188273
1813.55	0.175736
1815.05	0.509245
1816.55	0.554482
1818.05	0.896945
1819.55	0.940808
1821.05	1.21498
1822.55	1.63588
1824.05	2.11331
1825.55	1.5912
1827.05	1.63534
1828.55	1.77453
1830.04	2.05823
1831.54	2.41708
1833.04	2.91022
1834.54	3.30047
1836.03	3.2369
1837.53	3.36644
1839.03	3.48947
1840.52	3.62832
1842.02	3.4553
1843.51	3.7886
1845.01	4.60217
1846.5	5.00316
1848	5.20097
1849.49	5.27341
1850.99	4.91794
1852.48	5.53457
1853.97	5.55299
1855.47	5.29553
1856.96	5.74423
1858.45	5.90834
1859.94	5.69722
1861.44	5.6102
1862.93	5.59703
1864.42	4.98924
1865.91	5.1482
1867.4	5.13533
1868.89	4.80572
1870.38	4.12501
1871.87	3.62105
1873.36	3.06071
1874.85	2.66816
1876.34	2.44192
1877.83	2.16753
1879.32	2.77395
1880.81	2.49771
1882.3	2.31751
1882.57	2.50764
1884.07	2.72695
1885.56	3.18584
1887.06	3.38846
1888.55	3.30872
1890.04	3.3484
1891.54	3.30829
1893.03	3.44234
1894.52	3.89594
1896.02	4.55149
1897.51	4.6811
1899	4.56913
1900.49	5.19069
1901.98	5.6607
1903.47	6.50809
1904.96	6.91976
1906.45	7.46029
1907.94	7.23628
1909.43	7.23137
1910.92	7.36158
1912.41	7.9802
1913.9	8.1006
1915.39	8.53375
1916.88	8.54365
1918.37	8.94443
1919.85	8.47049
1921.34	8.2602
1922.83	7.93497
1924.32	8.53073
1925.8	9.13201
1927.29	9.28949
1928.78	9.23665
1930.26	9.5085
1931.75	8.67524
1933.23	8.06916
1934.72	8.10408
1936.2	7.86151
1937.69	7.28308
1939.17	7.17899
1940.66	6.68904
1942.14	6.17284
1943.63	5.27803
1945.11	5.43005
1946.59	5.58793
1948.07	6.44248
1949.56	6.17975
1951.04	6.04328
1952.52	6.11701
1954	5.74288
1955.48	5.55897
1956.96	5.6771
1958.45	5.6547
1959.93	5.91678
1961.41	5.56512
1962.89	5.17999
1964.37	5.38574
1965.85	5.34504
1967.32	5.94051
1968.8	5.91001
1970.28	6.11847
1971.76	5.87155
1973.24	6.16458
1974.72	6.02482
1976.19	6.1726
1977.67	6.34176
1979.15	5.9237
1980.63	5.91292
1982.1	6.03409
1983.58	5.87044
1985.05	5.29655
1986.53	5.54833
1988	5.19757
1989.48	5.66472
1990.95	5.19282
1992.43	5.59552
1993.9	5.38524
1995.38	6.27514
1996.85	6.0529
1998.32	6.64133
1999.8	6.42044
2001.27	5.99693
2002.74	6.24067
2004.22	6.57219
2005.69	6.41705
2007.16	7.16354
2008.63	7.02421
2010.1	6.84302
2011.57	6.80791
2013.04	6.87966
2014.51	6.56455
2015.98	6.89756
2017.45	6.72742
2018.92	7.2451
2020.39	7.61616
2021.86	7.78756
2023.33	7.51814
2024.8	7.97811
2026.27	8.70863
2027.74	9.18971
2029.2	9.37291
2030.67	9.80721
2032.14	9.68933
2033.61	9.33924
2035.07	9.56814
2036.54	9.35683
2038.01	9.39188
2039.47	8.9317
2040.94	9.48707
2042.4	9.37298
2043.87	9.78454
2045.33	9.5694
2046.8	9.7886
2048.26	9.39653
2049.72	9.5823
2051.19	9.37535
2052.65	9.59424
2054.12	10.003
2055.58	9.89556
2057.04	9.26787
2058.5	9.40378
2059.97	10.2082
2061.43	10.5567
2062.89	10.6182
2064.35	10.087
2065.81	10.2444
2067.27	10.3018
2068.73	11.058
2070.19	10.7063
2071.65	11.6887
2073.11	11.6781
2074.57	12.6343
2076.03	14.0478
2077.49	14.1086
2078.95	14.9708
2080.41	15.4385
2081.87	15.347
2083.32	16.3396
2084.78	17.1079
2086.24	17.8319
2087.7	18.4046
2089.15	19.5996
2090.61	20.3112
2092.07	21.7009
2093.52	22.9108
2094.98	23.7461
2096.43	24.9171
2097.89	25.9774
2099.34	27.1012
2100.8	28.1424
2102.25	28.6706
2103.71	29.2152
2105.16	30.2152
2106.61	30.579
2108.07	31.6312
2109.52	32.5183
2110.97	33.8179
2112.43	35.3264
2113.88	36.7056
2115.33	37.6224
2116.78	38.6957
2118.23	39.4293
2119.68	40.8039
2121.13	41.5201
2122.59	43.1083
2124.04	44.7852
2125.49	46.9703
2126.94	48.3175
2128.39	50.0874
2129.83	51.0184
2131.28	52.6726
2132.73	54.4996
