#Acq. time (s)=	45
#Accumulations=	2
#Range (cm-¹)=	200...3150
#Windows=	2
#Auto scanning=	Off
#Autofocus=	Off
#Macrospot=	Off
#AutoExposure=	Off
#Spike filter=	Multiple accum.
#Delay time (s)=	0
#Binning=	1
#Readout mode=	Signal
#DeNoise=	Off
#ICS correction=	On
#Dark correction=	Off
#Inst. Process=	Off
#Detector Gain=	Best Dynamic Range
#Detector ADC=	20 kHz       
#Detector temperature (°C)=	-69.85
#Instrument=	LabRAM HR Evol
#Detector=	Synapse
#Objective=	x100
#Grating=	600 gr/mm
#ND Filter=	100%
#Laser (nm)=	532 
#Hole=	100.021
#Range=	Auto
#Laser Pol.=	No
#Raman. Pol.=	No
#Laser Pol. (°)=	-0.0007625
#Raman Pol. (°)=	89.9995
#Collection=	Microscope
#StageXY=	Marzhauser
#StageZ=	Marzhauser
#X (µm)=	2204.6
#Y (µm)=	1225.1
#Z (µm)=	442.15
#Full time(mm:ss)=	3:19
#Project=	
#Sample=	
#Site=	
#Title=	Thy_10_08_23_2x_45s_532 nm_x100_100%_600 gr_mm
#Remark=	
#Date=	05.07.2022 15:48
#Acquired=	05.07.2022 15:48:39
#Base:Fit=	10.08.2022 09:46:25
#Base:Sub=	10.08.2022 09:46:49
#Filter:Polynom=	16.08.2022 10:24:56
#AxisType[0]=Intens
#AxisUnit[0]=Cnt
#AxisType[1]=Spectr
#AxisUnit[1]=1/cm
200.43	12.6176
202.244	14.9485
204.059	15.8845
205.873	15.2689
207.688	14.4344
209.501	13.1069
211.314	11.8206
213.127	11.2315
214.941	10.0351
216.753	9.76989
218.564	9.62533
220.375	9.70223
222.186	9.12412
223.999	7.35583
225.809	7.55322
227.618	7.55615
229.428	8.82972
231.236	8.02092
233.045	7.35519
234.855	5.50952
236.663	4.91858
238.471	5.10975
240.278	5.59473
242.085	5.88226
243.891	6.37819
245.698	6.32832
247.503	6.53375
249.309	6.0681
251.116	6.20827
252.921	5.10679
254.725	5.92803
256.529	6.57686
258.333	6.58932
260.136	7.06578
261.939	6.35903
263.742	5.81333
265.544	6.53098
267.346	5.75114
269.148	6.19475
270.949	5.79446
272.75	6.75402
274.55	7.30769
276.351	8.00391
278.15	7.54033
279.95	7.05255
281.749	8.69595
283.548	8.24022
285.346	8.33656
287.144	8.20905
288.942	8.17129
290.739	7.04615
292.536	6.66621
294.333	7.39789
296.129	7.65503
297.925	7.832
299.721	8.20758
301.514	9.81551
303.309	10.4866
305.104	10.4373
306.898	10.9261
308.692	11.7719
310.486	11.9798
312.279	11.7298
314.072	12.2769
315.862	13.791
317.654	13.2941
319.446	13.6911
321.238	12.5069
323.029	12.8831
324.819	13.3348
326.608	15.2594
328.398	15.8722
330.188	15.6072
331.977	15.5345
333.766	15.8083
335.553	16.1225
337.341	16.5913
339.129	16.517
340.917	16.8873
342.704	16.546
344.489	17.4458
346.275	16.8371
348.062	17.3725
349.845	16.9255
351.631	15.0632
353.416	14.4945
355.201	13.678
356.984	13.2288
358.768	13.5812
360.552	12.7049
362.333	12.3323
364.116	11.9295
365.899	12.0753
367.68	11.3355
369.462	11.2126
371.243	10.3784
373.023	9.40057
374.804	8.63453
376.585	8.06691
378.363	8.79621
380.143	8.9064
381.923	10.0704
383.7	10.3658
385.479	10.5444
387.256	11.8927
389.034	12.2892
390.812	13.6573
392.588	13.5098
394.365	13.9536
396.14	14.5174
397.916	15.8968
399.691	15.7811
401.467	15.8823
403.24	16.589
405.015	16.341
406.788	16.1126
408.563	16.6702
410.335	16.7882
412.109	17.421
413.88	18.4815
415.654	18.1383
417.424	18.2714
419.197	18.5952
420.967	20.2791
422.739	20.8258
424.508	21.0802
426.279	20.8131
428.048	20.3588
429.819	19.7018
431.587	19.0166
433.356	18.3768
435.124	17.7154
436.891	16.8565
438.66	16.1952
440.426	16.5363
442.194	16.3655
443.96	15.7167
445.725	16.4661
447.492	15.8338
449.257	15.1741
451.021	14.9742
452.787	14.629
454.551	14.3421
456.314	12.8425
458.079	12.8728
459.842	12.4416
461.604	13.8022
463.368	14.3021
465.13	15.306
466.891	17.7631
468.654	18.0429
470.415	19.0347
472.175	20.4003
473.935	21.1869
475.696	21.3427
477.456	20.8986
479.215	21.2089
480.973	21.8339
482.733	22.495
484.491	23.5543
486.249	24.365
488.006	24.3098
489.765	24.454
491.522	25.6671
493.278	26.3599
495.034	27.2954
496.789	27.896
498.544	29.291
500.301	29.4186
502.056	30.0515
503.81	29.8782
505.564	30.2067
507.317	30.5169
509.071	31.3679
510.825	30.9743
512.578	31.6031
514.33	32.179
516.082	32.1866
517.833	31.9029
519.585	32.2481
521.335	32.5704
523.086	33.1883
524.836	33.957
526.586	33.9305
528.335	33.3707
530.085	33.3446
531.835	33.3909
533.584	33.4495
535.332	32.7941
537.08	32.358
538.827	32.2676
540.574	32.5307
542.321	32.4573
544.068	32.2587
545.814	32.081
547.56	31.8222
549.305	31.3342
551.05	30.11
552.795	30.8061
554.54	30.9492
556.282	30.1333
558.025	30.0141
559.769	30.0234
561.512	28.5072
563.255	27.8361
564.997	27.7618
566.739	27.8063
568.481	27.1229
570.223	25.6383
571.964	24.6664
573.705	22.3757
575.443	20.7927
577.183	20.3036
578.923	19.6702
580.663	19.074
582.402	17.3603
584.141	16.1203
585.879	15.4872
587.615	14.5658
589.353	14.189
591.09	13.9514
592.828	12.6722
594.564	12.6821
596.299	12.1224
598.035	11.8659
599.771	12.4687
601.506	12.7258
603.242	13.0338
604.974	12.6585
606.709	13.1353
608.443	12.9745
610.177	13.3662
611.908	13.3442
613.642	13.053
615.374	15.0122
617.105	15.7607
618.837	16.0097
620.569	16.2821
622.3	16.4244
624.03	16.7239
625.761	17.6605
627.491	18.5234
629.219	18.7657
630.949	19.0001
632.677	19.7857
634.406	21.5464
636.135	22.2186
637.861	23.8958
639.59	25.6047
641.318	25.9574
643.043	27.1529
644.77	27.5705
646.495	28.4913
648.222	28.1063
649.948	28.0117
651.672	27.713
653.398	26.0937
655.121	25.2193
656.846	25.3181
658.569	25.3839
660.293	26.3525
662.015	27.1552
663.738	28.832
665.46	29.5349
667.183	30.4807
668.903	29.8688
670.626	31.5653
672.346	32.4975
674.067	34.6688
675.787	34.2209
677.508	35.1348
679.226	34.8802
680.947	35.8735
682.665	37.1008
684.385	38.2145
686.102	39.8002
687.821	40.6781
689.538	40.7724
691.254	41.7356
692.972	42.8355
694.688	43.8069
696.406	44.4194
698.121	44.6091
699.835	46.4436
701.552	46.828
703.266	46.3688
704.98	46.9488
706.695	47.4334
708.409	48.1636
710.121	49.1983
711.836	49.9206
713.548	50.9058
715.26	50.9952
716.973	52.0457
718.685	52.7176
720.396	53.9601
722.108	54.9474
723.818	55.6189
725.528	56.0165
727.238	56.6061
728.949	56.8884
730.658	56.9474
732.367	57.408
734.075	57.6586
735.785	58.61
737.493	58.2718
739.2	59.2913
740.907	61.2202
742.614	62.2749
744.322	64.1978
746.028	65.9471
747.734	67.5456
749.439	69.9176
751.144	71.4311
752.849	72.015
754.555	73.7891
756.26	76.5908
757.963	77.8329
759.667	79.5346
761.37	79.5286
763.073	81.3109
764.775	82.1714
766.477	83.3466
768.179	84.8189
769.883	86.2041
771.584	87.4904
773.285	88.0814
774.986	88.4908
776.686	89.2366
778.386	88.8816
780.085	89.2661
781.785	89.6502
783.484	89.928
785.182	91.1213
786.881	91.3488
788.579	91.6978
790.276	93.0051
791.974	93.0419
793.671	93.7225
795.367	94.3698
797.064	94.9214
798.76	95.8045
800.456	95.8178
802.151	96.3385
803.846	96.1555
805.541	96.641
807.234	97.0379
808.928	96.3119
810.622	95.267
812.315	95.4281
814.008	95.1924
815.701	95.3579
817.394	95.5718
819.086	95.6198
820.778	95.3358
822.468	95.1653
824.159	95.6956
825.85	95.5763
827.541	96.2373
829.231	96.3554
830.921	96.6794
832.609	96.9036
834.298	95.459
835.987	94.8375
837.676	93.4985
839.364	93.7865
841.051	93.3396
842.738	92.1364
844.426	91.2846
846.113	90.6658
847.798	89.434
849.484	87.4495
851.171	85.76
852.857	85.3855
854.54	84.0049
856.226	82.051
857.911	80.9963
859.593	79.4929
861.278	79.1412
862.961	77.9661
864.645	77.2253
866.327	76.9134
868.01	75.0769
869.692	74.0485
871.373	72.9913
873.055	72.0618
874.735	71.806
876.416	70.4794
878.097	70.8039
879.776	70.2559
881.457	68.2372
883.135	67.579
884.815	65.4627
886.495	65.1389
888.172	64.1338
889.851	63.5585
891.528	63.2009
893.206	61.7275
894.882	61.2868
896.56	62.3971
898.237	61.6544
899.912	61.9257
901.589	61.8891
903.263	61.7538
904.94	63.3183
906.614	63.4478
908.289	63.0141
909.962	63.8666
911.635	63.7708
913.31	63.9802
914.982	64.8196
916.656	65.0863
918.328	64.8678
920.001	65.2656
921.672	65.3061
923.345	65.4819
925.015	65.3916
926.685	65.6792
928.357	65.4437
930.026	65.4074
931.698	65.6939
933.366	66.6271
935.035	67.163
936.705	66.9609
938.373	66.3133
940.041	66.7639
941.71	66.7434
943.377	65.5694
945.044	65.0837
946.712	63.6724
948.378	62.6141
950.044	61.6707
951.709	61.1815
953.376	60.4909
955.041	59.9074
956.706	59.3178
958.372	57.1689
960.036	55.2644
961.699	53.65
963.362	52.7142
965.027	51.7515
966.69	53.3114
968.352	52.7248
970.014	54.3178
971.676	54.1351
973.339	54.8435
975	55.1628
976.661	55.8042
978.322	56.1907
979.982	56.7644
981.642	57.3483
983.303	59.4805
984.962	59.6862
986.621	59.984
988.28	60.0493
989.938	58.9566
991.596	59.8774
993.254	60.4599
994.911	60.2299
996.57	61.1311
998.227	61.5484
999.884	61.9531
1001.54	61.1776
1003.2	59.8659
1004.85	59.5729
1006.51	60.2686
1008.16	60.2027
1009.82	59.1842
1011.47	58.4077
1013.12	59.0105
1014.78	58.7633
1016.43	57.5832
1018.08	54.6185
1019.74	53.0957
1021.39	52.3931
1023.04	50.4211
1024.69	47.8665
1026.34	45.689
1028	43.7217
1029.65	42.6422
1031.3	41.0967
1032.95	40.6246
1034.6	39.5696
1036.25	36.9198
1037.9	34.7695
1039.54	33.3189
1041.19	31.1403
1042.84	30.5844
1044.49	30.9801
1046.14	31.1055
1047.78	30.8418
1049.43	31.0888
1051.08	30.8521
1052.72	31.5894
1054.37	30.5957
1056.02	30.4974
1057.66	30.5732
1059.31	30.4456
1060.95	30.7489
1062.6	30.8524
1064.24	30.327
1065.88	29.8963
1067.53	28.8073
1069.17	29.1655
1070.81	29.8012
1072.45	30.1489
1074.1	30.4629
1075.74	30.0071
1077.38	30.3461
1079.02	30.1307
1080.66	30.3498
1082.3	30.0717
1083.94	30.4358
1085.58	29.6707
1087.22	30.5563
1088.86	30.2112
1090.5	29.4383
1092.14	29.6692
1093.78	30.4244
1095.42	30.462
1097.05	29.9016
1098.69	29.5962
1100.33	29.9376
1101.96	30.0416
1103.6	30.3289
1105.24	30.3143
1106.87	30.5642
1108.51	30.6494
1110.14	30.979
1111.78	31.7888
1113.41	30.2267
1115.05	28.5502
1116.68	27.4247
1118.31	25.8525
1119.95	24.1352
1121.58	23.184
1123.21	22.3655
1124.85	21.7662
1126.48	21.1975
1128.11	20.5134
1129.74	20.4644
1131.37	20.6965
1133	20.843
1134.63	20.7051
1136.26	19.4569
1137.89	19.1522
1139.52	18.2502
1141.15	17.6031
1142.78	17.3915
1144.41	16.2525
1146.04	15.5046
1147.66	16.0466
1149.29	15.989
1150.92	14.4994
1152.55	12.9459
1154.17	11.3291
1155.8	10.5796
1157.43	9.90062
1159.05	8.71606
1160.68	8.05166
1162.3	7.65705
1163.93	7.16126
1165.55	6.7342
1167.17	6.40834
1168.8	7.70982
1170.42	7.68384
1172.05	9.47546
1173.67	9.6962
1175.29	9.03075
1176.91	10.1804
1178.54	11.2845
1180.16	12.4986
1181.78	13.7628
1183.4	13.8594
1185.02	14.7577
1186.64	15.3312
1188.26	15.6757
1189.88	16.1828
1191.5	17.6439
1193.12	18.5305
1194.74	18.7924
1196.36	20.3956
1197.97	22.4667
1199.59	23.3088
1201.21	25.5218
1202.83	28.8811
1204.44	31.9482
1206.06	34.7639
1207.68	37.7235
1209.29	40.5344
1210.91	43.3835
1212.52	46.2574
1214.14	48.1548
1215.75	50.596
1217.37	51.561
1218.98	53.9903
1220.59	56.8328
1222.21	60.3581
1223.82	62.0901
1225.43	63.6035
1227.05	64.8019
1228.66	66.5554
1230.27	66.8446
1231.88	66.6158
1233.49	68.0924
1235.1	69.4969
1236.72	70.8235
1238.33	71.604
1239.94	72.2592
1241.55	73.5906
1243.16	74.3372
1244.76	75.7316
1246.37	76.3263
1247.98	76.9022
1249.59	76.6865
1251.2	76.514
1252.8	75.7939
1254.41	74.9522
1256.02	74.5741
1257.62	75.3063
1259.23	74.252
1260.84	72.9436
1262.44	72.1674
1264.05	71.2981
1265.66	71.4246
1267.26	70.5339
1268.86	70.9915
1270.47	71.3184
1272.07	72.7875
1273.67	73.0105
1275.28	73.4844
1276.88	74.5264
1278.48	75.2426
1280.09	75.4583
1281.69	77.0248
1283.29	78.2729
1284.89	78.7346
1286.49	79.2487
1288.09	79.9604
1289.69	79.7242
1291.29	81.1173
1292.89	82.0507
1294.49	82.8224
1296.09	84.6426
1297.69	84.9674
1299.29	86.27
1300.89	87.5084
1302.49	88.604
1304.08	89.5087
1305.68	89.9831
1307.28	91.1521
1308.88	93.1244
1310.47	93.6693
1312.07	95.4623
1313.66	98.1181
1315.26	99.6182
1316.85	100.976
1318.45	101.817
1320.04	102.605
1321.64	102.976
1323.23	103.225
1324.83	102.166
1326.42	101.763
1328.01	101.855
1329.61	101.411
1331.2	100.893
1332.79	100.009
1334.38	100.014
1335.97	98.7594
1337.56	98.1866
1339.16	96.7321
1340.75	95.2202
1342.34	95.0158
1343.93	94.5645
1345.52	93.9863
1347.11	92.809
1348.7	92.6352
1350.29	91.0224
1351.87	89.9618
1353.46	87.1327
1355.05	85.0016
1356.64	83.1087
1358.22	80.5163
1359.81	78.5055
1361.4	77.8767
1362.98	76.4587
1364.57	74.6968
1366.16	72.9917
1367.74	71.1515
1369.33	68.5104
1370.91	67.5565
1372.5	64.6069
1374.08	62.3664
1375.67	61.2662
1377.25	59.4559
1378.83	58.9902
1380.41	58.1561
1382	57.6319
1383.58	55.5644
1385.16	53.9905
1386.74	54.3237
1388.33	54.0142
1389.91	52.8702
1391.49	52.3893
1393.07	51.7285
1394.65	50.1999
1396.23	49.4599
1397.81	47.7013
1399.39	46.3304
1400.97	45.0855
1402.55	43.9839
1404.13	43.6753
1405.7	43.1712
1407.28	43.6509
1408.86	44.4323
1410.44	45.7846
1412.01	46.6896
1413.59	47.9752
1415.17	49.937
1416.74	53.112
1418.32	55.2971
1419.89	58.3374
1421.47	61.4371
1423.04	64.9223
1424.62	67.7115
1426.19	70.873
1427.77	74.1923
1429.34	77.8872
1430.91	82.2527
1432.49	85.3213
1434.06	89.6579
1435.63	94.1562
1437.2	97.701
1438.78	101.05
1440.35	104.275
1441.92	106.106
1443.49	108.4
1445.06	109.825
1446.63	111.099
1448.2	111.703
1449.77	112.576
1451.34	111.717
1452.91	112.322
1454.48	112.459
1456.05	110.519
1457.62	109.365
1459.18	106.456
1460.75	103.681
1462.32	99.8335
1463.89	97.1725
1465.45	94.2572
1467.02	89.7238
1468.59	84.9191
1470.15	80.6899
1471.72	75.7262
1473.28	70.9262
1474.85	66.8461
1476.41	61.3701
1477.98	56.9846
1479.54	52.2386
1481.1	47.9343
1482.67	44.0673
1484.23	39.8826
1485.79	37.9906
1487.36	33.9619
1488.92	30.6412
1490.48	27.7427
1492.04	26.2188
1493.61	25.0835
1495.17	23.2995
1496.73	20.5009
1498.29	20.1296
1499.85	19.498
1501.41	19.7614
1502.97	19.301
1504.53	19.402
1506.09	20.0698
1507.65	20.7226
1509.2	21.252
1510.76	21.0139
1512.32	22.236
1513.88	23.473
1515.43	23.7227
1516.99	23.869
1518.55	24.5098
1520.1	25.6519
1521.66	27.0086
1523.22	27.6421
1524.77	29.1726
1526.33	29.5008
1527.88	30.6803
1529.44	31.6965
1530.99	33.5941
1532.54	33.6887
1534.1	34.5396
1535.65	35.8869
1537.21	36.9781
1538.76	38.7785
1540.31	39.7161
1541.86	42.1341
1543.42	43.6155
1544.97	45.0377
1546.52	46.7146
1548.07	48.7509
1549.62	50.651
1551.17	53.5721
1552.72	55.9341
1554.27	56.6031
1555.82	58.7702
1557.37	59.5847
1558.92	61.251
1560.47	62.4991
1562.02	63.8054
1563.56	65.1609
1565.11	65.7228
1566.66	68.1975
1568.21	70.0718
1569.75	72.1671
1571.3	73.9965
1572.85	74.9462
1574.39	76.8368
1575.94	79.3069
1577.49	80.8909
1579.03	81.9265
1580.57	83.1852
1582.12	84.221
1583.66	85.3813
1585.21	86.8049
1586.75	87.3367
1588.3	88.3989
1589.84	88.6872
1591.38	88.6872
1592.92	89.3473
1594.47	88.994
1596.01	89.3581
1597.55	89.8509
1599.09	89.4221
1600.63	88.9088
1602.17	89.0836
1603.71	87.742
1605.25	87.2327
1606.79	86.7331
1608.33	86.5681
1609.87	85.3574
1611.41	86.0135
1612.95	84.4535
1614.49	84.2229
1616.03	83.4907
1617.57	82.965
1619.1	83.1674
1620.64	83.1103
1622.18	82.5782
1623.72	81.7288
1625.25	82.2564
1626.79	82.0145
1628.32	81.5019
1629.86	80.4601
1631.39	81.1085
1632.93	81.7641
1634.46	82.0923
1636	84.1701
1637.53	85.7038
1639.07	87.5964
1640.6	89.3078
1642.13	91.6274
1643.67	92.9286
1645.2	94.4389
1646.73	96.3484
1648.26	98.3472
1649.8	99.3197
1651.33	101.589
1652.86	102.809
1654.39	104.43
1655.92	104.937
1657.45	106.09
1658.98	106.295
1660.51	107.031
1662.04	107.122
1663.57	106.274
1665.1	105.991
1666.63	104.378
1668.16	103.116
1669.68	102.17
1671.21	99.4672
1672.74	97.3218
1674.27	94.5212
1675.79	91.981
1677.32	89.3355
1678.85	86.4078
1680.37	83.3501
1681.9	80.5747
1683.42	76.9935
1684.95	73.5408
1686.47	68.5487
1688	65.2266
1689.52	61.5224
1691.05	58.9457
1692.57	55.4269
1694.09	51.6451
1695.62	48.4363
1697.14	44.7776
1698.66	39.9207
1700.18	37.4856
1701.71	35.0023
1703.23	31.7544
1704.75	29.5563
1706.27	27.8515
1707.79	27.7517
1709.31	25.1443
1710.83	23.7919
1712.35	22.4743
1713.87	20.8193
1715.39	19.1364
1716.91	18.1443
1718.43	17.196
1719.95	15.8164
1721.47	15.5309
1722.99	15.4126
1724.5	15.186
1726.02	14.6
1727.54	14.2176
1729.06	13.1584
1730.57	12.8767
1732.09	11.8429
1733.61	12.0463
1735.12	11.1859
1736.64	10.6831
1738.15	10.1905
1739.67	9.99145
1741.18	9.15178
1742.7	8.08332
1744.21	7.85781
1745.72	7.83731
1747.24	7.10837
1748.75	6.66517
1750.26	6.60164
1751.77	6.85483
1753.29	7.00304
1754.8	6.97566
1756.31	7.27385
1757.82	6.79644
1759.33	6.40704
1760.84	6.24136
1762.36	5.86841
1763.87	6.60426
1765.38	6.81264
1766.89	6.25518
1768.4	5.80705
1769.91	5.40046
1771.41	4.9857
1772.92	4.18418
1774.43	4.27452
1775.94	4.47965
1777.45	4.53806
1778.95	4.96404
1780.46	5.24374
1781.97	5.27725
1783.48	5.22864
1784.98	4.27946
1786.49	4.41923
1787.99	4.51323
1789.5	4.40699
1791.01	4.25306
1792.51	5.05962
1794.01	4.51138
1795.52	4.37349
1797.02	4.1891
1798.53	4.40922
1800.03	3.89943
1801.53	3.571
1803.04	3.13348
1804.54	3.41808
1806.04	3.67107
1807.54	3.60288
1809.05	3.75252
1810.55	3.20276
1812.05	3.09147
1813.55	2.99498
1815.05	3.04966
1816.55	3.05719
1818.05	3.70453
1819.55	4.19702
1821.05	3.82973
1822.55	3.71788
1824.05	3.59229
1825.55	3.70887
1827.05	4.06903
1828.55	3.87772
1830.04	3.52542
1831.54	3.31421
1833.04	2.83349
1834.54	2.61152
1836.03	2.17751
1837.53	1.84942
1839.03	1.45114
1840.52	1.07331
1842.02	1.0096
1843.51	0.742092
1845.01	0.829388
1846.5	1.17691
1848	1.98556
1849.49	2.19265
1850.99	2.3094
1852.48	2.14329
1853.97	1.32691
1855.47	0.514741
1856.96	0.00346333
1858.45	-0.382882
1859.94	-0.661712
1861.44	-1.11493
1862.93	-1.77637
1864.42	-2.20606
1865.91	-1.67564
1867.4	-0.910787
1868.89	-1.29336
1870.38	-1.13904
1871.87	-0.889201
1873.36	-0.538337
1874.85	-1.18547
1876.34	-0.97479
1877.83	-0.341081
1879.32	0.628204
1880.81	1.31473
1882.3	1.61682
1882.57	2.15506
1884.07	2.96387
1885.56	3.59422
1887.06	4.41623
1888.55	5.63798
1890.04	6.35356
1891.54	7.15141
1893.03	7.93352
1894.52	7.92614
1896.02	8.31585
1897.51	8.9494
1899	9.88099
1900.49	10.2976
1901.98	11.1708
1903.47	11.7276
1904.96	11.9333
1906.45	11.7355
1907.94	12.0024
1909.43	11.5759
1910.92	11.4276
1912.41	11.6095
1913.9	12.4064
1915.39	11.8521
1916.88	11.8977
1918.37	12.1092
1919.85	11.3508
1921.34	11.0719
1922.83	9.8425
1924.32	9.07235
1925.8	7.99158
1927.29	7.58601
1928.78	7.29792
1930.26	7.14959
1931.75	6.05705
1933.23	5.11764
1934.72	4.54258
1936.2	4.3537
1937.69	4.42186
1939.17	4.53793
1940.66	3.93715
1942.14	3.25713
1943.63	3.303
1945.11	2.93763
1946.59	2.80281
1948.07	2.81098
1949.56	3.77981
1951.04	4.53548
1952.52	4.01316
1954	3.9047
1955.48	4.05916
1956.96	4.4546
1958.45	4.60878
1959.93	4.94288
1961.41	5.81957
1962.89	6.1456
1964.37	6.51673
1965.85	7.05497
1967.32	7.04957
1968.8	7.5858
1970.28	9.20992
1971.76	9.75749
1973.24	9.7463
1974.72	9.86959
1976.19	10.2137
1977.67	9.81667
1979.15	9.75051
1980.63	9.50942
1982.1	9.59677
1983.58	9.9689
1985.05	10.4574
1986.53	10.6528
1988	10.7744
1989.48	11.1642
1990.95	12.2327
1992.43	11.9419
1993.9	11.8794
1995.38	12.4001
1996.85	12.5919
1998.32	13.1038
1999.8	13.5343
2001.27	13.8426
2002.74	14.1656
2004.22	14.3846
2005.69	14.6188
2007.16	15.2403
2008.63	16.0005
2010.1	16.48
2011.57	17.0065
2013.04	17.1275
2014.51	17.4973
2015.98	18.1525
2017.45	18.7474
2018.92	18.784
2020.39	19.7989
2021.86	19.7456
2023.33	19.6126
2024.8	19.8556
2026.27	19.5249
2027.74	20.533
2029.2	20.7419
2030.67	21.1932
2032.14	21.0281
2033.61	21.3186
2035.07	21.6725
2036.54	21.5124
2038.01	21.861
2039.47	22.8784
2040.94	23.1687
2042.4	23.4214
2043.87	23.4001
2045.33	22.5323
2046.8	22.6876
2048.26	23.1928
2049.72	22.8735
2051.19	22.7509
2052.65	22.1829
2054.12	22.0533
2055.58	22.0029
2057.04	22.1731
2058.5	21.2249
2059.97	21.4131
2061.43	21.5756
2062.89	21.5388
2064.35	21.1709
2065.81	21.0369
2067.27	21.5361
2068.73	21.5803
2070.19	21.9923
2071.65	21.8491
2073.11	22.1231
2074.57	22.403
2076.03	22.5202
2077.49	22.8991
2078.95	23.0757
2080.41	22.3073
2081.87	22.7781
2083.32	23.0519
2084.78	22.9877
2086.24	22.927
2087.7	23.3444
2089.15	23.675
2090.61	23.7901
2092.07	24.0941
2093.52	23.6931
2094.98	22.7985
2096.43	23.1479
2097.89	22.9328
2099.34	22.3664
2100.8	22.6906
2102.25	22.1908
2103.71	22.5953
2105.16	22.5158
2106.61	22.9966
2108.07	23.3808
2109.52	24.0185
2110.97	25.0683
2112.43	25.6877
2113.88	26.0374
2115.33	25.4406
2116.78	26.3966
2118.23	26.903
2119.68	27.1087
2121.13	27.4005
2122.59	27.4718
2124.04	28.2435
2125.49	28.7494
2126.94	29.7496
2128.39	30.1831
2129.83	31.2884
2131.28	31.5562
2132.73	32.6878
