#Acq. time (s)=	45
#Accumulations=	2
#Range (cm-¹)=	200...3150
#Windows=	2
#Auto scanning=	Off
#Autofocus=	Off
#Macrospot=	Off
#AutoExposure=	Off
#Spike filter=	Multiple accum.
#Delay time (s)=	0
#Binning=	1
#Readout mode=	Signal
#DeNoise=	Off
#ICS correction=	On
#Dark correction=	Off
#Inst. Process=	Off
#Detector Gain=	Best Dynamic Range
#Detector ADC=	20 kHz       
#Detector temperature (°C)=	-69.85
#Instrument=	LabRAM HR Evol
#Detector=	Synapse
#Objective=	x100
#Grating=	600 gr/mm
#ND Filter=	100%
#Laser (nm)=	532 
#Hole=	100.021
#Range=	Auto
#Laser Pol.=	No
#Raman. Pol.=	No
#Laser Pol. (°)=	-0.0007625
#Raman Pol. (°)=	89.9995
#Collection=	Microscope
#StageXY=	Marzhauser
#StageZ=	Marzhauser
#X (µm)=	-5107.7
#Y (µm)=	1504.9
#Z (µm)=	63.1
#Full time(mm:ss)=	3:19
#Project=	
#Sample=	
#Site=	
#Title=	Thy_50_12_09_2x_45s_532 nm_x100_100%_600 gr_mm
#Remark=	
#Date=	07.07.2022 09:53
#Acquired=	07.07.2022 09:53:02
#Base:Fit=	10.08.2022 10:03:08
#Base:Fit=	10.08.2022 10:03:15
#Base:Fit=	10.08.2022 10:03:19
#Base:Fit=	10.08.2022 10:04:29
#Base:Sub=	10.08.2022 10:04:45
#Filter:Polynom=	16.08.2022 10:20:24
#AxisType[0]=Intens
#AxisUnit[0]=Cnt
#AxisType[1]=Spectr
#AxisUnit[1]=1/cm
200.43	22.3528
202.246	21.407
204.061	20.7585
205.875	21.0955
207.688	20.0742
209.501	19.2208
211.316	18.0712
213.129	17.2225
214.941	16.6263
216.753	15.6949
218.566	14.0164
220.377	12.9079
222.188	12.935
223.999	11.4719
225.809	11.3842
227.618	10.4055
229.43	10.8568
231.239	10.9616
233.047	9.94487
234.855	9.2441
236.663	8.18409
238.471	8.09347
240.278	8.41758
242.087	8.03647
243.894	9.2242
245.7	9.35878
247.506	8.66448
249.311	8.53259
251.116	8.13728
252.921	9.04363
254.725	9.77483
256.529	10.3411
258.333	10.731
260.136	10.5863
261.939	11.3232
263.744	10.633
265.546	11.3688
267.348	11.1817
269.15	12.7557
270.951	13.9213
272.752	16.1677
274.552	15.8262
276.353	17.9086
278.152	17.4979
279.952	17.4624
281.751	18.6038
283.55	19.38
285.348	18.9777
287.146	19.0436
288.942	19.1773
290.739	18.7936
292.536	20.1976
294.333	20.779
296.129	20.747
297.925	21.9763
299.721	22.3924
301.516	21.2454
303.311	21.9168
305.106	21.5846
306.9	20.7477
308.694	20.0385
310.486	19.6761
312.279	18.9736
314.072	18.0681
315.864	18.7514
317.656	18.2501
319.448	18.2029
321.24	17.468
323.029	16.8086
324.819	16.7916
326.61	16.5387
328.4	17.5252
330.19	18.1787
331.977	18.4767
333.766	19.4031
335.555	18.0827
337.343	17.6456
339.131	17.6417
340.917	17.8871
342.704	18.4979
344.491	18.1176
346.277	17.1987
348.062	17.6035
349.848	17.9874
351.633	18.8055
353.416	18.4957
355.201	18.8514
356.986	18.7933
358.77	18.422
360.552	16.5712
362.335	15.2846
364.118	13.9312
365.899	14.9372
367.682	13.8912
369.464	14.4739
371.243	14.9535
373.025	14.252
374.806	13.2198
376.585	12.6022
378.365	11.9183
380.143	11.9453
381.923	11.8862
383.702	11.1858
385.479	9.76763
387.258	9.46844
389.034	8.38398
390.812	7.09004
392.59	7.14835
394.365	5.93993
396.142	5.52972
397.916	5.81415
399.693	5.63533
401.467	5.2826
403.242	5.51804
405.015	6.09304
406.79	5.43473
408.565	5.08443
410.337	5.44344
412.111	5.96563
413.882	6.50286
415.656	7.2099
417.426	8.95998
419.197	8.93262
420.969	9.23922
422.739	9.07633
424.51	7.98824
426.279	8.86091
428.05	9.91071
429.819	10.8973
431.589	11.0641
433.356	10.2085
435.124	10.4152
436.893	11.3166
438.66	11.5805
440.428	11.2519
442.194	10.725
443.96	9.79017
445.727	10.3511
447.492	10.2519
449.259	10.4321
451.023	10.2118
452.787	11.7932
454.553	12.281
456.316	12.8643
458.079	13.6904
459.844	13.882
461.606	14.931
463.368	15.2874
465.132	15.0163
466.893	16.1017
468.654	17.0504
470.415	16.9854
472.177	18.1033
473.937	19.3061
475.696	20.3279
477.456	20.3777
479.217	20.4891
480.975	21.1507
482.733	21.6641
484.491	22.5833
486.251	22.6352
488.008	22.7808
489.765	23.2665
491.522	23.961
493.278	24.5053
495.036	24.4726
496.791	25.1435
498.546	26.9712
500.301	27.9218
502.056	29.1363
503.81	29.7528
505.566	29.9209
507.319	28.4857
509.073	29.2055
510.825	28.9971
512.578	29.0218
514.33	29.2139
516.082	29.2319
517.833	28.1419
519.587	27.8248
521.337	27.444
523.088	27.9421
524.838	28.3043
526.588	27.2257
528.337	26.8322
530.087	26.1282
531.835	25.9878
533.584	26.1191
535.332	24.7594
537.08	23.2811
538.827	22.967
540.574	23.8932
542.321	23.2207
544.068	23.6687
545.814	23.2489
547.56	22.5611
549.305	22.6593
551.05	22.6092
552.795	22.5001
554.54	23.26
556.284	23.2112
558.027	23.1516
559.771	23.0046
561.514	21.4703
563.257	20.5209
564.999	19.6483
566.742	18.5917
568.481	18.9818
570.223	18.5931
571.964	17.8311
573.705	17.5657
575.445	17.0476
577.185	16.0796
578.925	15.2588
580.665	15.1745
582.402	15.9432
584.141	16.648
585.879	16.7625
587.617	15.4428
589.355	15.9732
591.092	15.1894
592.828	15.1276
594.564	14.0599
596.301	14.3035
598.037	13.5917
599.773	13.3288
601.506	12.6487
603.242	14.2318
604.976	13.6874
606.711	13.358
608.443	12.5743
610.177	11.0026
611.91	11.4886
613.644	10.8579
615.374	11.171
617.107	11.036
618.839	11.4563
620.569	11.3199
622.3	12.4719
624.032	13.5105
625.761	14.9581
627.491	16.3339
629.221	18.1697
630.949	20.0479
632.679	21.7176
634.408	23.0668
636.135	24.5012
637.863	25.4855
639.592	25.789
641.318	26.477
643.045	27.5018
644.77	28.2628
646.497	27.4558
648.224	27.9459
649.948	29.0458
651.674	29.2495
653.398	30.0447
655.123	30.5138
656.846	30.2323
658.57	30.5309
660.293	31.3553
662.017	30.5973
663.738	31.16
665.462	31.6007
667.185	32.1383
668.905	32.8107
670.628	33.1309
672.348	32.7358
674.067	33.9167
675.789	34.3905
677.508	33.3295
679.228	33.0987
680.947	31.7769
682.667	31.705
684.385	32.5967
686.104	33.7391
687.821	34.0019
689.538	35.334
691.256	34.2958
692.972	34.7496
694.69	35.5905
696.406	35.4156
698.121	37.8171
699.837	36.9464
701.552	37.6345
703.268	38.4285
704.982	39.0365
706.695	40.4773
708.41	42.2438
710.123	43.4871
711.836	44.9721
713.55	46.5573
715.262	47.5732
716.973	49.3405
718.685	50.0081
720.398	51.8034
722.108	52.5535
723.818	54.0093
725.53	55.5219
727.24	56.2745
728.949	58.0527
730.658	58.466
732.369	58.5244
734.077	58.8861
735.785	61.0806
737.493	62.0887
739.2	62.5882
740.909	62.3538
742.616	62.9381
744.322	64.8142
746.028	65.4784
747.734	66.5432
749.441	67.8576
751.146	68.9071
752.851	69.9955
754.555	70.8295
756.26	72.753
757.963	72.7492
759.667	73.9122
761.372	73.7871
763.075	75.1636
764.777	77.0064
766.479	77.3431
768.181	78.8826
769.883	80.5883
771.584	80.984
773.285	80.5628
774.986	81.5468
776.686	82.0428
778.386	82.1093
780.085	82.8129
781.785	83.0027
783.484	84.7995
785.182	84.9261
786.881	86.3754
788.579	87.4784
790.276	88.7455
791.974	90.1911
793.671	91.1181
795.367	90.6941
797.064	90.6902
798.76	91.1384
800.456	92.3805
802.151	93.3233
803.846	93.6188
805.541	94.6331
807.236	93.9977
808.93	94.6831
810.624	94.0064
812.317	93.9267
814.01	94.4269
815.703	93.8343
817.394	94.1915
819.086	94.32
820.778	95.848
822.47	94.949
824.161	93.5302
825.852	92.4339
827.543	92.4455
829.231	92.804
830.921	90.8341
832.611	90.7856
834.3	89.6765
835.989	88.1461
837.676	86.9733
839.364	85.8367
841.053	85.12
842.74	83.444
844.426	83.3562
846.113	82.2661
847.8	80.5179
849.486	79.1484
851.171	77.9143
852.857	77.0873
854.542	75.6098
856.227	74.1326
857.911	73.0877
859.595	72.3244
861.279	70.8905
862.961	69.1813
864.645	68.6296
866.329	67.4989
868.01	66.6729
869.692	64.7946
871.375	63.7648
873.055	62.4094
874.737	60.5097
876.418	59.027
878.097	58.0831
879.778	56.9274
881.457	57.6051
883.137	57.572
884.817	56.9166
886.495	56.618
888.174	57.1458
889.851	56.3419
891.53	55.4201
893.206	55.6573
894.884	54.9785
896.562	55.6716
898.237	55.7704
899.914	56.0533
901.589	56.3157
903.265	55.8891
904.94	55.3472
906.615	54.9016
908.289	54.1689
909.964	53.447
911.637	53.7556
913.31	53.9804
914.984	52.8952
916.656	52.9128
918.33	52.0475
920.001	51.3303
921.674	51.2629
923.345	51.2151
925.015	51.6415
926.687	52.0256
928.357	51.7444
930.028	51.35
931.698	51.0807
933.366	51.9035
935.037	51.4913
936.705	50.8467
938.373	50.2269
940.043	49.2182
941.71	48.8189
943.379	47.4939
945.046	47.167
946.712	46.7429
948.378	46.0363
950.046	45.9379
951.711	45.4049
953.376	44.9205
955.043	45.2869
956.708	44.2366
958.372	43.4175
960.036	43.6109
961.701	43.0251
963.364	43.0975
965.027	42.6331
966.69	41.6744
968.354	40.7945
970.016	40.7742
971.678	40.1869
973.339	39.3356
975	39.0748
976.661	39.4376
978.324	39.4484
979.984	38.9351
981.644	37.7514
983.303	37.0369
984.962	36.4098
986.621	35.6043
988.282	35.2158
989.94	34.0066
991.598	33.4852
993.256	31.8303
994.913	32.19
996.57	31.3043
998.227	30.3462
999.884	30.5463
1001.54	29.6766
1003.2	29.8282
1004.85	29.1658
1006.51	29.3706
1008.16	29.5997
1009.82	29.4748
1011.47	29.7889
1013.12	30.2595
1014.78	31.4856
1016.43	32.8055
1018.08	32.7643
1019.74	32.7484
1021.39	33.2184
1023.04	33.7715
1024.69	34.0765
1026.34	34.7908
1028	35.298
1029.65	35.955
1031.3	36.4295
1032.95	37.7858
1034.6	37.7832
1036.25	38.3425
1037.9	38.6027
1039.55	37.832
1041.19	37.806
1042.84	37.8689
1044.49	37.7373
1046.14	38.1531
1047.79	36.8154
1049.43	36.904
1051.08	36.45
1052.73	37.0716
1054.37	36.6357
1056.02	36.0699
1057.66	35.5361
1059.31	34.9185
1060.95	34.2771
1062.6	32.7951
1064.24	32.0691
1065.88	30.9089
1067.53	29.9358
1069.17	28.2228
1070.81	27.1176
1072.46	25.8303
1074.1	25.7422
1075.74	23.4198
1077.38	23.1008
1079.02	21.172
1080.66	20.1237
1082.3	19.1133
1083.94	17.8295
1085.58	17.1058
1087.22	15.9551
1088.86	14.9561
1090.5	14.0638
1092.14	14.0029
1093.78	14.8642
1095.42	15.0435
1097.05	16.4926
1098.69	16.5083
1100.33	15.8559
1101.97	15.7673
1103.6	16.833
1105.24	17.2805
1106.87	16.4749
1108.51	17.5691
1110.15	17.6182
1111.78	19.0269
1113.41	19.7472
1115.05	19.4587
1116.68	18.4718
1118.31	18.1007
1119.95	17.2859
1121.58	17.1759
1123.21	16.6099
1124.85	16.6398
1126.48	16.2628
1128.11	15.7893
1129.74	16.0876
1131.37	16.5146
1133	15.7268
1134.63	15.8981
1136.26	14.5989
1137.89	14.7461
1139.52	15.1162
1141.15	14.419
1142.78	13.7914
1144.41	12.7607
1146.04	12.6361
1147.66	11.2551
1149.29	11.2924
1150.92	10.0697
1152.55	9.45202
1154.17	8.90177
1155.8	7.16814
1157.43	5.67108
1159.05	5.54161
1160.68	4.84634
1162.3	4.56965
1163.93	4.29093
1165.55	3.6241
1167.17	2.43556
1168.8	2.97988
1170.42	2.85003
1172.05	3.34643
1173.67	4.67861
1175.29	5.55998
1176.91	5.67959
1178.54	6.37259
1180.16	6.47821
1181.78	7.02298
1183.4	7.88138
1185.02	7.59801
1186.64	8.36777
1188.26	8.62073
1189.88	10.1051
1191.5	10.5523
1193.12	10.6928
1194.74	10.1594
1196.36	9.19169
1197.97	9.1067
1199.59	8.96505
1201.21	9.52686
1202.83	10.4233
1204.44	9.99981
1206.06	11.0735
1207.68	11.0011
1209.29	11.2627
1210.91	12.3829
1212.52	12.5513
1214.14	12.6353
1215.75	14.062
1217.37	14.6416
1218.98	15.8419
1220.6	17.0614
1222.21	17.5348
1223.82	18.3113
1225.44	20.0669
1227.05	21.1241
1228.66	20.5284
1230.27	21.4963
1231.88	21.4088
1233.49	21.9893
1235.1	23.2543
1236.72	23.5134
1238.33	25.5946
1239.94	26.7004
1241.55	27.4493
1243.16	27.8487
1244.76	29.1058
1246.37	30.0422
1247.98	31.1494
1249.59	33.0198
1251.2	33.2151
1252.8	33.9919
1254.41	34.3956
1256.02	35.8266
1257.63	36.7983
1259.23	38.1595
1260.84	39.0459
1262.44	41.0181
1264.05	42.2387
1265.66	42.1076
1267.26	45.0155
1268.87	46.2497
1270.47	47.0565
1272.07	47.4396
1273.68	47.5276
1275.28	48.3402
1276.88	49.0344
1278.48	49.1659
1280.09	50.0452
1281.69	51.623
1283.29	53.4298
1284.89	53.4659
1286.49	54.2723
1288.09	54.7997
1289.69	55.9742
1291.3	56.6126
1292.9	56.797
1294.49	57.2345
1296.09	57.7389
1297.69	56.9854
1299.29	56.9404
1300.89	56.9864
1302.49	56.5164
1304.09	56.6929
1305.68	56.5673
1307.28	55.5215
1308.88	53.8325
1310.47	52.9115
1312.07	52.0665
1313.66	51.4953
1315.26	51.5582
1316.86	51.1034
1318.45	50.4119
1320.05	49.4123
1321.64	48.8622
1323.23	48.2497
1324.83	47.8689
1326.42	46.7699
1328.01	45.7196
1329.61	44.5626
1331.2	42.6632
1332.79	41.5324
1334.38	40.8184
1335.98	41.2122
1337.57	40.2496
1339.16	39.1833
1340.75	38.4989
1342.34	38.7363
1343.93	36.899
1345.52	36.2725
1347.11	36.784
1348.7	35.7152
1350.29	34.8764
1351.87	34.0686
1353.46	34.156
1355.05	34.5413
1356.64	34.1775
1358.23	33.5473
1359.81	35.0174
1361.4	34.9083
1362.99	34.0296
1364.57	33.2348
1366.16	33.8292
1367.74	34.0877
1369.33	33.238
1370.91	32.0449
1372.5	31.7993
1374.08	31.0795
1375.67	30.8918
1377.25	30.9559
1378.83	31.4096
1380.42	31.7714
1382	32.1814
1383.58	32.8269
1385.16	32.2965
1386.75	32.687
1388.33	31.8658
1389.91	31.7663
1391.49	32.0902
1393.07	32.4954
1394.65	33.5479
1396.23	32.8436
1397.81	33.0567
1399.39	33.579
1400.97	32.686
1402.55	33.589
1404.13	33.8835
1405.7	34.5304
1407.28	34.5645
1408.86	35.0725
1410.44	35.1132
1412.01	36.6013
1413.59	37.7669
1415.17	38.481
1416.74	39.1545
1418.32	39.5361
1419.89	40.7425
1421.47	42.0986
1423.05	43.0197
1424.62	45.2083
1426.19	47.3599
1427.77	49.0084
1429.34	50.7331
1430.92	52.3396
1432.49	54.2428
1434.06	56.3772
1435.63	57.9618
1437.2	60.1371
1438.78	62.1432
1440.35	62.4107
1441.92	63.8028
1443.49	65.4235
1445.06	65.8585
1446.63	66.1667
1448.2	66.1997
1449.77	66.77
1451.34	66.7129
1452.91	67.0806
1454.48	67.444
1456.05	65.8771
1457.62	63.9759
1459.18	63.7243
1460.75	62.6053
1462.32	60.6339
1463.89	57.8818
1465.45	55.3525
1467.02	52.9633
1468.59	50.2315
1470.15	48.1604
1471.72	45.5063
1473.28	42.2675
1474.85	39.1936
1476.41	37.5653
1477.98	34.4659
1479.54	32.6838
1481.11	31.1578
1482.67	27.9786
1484.23	25.7711
1485.8	22.7237
1487.36	20.608
1488.92	18.8067
1490.48	17.3219
1492.05	15.1444
1493.61	13.1161
1495.17	12.0504
1496.73	10.5889
1498.29	10.2034
1499.85	9.9212
1501.41	9.66101
1502.97	9.84102
1504.53	10.6901
1506.09	9.81156
1507.65	9.45679
1509.2	9.46769
1510.76	10.3502
1512.32	11.0367
1513.88	11.0726
1515.44	12.2121
1516.99	12.4763
1518.55	13.5191
1520.1	14.1168
1521.66	14.8797
1523.22	15.8333
1524.77	16.6377
1526.33	16.4874
1527.88	17.4043
1529.44	17.8748
1530.99	19.3473
1532.55	19.3683
1534.1	19.1705
1535.65	20.8918
1537.21	22.7041
1538.76	23.4029
1540.31	23.7667
1541.86	25.2109
1543.42	27.4476
1544.97	29.1214
1546.52	30.1238
1548.07	31.6457
1549.62	32.8567
1551.17	34.5827
1552.72	37.0184
1554.27	39.2993
1555.82	40.6012
1557.37	42.26
1558.92	42.9121
1560.47	44.1922
1562.02	45.9005
1563.57	46.8258
1565.11	49.1265
1566.66	50.4035
1568.21	51.1695
1569.75	52.102
1571.3	53.1858
1572.85	53.9669
1574.39	54.4676
1575.94	54.9
1577.49	55.3755
1579.03	55.7793
1580.58	55.584
1582.12	55.6646
1583.67	54.1763
1585.21	53.8834
1586.75	53.1233
1588.3	52.3573
1589.84	52.1731
1591.38	51.8257
1592.93	51.7658
1594.47	50.3934
1596.01	49.1796
1597.55	48.1074
1599.09	48.1368
1600.63	47.1218
1602.18	45.8612
1603.72	45.0385
1605.26	45.4151
1606.8	44.9035
1608.34	45.0623
1609.87	44.4765
1611.41	44.4327
1612.95	45.2624
1614.49	44.2575
1616.03	44.562
1617.57	44.0164
1619.11	44.8746
1620.64	44.9124
1622.18	43.9016
1623.72	43.7738
1625.25	44.2269
1626.79	44.8084
1628.32	45.064
1629.86	46.0211
1631.4	47.3026
1632.93	48.0238
1634.47	49.0636
1636	51.0454
1637.53	52.498
1639.07	53.5518
1640.6	54.3782
1642.14	55.8025
1643.67	55.6563
1645.2	55.759
1646.73	56.1765
1648.27	56.797
1649.8	57.1396
1651.33	57.0825
1652.86	56.4846
1654.39	56.7699
1655.92	56.234
1657.45	55.7712
1658.98	54.6665
1660.51	53.2089
1662.04	53.2323
1663.57	52.7199
1665.1	51.7167
1666.63	51.9108
1668.16	50.0909
1669.69	48.3746
1671.21	47.0819
1672.74	46.8767
1674.27	46.2768
1675.79	45.7376
1677.32	43.7777
1678.85	43.1523
1680.37	42.1682
1681.9	41.2706
1683.42	39.628
1684.95	37.5802
1686.47	34.5506
1688	31.8474
1689.52	30.3755
1691.05	27.5873
1692.57	26.6611
1694.1	24.1777
1695.62	22.5439
1697.14	20.8949
1698.66	18.8327
1700.19	18.7276
1701.71	17.8736
1703.23	16.1904
1704.75	14.9206
1706.27	14.3608
1707.79	14.4845
1709.32	13.9557
1710.83	13.1316
1712.35	12.7854
1713.88	11.292
1715.39	9.91916
1716.91	9.50198
1718.43	8.52357
1719.95	8.11468
1721.47	7.67037
1722.99	7.67291
1724.5	7.54323
1726.02	6.69926
1727.54	5.23932
1729.06	5.03508
1730.57	5.26362
1732.09	4.98082
1733.61	4.90252
1735.12	4.51608
1736.64	4.76861
1738.15	4.66449
1739.67	4.51038
1741.18	3.76879
1742.7	4.18443
1744.21	3.32151
1745.72	3.83601
1747.24	3.9091
1748.75	4.59904
1750.26	4.68335
1751.78	4.71875
1753.29	4.55767
1754.8	5.04541
1756.31	4.27589
1757.82	3.62441
1759.34	3.14445
1760.85	2.87323
1762.36	2.94472
1763.87	3.66566
1765.38	3.71775
1766.89	3.44744
1768.4	3.66898
1769.91	3.13728
1771.41	3.29883
1772.92	3.51036
1774.43	2.97395
1775.94	3.03684
1777.45	2.04992
1778.96	1.66792
1780.46	1.309
1781.97	1.80366
1783.48	2.0149
1784.98	1.73818
1786.49	1.43206
1788	1.68848
1789.5	1.4929
1791.01	1.37137
1792.51	1.62636
1794.01	0.956362
1795.52	1.17785
1797.02	0.49721
1798.53	1.35577
1800.03	1.28008
1801.54	0.70881
1803.04	0.735504
1804.54	1.43946
1806.04	1.51214
1807.54	1.13603
1809.05	1.02904
1810.55	1.0917
1812.05	0.73175
1813.55	0.41113
1815.05	0.750201
1816.55	0.177129
1818.05	-0.256368
1819.55	-0.255933
1821.05	-0.081039
1822.55	-0.26877
1824.05	1.08646
1825.55	0.825949
1827.05	0.348036
1828.55	0.885865
1830.04	1.17476
1831.54	0.831872
1833.04	0.760377
1834.54	1.03624
1836.03	1.03126
1837.53	1.09622
1839.03	0.938537
1840.52	0.547819
1842.02	0.938773
1843.51	1.1937
1845.01	1.61454
1846.5	2.05014
1848	2.20239
1849.49	1.91241
1850.99	1.82454
1852.48	2.25619
1853.97	3.12512
1855.47	3.76463
1856.96	4.17451
1858.45	4.59246
1859.94	4.14543
1861.44	3.70884
1862.93	3.87509
1864.42	3.81658
1865.91	3.6971
1867.4	3.87088
1868.89	4.26037
1870.38	5.20333
1871.87	5.10895
1873.36	5.69392
1874.85	5.30214
1876.34	5.81962
1877.83	6.45178
1879.32	6.35958
1880.81	6.77011
1882.3	7.2063
1882.56	7.62139
1884.06	7.96144
1885.55	7.7775
1887.04	7.59354
1888.54	7.69899
1890.03	7.66754
1891.52	8.18775
1893.02	9.01483
1894.51	8.57625
1896	8.86341
1897.49	9.99627
1898.99	10.0083
1900.48	9.72551
1901.97	10.3501
1903.46	10.0022
1904.95	8.98274
1906.44	8.20729
1907.93	8.38247
1909.42	8.16718
1910.91	8.14843
1912.4	8.49395
1913.89	8.38797
1915.38	8.97956
1916.86	8.87962
1918.35	9.20518
1919.84	8.94751
1921.33	9.16818
1922.82	9.44803
1924.3	10.182
1925.79	10.1158
1927.28	10.1995
1928.76	9.7165
1930.25	8.42947
1931.74	8.01937
1933.22	6.68706
1934.71	6.3577
1936.19	6.00443
1937.67	5.78278
1939.16	5.05624
1940.64	5.02687
1942.13	5.00039
1943.61	4.74397
1945.09	4.55999
1946.58	4.54019
1948.06	4.55925
1949.54	4.90984
1951.03	4.73595
1952.51	3.84556
1953.99	3.68276
1955.47	3.78541
1956.95	3.46797
1958.43	3.97978
1959.91	3.92517
1961.39	4.1598
1962.87	4.88006
1964.35	5.44474
1965.83	5.46193
1967.31	5.43663
1968.79	4.95495
1970.27	5.05859
1971.75	5.47796
1973.22	4.90908
1974.7	4.18357
1976.18	4.19724
1977.66	3.78346
1979.13	3.48967
1980.61	4.25444
1982.09	4.81554
1983.56	5.32363
1985.04	5.77095
1986.52	6.35169
1987.99	6.46499
1989.47	7.61893
1990.94	8.02393
1992.41	8.18214
1993.89	8.31973
1995.36	8.42633
1996.84	8.46201
1998.31	8.22277
1999.78	7.6646
2001.26	7.89718
2002.73	7.67724
2004.2	6.61965
2005.67	7.03628
2007.15	6.42879
2008.62	6.1154
2010.09	6.17028
2011.56	6.73279
2013.03	7.38199
2014.5	7.85256
2015.97	7.97538
2017.44	8.20967
2018.91	7.63955
2020.38	8.046
2021.85	8.50126
2023.32	8.65975
2024.79	8.49806
2026.25	8.32566
2027.72	8.95087
2029.19	9.94957
2030.66	10.5649
2032.13	11.3232
2033.59	11.3135
2035.06	11.3422
2036.53	11.223
2037.99	10.9117
2039.46	10.2089
2040.92	10.2319
2042.39	10.1757
2043.85	10.329
2045.32	10.8986
2046.78	11.001
2048.25	10.3709
2049.71	10.6487
2051.18	11.1266
2052.64	11.0166
2054.1	11.4251
2055.56	10.924
2057.03	11.2316
2058.49	11.1751
2059.95	12.1245
2061.42	12.3082
2062.88	12.5491
2064.34	12.4246
2065.8	12.4287
2067.26	13.2808
2068.72	13.6847
2070.18	14.9508
2071.64	16.2583
2073.1	16.9137
2074.56	17.6344
2076.02	18.3688
2077.48	18.7728
2078.94	19.8528
2080.39	20.611
2081.85	21.7303
2083.31	23.0697
2084.77	23.9496
2086.22	24.6622
2087.68	25.1889
2089.14	26.5532
2090.6	27.3465
2092.05	28.2263
2093.51	29.8864
2094.96	30.1903
2096.42	30.8794
2097.87	32.0458
2099.33	33.4214
2100.78	34.4908
2102.24	35.78
2103.69	36.8889
2105.15	37.5082
2106.6	38.5173
2108.05	38.4926
2109.51	39.2867
2110.96	40.2809
2112.41	40.9931
2113.86	41.452
2115.32	42.1877
2116.77	43.2535
2118.22	44.2103
2119.67	44.3536
2121.12	44.6727
2122.57	45.5246
2124.02	45.9651
2125.47	45.9027
2126.92	47.0227
