#Acq. time (s)=	45
#Accumulations=	2
#Range (cm-¹)=	200...3150
#Windows=	2
#Auto scanning=	Off
#Autofocus=	Off
#Macrospot=	Off
#AutoExposure=	Off
#Spike filter=	Multiple accum.
#Delay time (s)=	0
#Binning=	1
#Readout mode=	Signal
#DeNoise=	Off
#ICS correction=	On
#Dark correction=	Off
#Inst. Process=	Off
#Detector Gain=	Best Dynamic Range
#Detector ADC=	20 kHz       
#Detector temperature (°C)=	-69.85
#Instrument=	LabRAM HR Evol
#Detector=	Synapse
#Objective=	x100
#Grating=	600 gr/mm
#ND Filter=	100%
#Laser (nm)=	532 
#Hole=	100.021
#Range=	Auto
#Laser Pol.=	No
#Raman. Pol.=	No
#Laser Pol. (°)=	-0.0007625
#Raman Pol. (°)=	89.9995
#Collection=	Microscope
#StageXY=	Marzhauser
#StageZ=	Marzhauser
#X (µm)=	256.3
#Y (µm)=	1672.9
#Z (µm)=	427.2
#Full time(mm:ss)=	3:18
#Project=	
#Sample=	
#Site=	
#Title=	Thy_40_11_29_2x_45s_532 nm_x100_100%_600 gr_mm
#Remark=	
#Date=	05.07.2022 12:05
#Acquired=	05.07.2022 12:05:56
#Base:Fit=	10.08.2022 10:01:35
#Base:Sub=	10.08.2022 10:01:52
#Filter:Polynom=	16.08.2022 10:21:53
#AxisType[0]=Intens
#AxisUnit[0]=Cnt
#AxisType[1]=Spectr
#AxisUnit[1]=1/cm
200.43	24.7904
202.244	23.5252
204.059	24.1242
205.873	21.8124
207.688	20.6521
209.501	19.0671
211.314	17.2963
213.127	15.8609
214.941	14.5589
216.753	13.8037
218.564	11.7559
220.375	11.6575
222.186	9.8472
223.999	9.54864
225.809	8.3256
227.618	8.13834
229.428	7.30433
231.236	6.49004
233.045	6.13124
234.855	6.10226
236.663	6.07091
238.471	5.87311
240.278	6.52644
242.085	7.44541
243.891	7.44495
245.698	7.09435
247.503	7.70817
249.309	8.82117
251.116	9.40011
252.921	9.331
254.725	9.62341
256.529	9.69554
258.333	9.71799
260.136	10.1675
261.939	10.3801
263.742	10.9605
265.544	10.9554
267.346	11.9283
269.148	12.501
270.949	13.1799
272.75	11.6752
274.55	12.861
276.351	13.4337
278.15	14.3261
279.95	14.8046
281.749	15.0691
283.548	15.3424
285.346	15.3141
287.144	14.9573
288.942	14.3551
290.739	14.4112
292.536	13.1536
294.333	11.996
296.129	12.8513
297.925	11.0732
299.721	10.6447
301.514	10.4118
303.309	11.2074
305.104	10.8756
306.898	11.823
308.692	11.3312
310.486	11.3101
312.279	10.5189
314.072	11.604
315.862	11.1607
317.654	11.7489
319.446	12.0592
321.238	12.2315
323.029	12.6059
324.819	13.1447
326.608	14.2432
328.398	14.218
330.188	14.4688
331.977	15.4126
333.766	14.4304
335.553	14.2144
337.341	14.7547
339.129	15.2265
340.917	14.2805
342.704	13.9541
344.489	13.9665
346.275	14.666
348.062	14.412
349.845	14.5439
351.631	14.0095
353.416	14.6335
355.201	14.7294
356.984	15.798
358.768	15.8692
360.552	15.7228
362.333	16.662
364.116	16.8949
365.899	16.5517
367.68	16.9329
369.462	16.8722
371.243	16.4106
373.023	15.1854
374.804	15.1861
376.585	15.8535
378.363	15.2665
380.143	14.2575
381.923	14.0304
383.7	14.0878
385.479	14.1814
387.256	13.6444
389.034	14.685
390.812	15.0203
392.588	15.8351
394.365	14.8305
396.14	14.3608
397.916	12.7078
399.691	11.7225
401.467	11.2526
403.24	11.5847
405.015	10.5813
406.788	10.113
408.563	9.81049
410.335	9.12497
412.109	8.91669
413.88	8.14742
415.654	7.02808
417.424	5.18291
419.197	5.3487
420.967	5.60643
422.739	5.20617
424.508	5.75067
426.279	5.5786
428.048	5.7135
429.819	5.10446
431.587	4.8301
433.356	5.73747
435.124	6.26095
436.891	5.85672
438.66	6.12668
440.426	6.48665
442.194	7.66102
443.96	8.005
445.725	8.07079
447.492	8.22416
449.257	8.12259
451.021	8.63201
452.787	8.62185
454.551	8.55865
456.314	9.3115
458.079	8.86333
459.842	8.87263
461.604	9.51199
463.368	11.0202
465.13	10.7732
466.891	11.0543
468.654	11.6536
470.415	12.225
472.175	12.9847
473.935	13.6658
475.696	14.7272
477.456	15.0142
479.215	13.8521
480.973	13.4962
482.733	12.4919
484.491	12.7483
486.249	13.2272
488.006	13.9556
489.765	14.7575
491.522	15.7398
493.278	15.9923
495.034	16.6633
496.789	18.2253
498.544	18.7633
500.301	18.3067
502.056	18.8235
503.81	20.0351
505.564	21.3191
507.317	22.8432
509.071	24.2903
510.825	25.241
512.578	25.4241
514.33	25.1476
516.082	25.3564
517.833	26.0934
519.585	25.761
521.335	26.2349
523.086	25.4834
524.836	25.5067
526.586	26.0326
528.335	25.2004
530.085	24.6573
531.835	24.0982
533.584	23.127
535.332	22.7887
537.08	22.1658
538.827	21.8384
540.574	20.9952
542.321	20.0974
544.068	19.111
545.814	17.9736
547.56	17.3801
549.305	16.712
551.05	15.6231
552.795	14.3543
554.54	14.2703
556.282	12.5884
558.025	12.4452
559.769	11.1066
561.512	9.30342
563.255	8.88271
564.997	7.4249
566.739	5.47115
568.481	5.01692
570.223	4.0877
571.964	3.95566
573.705	3.84418
575.443	3.19462
577.183	2.62911
578.923	1.87373
580.663	1.62721
582.402	1.26155
584.141	0.662171
585.879	-0.0585335
587.615	-0.512928
589.353	-0.0875407
591.09	-0.149387
592.828	-0.224442
594.564	-0.149056
596.299	0.331346
598.035	0.378061
599.771	0.761626
601.506	1.39537
603.242	1.43593
604.974	3.01477
606.709	2.81074
608.443	3.17256
610.177	3.16396
611.908	4.55404
613.642	4.61491
615.374	4.20808
617.105	4.80832
618.837	5.98203
620.569	6.60977
622.3	8.34912
624.03	9.47011
625.761	10.054
627.491	10.7183
629.219	11.9492
630.949	11.8836
632.677	13.2091
634.406	14.2367
636.135	15.7432
637.861	16.5981
639.59	17.5036
641.318	19.2061
643.043	20.0643
644.77	22.1156
646.495	22.3594
648.222	23.4582
649.948	24.1472
651.672	23.4422
653.398	23.0216
655.121	24.2973
656.846	24.4661
658.569	24.3459
660.293	23.8309
662.015	23.3237
663.738	23.6392
665.46	22.3262
667.183	22.7432
668.903	22.7744
670.626	22.5853
672.346	22.7909
674.067	22.9041
675.787	23.1533
677.508	24.1678
679.226	24.3849
680.947	24.6472
682.665	25.5975
684.385	25.9099
686.102	25.5777
687.821	26.4969
689.538	25.7153
691.254	26.5319
692.972	26.0905
694.688	25.8123
696.406	26.2973
698.121	27.1385
699.835	26.2023
701.552	26.9622
703.266	28.2858
704.98	30.6054
706.695	31.5272
708.409	32.8703
710.121	33.2475
711.836	33.11
713.548	33.9328
715.26	35.7092
716.973	35.8936
718.685	38.6656
720.396	40.009
722.108	41.6954
723.818	42.2069
725.528	44.1186
727.238	45.6435
728.949	46.4763
730.658	47.4044
732.367	48.0491
734.075	48.2949
735.785	49.6244
737.493	50.807
739.2	52.2836
740.907	53.3988
742.614	54.0392
744.322	54.7686
746.028	56.1925
747.734	57.726
749.439	58.6615
751.144	60.4806
752.849	63.7769
754.555	64.3655
756.26	65.6827
757.963	67.2426
759.667	68.2713
761.37	69.2425
763.073	69.9125
764.775	70.754
766.477	71.6785
768.179	72.0051
769.883	72.9034
771.584	73.5144
773.285	74.6477
774.986	75.176
776.686	76.0537
778.386	76.2459
780.085	76.1482
781.785	76.9911
783.484	77.9697
785.182	78.7848
786.881	80.714
788.579	81.098
790.276	82.0384
791.974	81.3912
793.671	80.7878
795.367	80.3627
797.064	79.7606
798.76	79.8014
800.456	80.1752
802.151	79.7092
803.846	80.0616
805.541	79.5572
807.234	80.1701
808.928	79.5774
810.622	80.0336
812.315	79.4352
814.008	79.6428
815.701	79.3635
817.394	79.5762
819.086	79.1321
820.778	80.2493
822.468	80.4001
824.159	80.4672
825.85	80.3007
827.541	80.3938
829.231	80.7444
830.921	79.7834
832.609	78.9493
834.298	78.6519
835.987	78.7526
837.676	78.1453
839.364	75.692
841.051	75.0035
842.738	74.338
844.426	73.0393
846.113	72.6137
847.798	72.5356
849.484	71.8421
851.171	70.8121
852.857	70.3497
854.54	70.791
856.226	70.108
857.911	70.2763
859.593	70.5872
861.278	70.0675
862.961	69.8774
864.645	69.7534
866.327	70.4771
868.01	69.8986
869.692	69.0916
871.373	67.5909
873.055	66.4195
874.735	65.35
876.416	63.5483
878.097	62.1975
879.776	61.7148
881.457	60.1122
883.135	60.5676
884.815	60.1101
886.495	59.7011
888.172	59.3556
889.851	59.811
891.528	59.2281
893.206	57.5542
894.882	57.5797
896.56	57.3296
898.237	57.4882
899.912	56.7166
901.589	56.5787
903.263	56.691
904.94	56.341
906.614	55.3
908.289	54.7924
909.962	53.1064
911.635	52.3099
913.31	51.705
914.982	50.4331
916.656	50.3629
918.328	49.8261
920.001	48.9149
921.672	47.6245
923.345	46.4867
925.015	45.3976
926.685	45.3274
928.357	44.3375
930.026	43.815
931.698	43.5399
933.366	42.761
935.035	43.1006
936.705	42.1775
938.373	41.8436
940.041	42.0284
941.71	42.095
943.377	41.5313
945.044	40.611
946.712	39.9421
948.378	39.8997
950.044	40.0577
951.709	39.0606
953.376	39.3719
955.041	39.2832
956.706	40.0468
958.372	39.1199
960.036	38.9857
961.699	39.386
963.362	40.4527
965.027	40.781
966.69	41.7419
968.352	41.691
970.014	43.8412
971.676	45.7229
973.339	46.4057
975	46.8846
976.661	47.2148
978.322	49.6469
979.982	50.2428
981.642	50.8093
983.303	51.0082
984.962	50.9864
986.621	51.0457
988.28	50.5868
989.938	50.1284
991.596	50.4751
993.254	50.6374
994.911	50.8874
996.57	51.563
998.227	51.1061
999.884	51.0425
1001.54	50.1285
1003.2	50.0027
1004.85	49.9197
1006.51	50.2434
1008.16	50.31
1009.82	50.1875
1011.47	49.6294
1013.12	49.3957
1014.78	49.5233
1016.43	49.363
1018.08	48.9311
1019.74	48.7602
1021.39	49.1736
1023.04	48.7615
1024.69	48.1352
1026.34	46.9484
1028	46.9921
1029.65	46.5986
1031.3	47.0966
1032.95	46.3452
1034.6	45.7314
1036.25	46.1224
1037.9	45.6047
1039.54	44.6756
1041.19	43.19
1042.84	43.999
1044.49	44.3143
1046.14	44.4067
1047.78	43.9783
1049.43	44.4951
1051.08	45.1627
1052.72	45.8703
1054.37	44.7481
1056.02	43.1806
1057.66	42.3166
1059.31	41.7563
1060.95	41.5616
1062.6	39.4511
1064.24	38.6859
1065.88	37.8679
1067.53	36.6361
1069.17	36.1952
1070.81	34.9472
1072.45	34.8395
1074.1	34.6316
1075.74	33.8075
1077.38	32.5563
1079.02	32.311
1080.66	31.5949
1082.3	31.4165
1083.94	31.0779
1085.58	30.704
1087.22	30.3841
1088.86	30.8826
1090.5	30.3239
1092.14	28.8457
1093.78	29.9322
1095.42	28.9536
1097.05	28.916
1098.69	28.0845
1100.33	27.6071
1101.96	26.8237
1103.6	25.3016
1105.24	25.3606
1106.87	25.3343
1108.51	24.5005
1110.14	24.6001
1111.78	25.1536
1113.41	25.145
1115.05	24.3754
1116.68	25.1058
1118.31	24.7886
1119.95	23.9721
1121.58	23.1004
1123.21	23.8918
1124.85	24.6914
1126.48	24.6183
1128.11	24.7994
1129.74	25.5561
1131.37	25.6658
1133	25.1653
1134.63	24.8764
1136.26	23.9773
1137.89	23.6842
1139.52	23.533
1141.15	23.5412
1142.78	23.3475
1144.41	23.0928
1146.04	23.0468
1147.66	22.8044
1149.29	21.7373
1150.92	21.1037
1152.55	20.1918
1154.17	18.9686
1155.8	17.1474
1157.43	15.7906
1159.05	15.0909
1160.68	14.6917
1162.3	14.2627
1163.93	13.5765
1165.55	12.4435
1167.17	11.6153
1168.8	11.2382
1170.42	10.5859
1172.05	9.92426
1173.67	9.21295
1175.29	8.71375
1176.91	7.60157
1178.54	7.98151
1180.16	7.96188
1181.78	8.43357
1183.4	9.18991
1185.02	9.60205
1186.64	10.512
1188.26	10.8534
1189.88	11.1786
1191.5	12.0406
1193.12	12.8108
1194.74	12.8337
1196.36	13.842
1197.97	14.4196
1199.59	15.2808
1201.21	16.6392
1202.83	17.9452
1204.44	20.3874
1206.06	21.3117
1207.68	22.9049
1209.29	24.2002
1210.91	25.8798
1212.52	26.7569
1214.14	28.5463
1215.75	30.1596
1217.37	32.4584
1218.98	34.2541
1220.59	35.944
1222.21	38.4228
1223.82	39.8413
1225.43	41.43
1227.05	42.1916
1228.66	42.9308
1230.27	43.2549
1231.88	44.916
1233.49	46.4096
1235.1	47.0968
1236.72	48.446
1238.33	50.3933
1239.94	52.3085
1241.55	53.517
1243.16	54.3195
1244.76	54.9528
1246.37	56.037
1247.98	57.7694
1249.59	58.8878
1251.2	59.945
1252.8	60.8574
1254.41	61.6565
1256.02	64.1983
1257.62	66.511
1259.23	67.2549
1260.84	68.9358
1262.44	70.1417
1264.05	70.9683
1265.66	70.9721
1267.26	71.196
1268.86	71.9777
1270.47	72.8288
1272.07	72.9994
1273.67	73.6645
1275.28	73.9755
1276.88	75.0183
1278.48	75.6889
1280.09	76.5799
1281.69	77.6052
1283.29	77.6964
1284.89	78.5433
1286.49	78.9497
1288.09	79.3792
1289.69	80.0372
1291.29	80.4606
1292.89	80.5892
1294.49	80.3381
1296.09	80.1239
1297.69	80.7452
1299.29	80.646
1300.89	80.6763
1302.49	81.2708
1304.08	80.2133
1305.68	80.4629
1307.28	80.1661
1308.88	80.4057
1310.47	81.109
1312.07	81.6384
1313.66	81.5949
1315.26	80.6155
1316.85	80.4169
1318.45	79.9126
1320.04	79.1561
1321.64	78.7566
1323.23	77.4533
1324.83	76.8285
1326.42	76.5943
1328.01	75.2671
1329.61	73.7656
1331.2	72.8292
1332.79	72.5303
1334.38	72.4686
1335.97	71.4648
1337.56	69.0221
1339.16	67.1751
1340.75	66.1324
1342.34	64.8877
1343.93	63.6886
1345.52	62.5836
1347.11	61.3088
1348.7	60.957
1350.29	59.8672
1351.87	58.4224
1353.46	57.4894
1355.05	56.5517
1356.64	56.6609
1358.22	54.2309
1359.81	52.5725
1361.4	51.9643
1362.98	50.3928
1364.57	49.2758
1366.16	47.9729
1367.74	46.4585
1369.33	45.0076
1370.91	43.6221
1372.5	43.3276
1374.08	42.207
1375.67	42.2655
1377.25	43.0377
1378.83	41.9239
1380.41	40.8967
1382	40.5297
1383.58	39.4198
1385.16	39.0549
1386.74	38.4825
1388.33	38.0761
1389.91	37.3294
1391.49	37.0047
1393.07	36.1921
1394.65	35.5596
1396.23	35.2327
1397.81	34.6918
1399.39	34.7479
1400.97	34.8897
1402.55	33.9403
1404.13	33.5346
1405.7	32.5529
1407.28	32.5599
1408.86	32.813
1410.44	33.444
1412.01	34.5683
1413.59	34.7628
1415.17	35.7525
1416.74	37.0016
1418.32	39.3732
1419.89	41.3253
1421.47	42.9692
1423.04	45.335
1424.62	47.6942
1426.19	49.634
1427.77	52.4153
1429.34	54.3516
1430.91	56.8717
1432.49	58.88
1434.06	61.2438
1435.63	63.3868
1437.2	64.887
1438.78	67.6833
1440.35	69.5201
1441.92	70.5247
1443.49	70.8639
1445.06	71.4806
1446.63	71.9909
1448.2	72.4397
1449.77	73.426
1451.34	73.0234
1452.91	71.8051
1454.48	71.4361
1456.05	71.2177
1457.62	68.9226
1459.18	67.5172
1460.75	65.7145
1462.32	63.9789
1463.89	61.2536
1465.45	59.1905
1467.02	57.3755
1468.59	54.8359
1470.15	52.1266
1471.72	49.0912
1473.28	45.5236
1474.85	42.8561
1476.41	39.9303
1477.98	37.2148
1479.54	34.0626
1481.1	29.9127
1482.67	26.965
1484.23	24.3427
1485.79	22.6517
1487.36	20.1216
1488.92	18.4111
1490.48	17.1237
1492.04	14.9722
1493.61	13.9558
1495.17	12.7935
1496.73	11.781
1498.29	11.004
1499.85	10.9498
1501.41	11.1892
1502.97	10.6349
1504.53	10.2683
1506.09	10.9564
1507.65	11.1266
1509.2	12.0273
1510.76	12.8857
1512.32	12.7853
1513.88	13.3589
1515.43	14.3396
1516.99	15.7214
1518.55	15.9761
1520.1	16.5289
1521.66	17.4546
1523.22	18.1515
1524.77	20.027
1526.33	20.7596
1527.88	21.4948
1529.44	22.3155
1530.99	23.8281
1532.54	25.4959
1534.1	26.878
1535.65	27.3521
1537.21	29.1316
1538.76	30.4421
1540.31	32.1863
1541.86	33.2395
1543.42	35.6639
1544.97	36.9559
1546.52	38.0546
1548.07	39.5227
1549.62	41.1194
1551.17	42.8486
1552.72	45.3887
1554.27	46.1033
1555.82	47.2528
1557.37	48.4508
1558.92	50.5472
1560.47	52.8866
1562.02	54.4053
1563.56	56.2018
1565.11	57.5714
1566.66	58.4523
1568.21	59.4695
1569.75	60.8212
1571.3	62.4792
1572.85	64.2688
1574.39	66.1361
1575.94	67.6563
1577.49	68.9253
1579.03	69.0567
1580.57	70.4653
1582.12	71.5268
1583.66	72.1483
1585.21	72.654
1586.75	73.5432
1588.3	73.2506
1589.84	73.3495
1591.38	74.4779
1592.92	75.189
1594.47	74.5666
1596.01	73.754
1597.55	73.3856
1599.09	72.3998
1600.63	71.285
1602.17	71.3502
1603.71	69.7734
1605.25	69.6828
1606.79	69.6428
1608.33	68.989
1609.87	68.2323
1611.41	67.7727
1612.95	67.2711
1614.49	66.9884
1616.03	66.4727
1617.57	66.5939
1619.1	66.7173
1620.64	66.6483
1622.18	67.0753
1623.72	67.8955
1625.25	67.7905
1626.79	68.8238
1628.32	69.4603
1629.86	69.1549
1631.39	69.9866
1632.93	71.3819
1634.46	72.9887
1636	74.5059
1637.53	75.1469
1639.07	75.944
1640.6	77.9876
1642.13	79.2377
1643.67	80.3563
1645.2	83.0384
1646.73	85.3817
1648.26	86.8782
1649.8	87.7197
1651.33	88.3743
1652.86	87.965
1654.39	89.069
1655.92	89.4875
1657.45	89.9229
1658.98	89.2105
1660.51	89.1741
1662.04	88.9629
1663.57	88.1384
1665.1	87.1787
1666.63	86.7701
1668.16	85.4421
1669.68	84.1941
1671.21	81.9704
1672.74	80.1838
1674.27	78.0423
1675.79	75.002
1677.32	72.4598
1678.85	70.1086
1680.37	66.9737
1681.9	64.2347
1683.42	60.864
1684.95	57.0963
1686.47	53.9799
1688	51.3635
1689.52	48.2449
1691.05	45.3647
1692.57	42.4757
1694.09	39.6705
1695.62	36.5115
1697.14	32.9881
1698.66	30.8255
1700.18	27.469
1701.71	24.7382
1703.23	22.5724
1704.75	19.6893
1706.27	17.289
1707.79	15.7972
1709.31	13.948
1710.83	12.4863
1712.35	11.3377
1713.87	9.91274
1715.39	8.98226
1716.91	8.60523
1718.43	7.46266
1719.95	6.74574
1721.47	6.79294
1722.99	5.4975
1724.5	4.04065
1726.02	2.92173
1727.54	2.7019
1729.06	2.16792
1730.57	2.4506
1732.09	1.63234
1733.61	1.4976
1735.12	1.01958
1736.64	1.38434
1738.15	1.35342
1739.67	1.97096
1741.18	2.14902
1742.7	1.86167
1744.21	1.13821
1745.72	1.46924
1747.24	0.746834
1748.75	0.90392
1750.26	1.0189
1751.77	0.656711
1753.29	0.909843
1754.8	2.03427
1756.31	2.1766
1757.82	2.30868
1759.33	2.47309
1760.84	2.67728
1762.36	3.69692
1763.87	3.6642
1765.38	3.58864
1766.89	3.30472
1768.4	3.5249
1769.91	3.2079
1771.41	2.86913
1772.92	3.20202
1774.43	3.1956
1775.94	2.729
1777.45	2.49671
1778.95	2.35344
1780.46	2.16403
1781.97	1.70238
1783.48	1.46311
1784.98	1.30679
1786.49	1.5673
1787.99	1.28949
1789.5	0.586247
1791.01	0.886699
1792.51	0.912608
1794.01	1.12642
1795.52	0.961891
1797.02	0.997088
1798.53	0.628602
1800.03	0.358578
1801.53	0.953974
1803.04	1.30967
1804.54	1.01651
1806.04	0.896982
1807.54	1.17307
1809.05	1.24757
1810.55	1.10108
1812.05	1.44929
1813.55	1.38238
1815.05	1.10965
1816.55	0.796624
1818.05	1.06397
1819.55	1.63323
1821.05	2.62053
1822.55	2.1441
1824.05	2.44568
1825.55	2.67194
1827.05	2.97158
1828.55	3.42206
1830.04	3.55571
1831.54	3.16561
1833.04	3.67469
1834.54	3.62228
1836.03	3.62418
1837.53	3.57789
1839.03	3.24856
1840.52	3.10695
1842.02	2.90417
1843.51	3.48007
1845.01	2.93089
1846.5	2.71271
1848	1.73092
1849.49	1.1931
1850.99	1.08883
1852.48	0.608207
1853.97	1.29971
1855.47	0.867746
1856.96	1.00394
1858.45	1.10517
1859.94	1.88476
1861.44	2.04137
1862.93	1.91704
1864.42	2.31852
1865.91	2.92311
1867.4	3.60682
1868.89	4.77668
1870.38	4.76051
1871.87	5.14331
1873.36	5.90367
1874.85	6.5635
1876.34	7.11386
1877.83	7.23576
1879.32	7.8188
1880.81	8.3811
1882.3	9.12506
1882.57	9.564
1884.07	10.019
1885.56	10.2314
1887.06	10.6783
1888.55	11.0012
1890.04	11.9875
1891.54	11.9456
1893.03	11.7102
1894.52	11.1845
1896.02	11.1395
1897.51	11.5454
1899	11.5815
1900.49	12.2495
1901.98	12.5414
1903.47	12.2637
1904.96	12.1955
1906.45	11.9843
1907.94	11.3005
1909.43	10.8584
1910.92	9.91372
1912.41	9.33748
1913.9	8.66514
1915.39	8.39025
1916.88	7.89088
1918.37	7.56601
1919.85	7.47519
1921.34	6.98525
1922.83	6.89862
1924.32	6.9579
1925.8	6.68979
1927.29	6.92519
1928.78	5.92614
1930.26	6.23203
1931.75	6.12698
1933.23	6.18677
1934.72	5.15297
1936.2	5.13437
1937.69	5.27906
1939.17	5.53068
1940.66	5.84668
1942.14	5.4892
1943.63	5.08372
1945.11	5.6563
1946.59	6.09866
1948.07	5.92848
1949.56	5.6864
1951.04	6.09374
1952.52	6.26152
1954	5.84878
1955.48	6.46901
1956.96	6.90807
1958.45	6.80654
1959.93	6.8192
1961.41	7.32505
1962.89	7.0168
1964.37	6.91674
1965.85	6.28836
1967.32	6.49223
1968.8	6.5441
1970.28	6.9808
1971.76	7.33565
1973.24	7.79356
1974.72	8.75697
1976.19	8.95876
1977.67	8.86941
1979.15	9.28047
1980.63	9.7164
1982.1	9.86054
1983.58	9.4508
1985.05	9.46947
1986.53	10.2124
1988	10.869
1989.48	11.6763
1990.95	11.9493
1992.43	12.4666
1993.9	12.5374
1995.38	12.2667
1996.85	12.6076
1998.32	12.5249
1999.8	12.0637
2001.27	12.209
2002.74	12.3934
2004.22	12.9139
2005.69	12.4458
2007.16	12.0648
2008.63	11.2802
2010.1	11.9838
2011.57	12.542
2013.04	12.5309
2014.51	12.5166
2015.98	12.1288
2017.45	12.4554
2018.92	12.502
2020.39	12.1561
2021.86	12.0804
2023.33	12.6693
2024.8	13.4429
2026.27	13.6279
2027.74	13.5274
2029.2	14.2912
2030.67	13.8403
2032.14	14.1242
2033.61	13.9703
2035.07	14.1051
2036.54	14.0946
2038.01	14.248
2039.47	15.2727
2040.94	16.3605
2042.4	16.9744
2043.87	18.054
2045.33	19.0856
2046.8	19.8863
2048.26	20.1275
2049.72	20.215
2051.19	20.9199
2052.65	21.2792
2054.12	21.8263
2055.58	21.9028
2057.04	22.2235
2058.5	22.787
2059.97	23.6992
2061.43	24.2316
2062.89	24.327
2064.35	24.6214
2065.81	24.917
2067.27	25.1224
2068.73	25.2663
2070.19	25.4123
2071.65	25.3532
2073.11	25.9273
2074.57	26.1704
2076.03	26.7415
2077.49	26.9426
2078.95	26.9941
2080.41	27.6553
2081.87	28.4762
2083.32	29.5592
2084.78	30.198
2086.24	30.8653
2087.7	31.5605
2089.15	32.0123
2090.61	33.0852
2092.07	33.9442
2093.52	34.4334
2094.98	35.8837
2096.43	37.0735
2097.89	38.1144
2099.34	39.2106
2100.8	40.183
2102.25	41.4486
2103.71	42.8047
2105.16	44.6558
2106.61	45.2799
2108.07	47.1811
2109.52	48.8618
2110.97	50.5485
2112.43	53.2151
2113.88	55.4594
2115.33	56.6258
2116.78	58.2134
2118.23	60.0258
2119.68	61.9385
2121.13	63.5627
2122.59	66.0371
2124.04	68.8781
2125.49	70.3265
2126.94	72.7886
2128.39	74.9027
2129.83	76.7174
2131.28	78.511
2132.73	80.639
2134.18	82.4735
2135.63	84.6259
