#Acq. time (s)=	45
#Accumulations=	2
#Range (cm-¹)=	200...3150
#Windows=	2
#Auto scanning=	Off
#Autofocus=	Off
#Macrospot=	Off
#AutoExposure=	Off
#Spike filter=	Multiple accum.
#Delay time (s)=	0
#Binning=	1
#Readout mode=	Signal
#DeNoise=	Off
#ICS correction=	On
#Dark correction=	Off
#Inst. Process=	Off
#Detector Gain=	Best Dynamic Range
#Detector ADC=	20 kHz       
#Detector temperature (°C)=	-69.85
#Instrument=	LabRAM HR Evol
#Detector=	Synapse
#Objective=	x100
#Grating=	600 gr/mm
#ND Filter=	100%
#Laser (nm)=	532 
#Hole=	100.021
#Range=	Auto
#Laser Pol.=	No
#Raman. Pol.=	No
#Laser Pol. (°)=	-0.0007625
#Raman Pol. (°)=	89.9995
#Collection=	Microscope
#StageXY=	Marzhauser
#StageZ=	Marzhauser
#X (µm)=	-5139.3
#Y (µm)=	1472.4
#Z (µm)=	62.85
#Full time(mm:ss)=	3:19
#Project=	
#Sample=	
#Site=	
#Title=	Thy_50_12_16_2x_45s_532 nm_x100_100%_600 gr_mm
#Remark=	
#Date=	07.07.2022 10:25
#Acquired=	07.07.2022 10:25:25
#Base:Fit=	10.08.2022 10:04:29
#Base:Sub=	10.08.2022 10:04:45
#Filter:Polynom=	16.08.2022 10:20:24
#AxisType[0]=Intens
#AxisUnit[0]=Cnt
#AxisType[1]=Spectr
#AxisUnit[1]=1/cm
200.43	7.77824
202.246	8.43665
204.061	9.68327
205.875	10.0335
207.688	9.72168
209.501	9.15725
211.316	7.96039
213.129	7.17065
214.941	6.81802
216.753	7.15765
218.566	6.90667
220.377	6.25884
222.188	6.49662
223.999	6.41586
225.809	4.96777
227.618	5.07438
229.43	4.8631
231.239	4.41073
233.047	3.91563
234.855	3.18593
236.663	3.77564
238.471	4.1798
240.278	4.60529
242.087	5.50939
243.894	5.33398
245.7	4.64091
247.506	4.07257
249.311	3.19757
251.116	3.39363
252.921	3.7464
254.725	4.15493
256.529	5.2146
258.333	6.72608
260.136	6.65271
261.939	6.65321
263.744	6.79541
265.546	6.17654
267.348	6.19168
269.15	6.05008
270.951	6.71222
272.752	7.19945
274.552	7.86841
276.353	8.26206
278.152	8.43573
279.952	8.32633
281.751	8.93189
283.55	7.81838
285.348	7.40479
287.146	7.5222
288.942	6.89304
290.739	7.44987
292.536	7.23257
294.333	7.20508
296.129	7.24333
297.925	6.83596
299.721	6.63888
301.516	6.67135
303.311	7.94419
305.106	8.4276
306.9	8.0638
308.694	6.89551
310.486	7.49377
312.279	7.90394
314.072	6.97307
315.864	7.36895
317.656	8.02203
319.448	7.29484
321.24	7.31629
323.029	7.64326
324.819	8.94664
326.61	10.712
328.4	11.0928
330.19	11.0268
331.977	10.9812
333.766	10.3607
335.555	10.8417
337.343	12.2817
339.131	13.3963
340.917	14.4565
342.704	13.5709
344.491	13.7466
346.277	14.8206
348.062	14.0573
349.848	13.2068
351.633	13.5864
353.416	13.8646
355.201	13.622
356.986	13.2123
358.77	13.8708
360.552	14.3828
362.335	14.0074
364.118	13.8044
365.899	12.722
367.682	12.7702
369.464	12.5753
371.243	12.8511
373.025	11.1609
374.806	11.1101
376.585	11.2586
378.365	11.2493
380.143	12.0998
381.923	11.255
383.702	10.9642
385.479	10.7849
387.258	9.80171
389.034	9.8919
390.812	9.59058
392.59	9.59332
394.365	8.72906
396.142	8.13649
397.916	7.87626
399.693	8.35861
401.467	7.87747
403.242	7.75603
405.015	8.99141
406.79	8.90044
408.565	9.02526
410.337	9.59102
412.111	10.0899
413.882	9.87646
415.656	9.45963
417.426	8.46652
419.197	7.61208
420.969	7.41044
422.739	7.07827
424.51	7.31402
426.279	7.18644
428.05	6.71396
429.819	6.05512
431.589	5.4978
433.356	6.291
435.124	7.13493
436.893	7.42737
438.66	8.46385
440.428	9.08191
442.194	9.05037
443.96	8.85472
445.727	9.87026
447.492	9.30687
449.259	10.0986
451.023	9.40812
452.787	10.3036
454.553	10.613
456.316	11.3537
458.079	11.1853
459.844	11.5673
461.606	11.2347
463.368	12.2754
465.132	12.3541
466.893	12.5562
468.654	13.1712
470.415	12.9101
472.177	12.5747
473.937	13.2494
475.696	12.7439
477.456	13.5954
479.217	14.153
480.975	14.9453
482.733	15.5349
484.491	16.2235
486.251	16.6246
488.008	17.1597
489.765	18.3051
491.522	18.4453
493.278	18.6526
495.036	17.8613
496.791	16.8825
498.546	16.8719
500.301	17.1573
502.056	17.47
503.81	17.8322
505.566	17.556
507.319	16.7052
509.073	17.3229
510.825	18.4852
512.578	19.1806
514.33	19.297
516.082	20.0491
517.833	21.2891
519.587	22.2435
521.337	23.9545
523.088	24.3818
524.838	23.9898
526.588	24.2248
528.337	23.9903
530.087	24.4582
531.835	24.6046
533.584	24.9927
535.332	24.6627
537.08	25.4469
538.827	24.4379
540.574	24.8907
542.321	23.5661
544.068	23.1236
545.814	21.8724
547.56	21.1296
549.305	20.5456
551.05	20.4768
552.795	18.8424
554.54	18.4044
556.284	17.614
558.027	16.6419
559.771	15.8789
561.514	15.645
563.257	15.1219
564.999	14.1899
566.742	13.8666
568.481	12.5884
570.223	11.6248
571.964	10.4114
573.705	8.93735
575.445	8.12526
577.185	7.1834
578.925	5.73399
580.665	5.19364
582.402	4.31976
584.141	4.27411
585.879	4.95831
587.617	4.94566
589.355	4.51131
591.092	3.89864
592.828	3.00534
594.564	2.64389
596.301	4.25437
598.037	4.4231
599.773	3.5945
601.506	4.13501
603.242	5.46711
604.976	6.33153
606.711	7.51579
608.443	8.49376
610.177	8.30369
611.91	9.01358
613.644	9.57621
615.374	9.30344
617.107	10.2257
618.839	10.2106
620.569	10.4318
622.3	10.8633
624.032	10.9897
625.761	11.1546
627.491	12.1577
629.221	12.4745
630.949	13.1717
632.679	13.4462
634.408	13.9471
636.135	14.5522
637.863	15.1554
639.592	15.0183
641.318	16.4345
643.045	16.4812
644.77	16.6754
646.497	17.0987
648.224	17.7504
649.948	18.2643
651.674	18.5934
653.398	19.9534
655.123	20.1861
656.846	21.9745
658.57	21.454
660.293	21.7616
662.017	22.6695
663.738	23.8067
665.462	24.6841
667.185	26.3492
668.905	27.138
670.628	28.4931
672.348	29.8906
674.067	30.249
675.789	31.4996
677.508	32.1701
679.228	32.9305
680.947	34.5104
682.667	35.5357
684.385	36.2808
686.104	36.5347
687.821	38.3143
689.538	38.5162
691.256	38.6803
692.972	39.7363
694.69	39.5719
696.406	38.811
698.121	39.2844
699.837	39.7213
701.552	40.9285
703.268	41.1749
704.982	42.0219
706.695	42.5612
708.41	43.4697
710.123	44.5135
711.836	44.5314
713.55	45.1154
715.262	45.2203
716.973	44.9712
718.685	44.9394
720.398	45.8682
722.108	46.6034
723.818	47.1422
725.53	47.1946
727.24	46.9086
728.949	46.9495
730.658	48.6739
732.369	49.5573
734.077	51.2265
735.785	51.7657
737.493	53.612
739.2	55.4931
740.909	56.712
742.616	57.6641
744.322	58.1105
746.028	60.0962
747.734	61.6258
749.441	62.6047
751.146	63.7873
752.851	65.2456
754.555	65.972
756.26	67.4342
757.963	68.7621
759.667	70.4496
761.372	71.2018
763.075	71.9783
764.777	72.9481
766.479	73.5165
768.181	74.2035
769.883	75.33
771.584	75.4722
773.285	76.5712
774.986	76.9919
776.686	78.1722
778.386	79.1363
780.085	79.2801
781.785	79.7165
783.484	81.1738
785.182	81.891
786.881	82.43
788.579	83.1744
790.276	84.1652
791.974	84.3854
793.671	85.3159
795.367	86.0423
797.064	85.2271
798.76	86.0088
800.456	85.6268
802.151	84.6984
803.846	85.1038
805.541	85.5834
807.236	84.8971
808.93	85.7089
810.624	85.5342
812.317	86.3444
814.01	87.0202
815.703	87.0336
817.394	86.5327
819.086	87.48
820.778	87.2344
822.47	87.4556
824.161	87.6304
825.852	86.511
827.543	85.4863
829.231	85.0887
830.921	83.7004
832.611	82.6257
834.3	81.6604
835.989	81.5288
837.676	80.7805
839.364	79.2289
841.053	78.5256
842.74	78.1754
844.426	77.471
846.113	74.3955
847.8	73.7361
849.486	72.2047
851.171	71.3708
852.857	70.3701
854.542	68.892
856.227	68.077
857.911	67.4445
859.595	67.2769
861.279	66.9656
862.961	66.4389
864.645	66.6562
866.329	65.7126
868.01	65.6091
869.692	64.824
871.375	63.9881
873.055	63.9186
874.737	64.1003
876.418	64.8578
878.097	65.0741
879.778	64.798
881.457	63.93
883.137	64.1262
884.817	63.8121
886.495	64.1329
888.174	64.9939
889.851	64.9072
891.53	64.8434
893.206	65.0452
894.884	65.138
896.562	64.8512
898.237	63.93
899.914	63.7923
901.589	64.5125
903.265	63.957
904.94	62.7933
906.615	61.5984
908.289	61.2653
909.964	59.7442
911.637	58.6884
913.31	57.5459
914.984	56.286
916.656	55.2982
918.33	54.6477
920.001	53.3224
921.674	52.7407
923.345	50.9452
925.015	51.276
926.687	50.5303
928.357	48.746
930.028	47.4963
931.698	47.5459
933.366	46.7744
935.037	46.423
936.705	46.2427
938.373	45.7389
940.043	45.5111
941.71	45.1108
943.379	45.7742
945.046	45.1569
946.712	44.2883
948.378	44.6426
950.046	44.6677
951.711	45.8608
953.376	45.9358
955.043	46.5411
956.708	46.4977
958.372	46.2431
960.036	45.5067
961.701	45.2802
963.364	45.8738
965.027	45.8942
966.69	46.8886
968.354	47.5921
970.016	47.5684
971.678	47.5332
973.339	47.249
975	47.406
976.661	46.9033
978.324	46.3056
979.984	45.5956
981.644	45.3968
983.303	44.247
984.962	43.6454
986.621	42.7822
988.282	41.4982
989.94	40.5381
991.598	39.9959
993.256	39.3904
994.913	38.4225
996.57	38.1755
998.227	38.2973
999.884	38.5622
1001.54	37.8169
1003.2	37.5879
1004.85	38.2075
1006.51	36.8741
1008.16	36.8695
1009.82	36.6096
1011.47	36.5752
1013.12	36.8762
1014.78	37.3352
1016.43	37.4861
1018.08	38.0944
1019.74	38.1638
1021.39	38.3937
1023.04	38.4217
1024.69	39.1403
1026.34	39.6604
1028	39.6105
1029.65	40.0765
1031.3	39.9316
1032.95	39.6854
1034.6	38.8096
1036.25	38.1707
1037.9	37.9211
1039.55	37.5248
1041.19	37.944
1042.84	37.969
1044.49	38.6385
1046.14	39.4593
1047.79	38.1865
1049.43	37.744
1051.08	37.2023
1052.73	35.4645
1054.37	34.4789
1056.02	32.75
1057.66	31.9791
1059.31	30.8008
1060.95	29.6428
1062.6	29.7932
1064.24	28.8891
1065.88	28.1568
1067.53	28.0069
1069.17	27.453
1070.81	27.3637
1072.46	27.7447
1074.1	27.0168
1075.74	26.5345
1077.38	25.3747
1079.02	24.6934
1080.66	23.646
1082.3	22.089
1083.94	20.5337
1085.58	20.9432
1087.22	20.6492
1088.86	19.9904
1090.5	20.6632
1092.14	20.7536
1093.78	20.6589
1095.42	21.3305
1097.05	20.7728
1098.69	20.6633
1100.33	20.4812
1101.97	20.2118
1103.6	20.0328
1105.24	18.987
1106.87	19.3013
1108.51	19.3681
1110.15	19.1286
1111.78	18.3141
1113.41	17.2528
1115.05	16.6718
1116.68	15.9818
1118.31	15.7323
1119.95	15.8392
1121.58	15.3474
1123.21	14.8079
1124.85	14.5406
1126.48	14.4271
1128.11	14.0459
1129.74	12.8134
1131.37	12.9322
1133	12.2497
1134.63	11.2532
1136.26	11.2496
1137.89	10.447
1139.52	10.2824
1141.15	10.059
1142.78	9.51177
1144.41	10.0061
1146.04	9.90566
1147.66	9.68116
1149.29	9.35106
1150.92	9.44166
1152.55	7.96236
1154.17	6.05968
1155.8	4.62031
1157.43	4.4721
1159.05	3.25125
1160.68	3.04598
1162.3	2.93589
1163.93	3.13368
1165.55	3.38777
1167.17	3.61705
1168.8	3.28684
1170.42	3.49449
1172.05	3.39052
1173.67	3.79991
1175.29	4.51721
1176.91	4.79569
1178.54	3.79967
1180.16	4.09533
1181.78	3.37689
1183.4	3.9674
1185.02	3.3531
1186.64	3.42682
1188.26	3.97746
1189.88	3.06126
1191.5	3.14918
1193.12	3.35613
1194.74	4.23099
1196.36	4.75809
1197.97	6.05609
1199.59	7.45631
1201.21	8.54034
1202.83	9.32101
1204.44	10.3997
1206.06	11.4477
1207.68	11.7657
1209.29	13.2055
1210.91	13.8221
1212.52	14.4475
1214.14	15.2393
1215.75	16.8052
1217.37	17.5497
1218.98	18.6747
1220.6	19.7856
1222.21	20.359
1223.82	21.7834
1225.44	23.1992
1227.05	24.4739
1228.66	24.7355
1230.27	26.1731
1231.88	27.0783
1233.49	27.2238
1235.1	28.9703
1236.72	31.0183
1238.33	31.9497
1239.94	32.6386
1241.55	34.3285
1243.16	35.7055
1244.76	37.4208
1246.37	38.2534
1247.98	40.4688
1249.59	42.6025
1251.2	44.0907
1252.8	45.5236
1254.41	46.7134
1256.02	48.4085
1257.63	50.0942
1259.23	50.8202
1260.84	52.627
1262.44	54.1972
1264.05	56.5371
1265.66	57.9455
1267.26	60.3984
1268.87	60.8748
1270.47	62.5654
1272.07	65.2233
1273.68	67.6082
1275.28	69.6368
1276.88	70.8602
1278.48	72.7847
1280.09	73.838
1281.69	74.7931
1283.29	75.8886
1284.89	76.5558
1286.49	77.196
1288.09	77.5784
1289.69	78.5349
1291.3	78.5811
1292.9	78.2343
1294.49	78.2333
1296.09	78.0467
1297.69	77.4702
1299.29	77.5395
1300.89	77.0134
1302.49	75.7409
1304.09	75.9549
1305.68	75.0299
1307.28	74.8204
1308.88	74.7613
1310.47	74.7786
1312.07	72.9832
1313.66	72.0287
1315.26	70.9308
1316.86	70.5957
1318.45	69.1083
1320.05	68.3633
1321.64	68.2218
1323.23	67.426
1324.83	66.4178
1326.42	65.1303
1328.01	64.3557
1329.61	63.397
1331.2	61.7606
1332.79	61.2037
1334.38	59.8279
1335.98	59.5525
1337.57	58.609
1339.16	57.1026
1340.75	57.2621
1342.34	56.3238
1343.93	55.1897
1345.52	53.0685
1347.11	51.946
1348.7	50.1184
1350.29	50.1896
1351.87	49.1356
1353.46	48.5323
1355.05	46.9672
1356.64	45.3496
1358.23	43.2778
1359.81	41.256
1361.4	40.4457
1362.99	39.6713
1364.57	38.4744
1366.16	37.6441
1367.74	36.9916
1369.33	36.2701
1370.91	35.4057
1372.5	34.1571
1374.08	33.5325
1375.67	32.2635
1377.25	31.8304
1378.83	31.7759
1380.42	31.1064
1382	30.6376
1383.58	30.6877
1385.16	30.5558
1386.75	31.0243
1388.33	30.1981
1389.91	28.8149
1391.49	27.7456
1393.07	27.8806
1394.65	27.1049
1396.23	27.4817
1397.81	26.8621
1399.39	26.6708
1400.97	27.719
1402.55	27.333
1404.13	27.5549
1405.7	27.7972
1407.28	28.9137
1408.86	29.7033
1410.44	29.9183
1412.01	30.7223
1413.59	31.0243
1415.17	32.042
1416.74	33.7715
1418.32	34.7773
1419.89	36.9946
1421.47	37.8606
1423.05	39.0571
1424.62	41.4217
1426.19	44.3711
1427.77	46.6934
1429.34	49.4641
1430.92	52.1594
1432.49	55.1666
1434.06	57.3654
1435.63	59.1394
1437.2	60.9675
1438.78	63.1468
1440.35	65.0307
1441.92	66.1919
1443.49	67.6196
1445.06	68.8379
1446.63	69.8843
1448.2	69.7707
1449.77	70.5502
1451.34	70.3896
1452.91	70.1376
1454.48	69.1265
1456.05	69.6177
1457.62	69.3462
1459.18	68.0623
1460.75	66.1862
1462.32	63.6544
1463.89	62.1399
1465.45	59.102
1467.02	55.7941
1468.59	53.8184
1470.15	51.265
1471.72	48.5527
1473.28	45.2519
1474.85	42.9666
1476.41	39.5586
1477.98	36.8087
1479.54	34.3684
1481.11	31.258
1482.67	28.7156
1484.23	25.7472
1485.8	23.6758
1487.36	21.3656
1488.92	20.2011
1490.48	18.8075
1492.05	17.881
1493.61	16.6792
1495.17	16.7335
1496.73	16.0567
1498.29	15.8877
1499.85	15.0926
1501.41	15.1657
1502.97	15.7739
1504.53	16.8414
1506.09	17.2168
1507.65	17.7704
1509.2	18.3697
1510.76	19.0221
1512.32	18.9262
1513.88	18.8415
1515.44	19.5742
1516.99	20.4612
1518.55	21.5238
1520.1	22.9417
1521.66	24.8284
1523.22	25.7304
1524.77	26.8011
1526.33	27.5403
1527.88	28.8557
1529.44	29.5192
1530.99	30.267
1532.55	31.3866
1534.1	33.463
1535.65	34.0315
1537.21	34.662
1538.76	35.6395
1540.31	36.9465
1541.86	37.66
1543.42	38.1945
1544.97	39.754
1546.52	41.5676
1548.07	41.9142
1549.62	43.1648
1551.17	44.2524
1552.72	45.7263
1554.27	46.5734
1555.82	48.4672
1557.37	49.9508
1558.92	51.8083
1560.47	53.2836
1562.02	54.5128
1563.57	56.3786
1565.11	58.239
1566.66	59.2511
1568.21	59.6052
1569.75	60.6149
1571.3	61.0728
1572.85	62.5141
1574.39	63.0104
1575.94	63.7455
1577.49	64.8216
1579.03	65.5118
1580.58	66.3289
1582.12	67.0318
1583.67	66.7425
1585.21	66.2974
1586.75	66.02
1588.3	66.3489
1589.84	65.8187
1591.38	65.4965
1592.93	65.0562
1594.47	63.9939
1596.01	63.3461
1597.55	62.4214
1599.09	61.8888
1600.63	60.9988
1602.18	60.1719
1603.72	60.3523
1605.26	59.3473
1606.8	59.3094
1608.34	58.5014
1609.87	58.1535
1611.41	57.759
1612.95	56.7178
1614.49	56.5935
1616.03	56.5431
1617.57	56.3208
1619.11	56.405
1620.64	57.3168
1622.18	58.1405
1623.72	58.7775
1625.25	59.2506
1626.79	60.7693
1628.32	61.045
1629.86	62.4067
1631.4	63.7137
1632.93	65.3982
1634.47	67.1147
1636	68.4883
1637.53	70.02
1639.07	70.4873
1640.6	72.5377
1642.14	74.2479
1643.67	75.3318
1645.2	76.5785
1646.73	78.0423
1648.27	79.1597
1649.8	79.9263
1651.33	81.3914
1652.86	81.7693
1654.39	82.4569
1655.92	82.7403
1657.45	82.3353
1658.98	82.0432
1660.51	81.0771
1662.04	79.5647
1663.57	79.2593
1665.1	78.4866
1666.63	77.1569
1668.16	75.1286
1669.69	72.7378
1671.21	70.6189
1672.74	69.4941
1674.27	67.4061
1675.79	65.4569
1677.32	63.0708
1678.85	60.812
1680.37	58.2864
1681.9	54.624
1683.42	52.2906
1684.95	50.0937
1686.47	47.0283
1688	44.4366
1689.52	41.741
1691.05	39.0449
1692.57	36.7902
1694.1	34.4127
1695.62	32.4345
1697.14	29.6531
1698.66	27.1671
1700.19	24.663
1701.71	22.9733
1703.23	21.5478
1704.75	19.5118
1706.27	18.4405
1707.79	16.9061
1709.32	15.5315
1710.83	14.0487
1712.35	13.1809
1713.88	12.3926
1715.39	11.0589
1716.91	11.6007
1718.43	10.5636
1719.95	10.1553
1721.47	9.9456
1722.99	9.68029
1724.5	9.73255
1726.02	9.53066
1727.54	9.64043
1729.06	8.61282
1730.57	8.35751
1732.09	7.86787
1733.61	7.13999
1735.12	7.01967
1736.64	6.53155
1738.15	6.51372
1739.67	6.74617
1741.18	6.6412
1742.7	6.22779
1744.21	5.26921
1745.72	5.22883
1747.24	5.57088
1748.75	5.76643
1750.26	4.97832
1751.78	4.66744
1753.29	4.38014
1754.8	4.4147
1756.31	4.14312
1757.82	4.17933
1759.34	3.77885
1760.85	3.60694
1762.36	2.75197
1763.87	3.1849
1765.38	2.89909
1766.89	2.39122
1768.4	2.79865
1769.91	2.91558
1771.41	2.66112
1772.92	2.44016
1774.43	2.77557
1775.94	3.04543
1777.45	3.29387
1778.96	3.55582
1780.46	3.47261
1781.97	3.65439
1783.48	3.75275
1784.98	4.11635
1786.49	4.21983
1788	4.58347
1789.5	4.37888
1791.01	4.73873
1792.51	5.27957
1794.01	5.36084
1795.52	5.94806
1797.02	5.58307
1798.53	5.24141
1800.03	5.79915
1801.54	5.6473
1803.04	5.0631
1804.54	4.61054
1806.04	4.26249
1807.54	4.21932
1809.05	3.85818
1810.55	3.92815
1812.05	3.55699
1813.55	3.98404
1815.05	3.47709
1816.55	3.17909
1818.05	3.15793
1819.55	2.79822
1821.05	2.70429
1822.55	2.39302
1824.05	1.77118
1825.55	1.51039
1827.05	1.11328
1828.55	0.978288
1830.04	1.0024
1831.54	0.956093
1833.04	0.803544
1834.54	0.43227
1836.03	0.734544
1837.53	1.13381
1839.03	1.22668
1840.52	0.758955
1842.02	0.465028
1843.51	0.725003
1845.01	0.882466
1846.5	0.971142
1848	1.133
1849.49	0.944792
1850.99	0.810732
1852.48	0.989305
1853.97	1.12542
1855.47	1.31551
1856.96	1.39244
1858.45	1.43313
1859.94	1.58364
1861.44	1.78384
1862.93	2.62667
1864.42	3.08467
1865.91	3.34114
1867.4	3.06454
1868.89	2.52313
1870.38	1.90325
1871.87	1.42235
1873.36	1.20889
1874.85	1.5819
1876.34	0.623886
1877.83	0.199771
1879.32	0.411178
1880.81	0.80746
1882.3	1.29223
1882.56	1.30322
1884.06	1.46326
1885.55	1.37043
1887.04	2.1754
1888.54	1.71768
1890.03	1.86637
1891.52	2.22977
1893.02	2.15459
1894.51	2.83271
1896	2.76784
1897.49	2.64941
1898.99	3.4103
1900.48	3.14826
1901.97	3.56368
1903.46	4.25191
1904.95	5.06488
1906.44	5.78767
1907.93	5.94144
1909.42	6.13613
1910.91	6.90798
1912.4	7.22659
1913.89	6.97204
1915.38	7.30852
1916.86	7.51712
1918.35	7.73826
1919.84	8.00064
1921.33	8.02466
1922.82	7.99675
1924.3	7.70438
1925.79	8.05791
1927.28	8.85099
1928.76	9.08193
1930.25	8.94512
1931.74	9.29126
1933.22	9.356
1934.71	9.30011
1936.19	8.53545
1937.67	7.58949
1939.16	6.96428
1940.64	6.15891
1942.13	6.14923
1943.61	6.69471
1945.09	6.70263
1946.58	6.12666
1948.06	5.73153
1949.54	5.31665
1951.03	5.67889
1952.51	5.5109
1953.99	5.05915
1955.47	4.2554
1956.95	3.1361
1958.43	2.7701
1959.91	2.2554
1961.39	1.50329
1962.87	1.2092
1964.35	1.0661
1965.83	1.08507
1967.31	1.04966
1968.79	1.13491
1970.27	0.996693
1971.75	1.39017
1973.22	1.77613
1974.7	1.94234
1976.18	3.13046
1977.66	4.00532
1979.13	4.27583
1980.61	4.17898
1982.09	4.07924
1983.56	4.40211
1985.04	4.92864
1986.52	4.96165
1987.99	5.11871
1989.47	5.85663
1990.94	5.99255
1992.41	6.92341
1993.89	7.21406
1995.36	7.1696
1996.84	7.45335
1998.31	7.63462
1999.78	8.15026
2001.26	9.01106
2002.73	8.40594
2004.2	9.01682
2005.67	9.6158
2007.15	9.46491
2008.62	9.5433
2010.09	10.0408
2011.56	10.2315
2013.03	10.7214
2014.5	10.9212
2015.97	11.4855
2017.44	11.5798
2018.91	10.3452
2020.38	10.1582
2021.85	10.2048
2023.32	10.4907
2024.79	10.2952
2026.25	10.1484
2027.72	9.98281
2029.19	10.3862
2030.66	10.2366
2032.13	10.087
2033.59	10.5021
2035.06	11.0955
2036.53	12.0218
2037.99	12.0739
2039.46	12.3098
2040.92	12.497
2042.39	12.7284
2043.85	13.4484
2045.32	14.0367
2046.78	14.8057
2048.25	15.3034
2049.71	15.9029
2051.18	16.3563
2052.64	16.8622
2054.1	17.6427
2055.56	18.4484
2057.03	18.8154
2058.49	19.3079
2059.95	19.7904
2061.42	20.4286
2062.88	21.0764
2064.34	21.4185
2065.8	21.7971
2067.26	21.9271
2068.72	22.2328
2070.18	22.8299
2071.64	23.076
2073.1	23.5564
2074.56	24.6374
2076.02	25.1163
2077.48	26.3828
2078.94	26.9288
2080.39	27.1148
2081.85	27.7101
2083.31	28.2361
2084.77	28.7701
2086.22	30.2999
2087.68	30.6233
2089.14	31.5237
2090.6	32.1259
2092.05	32.81
2093.51	35.2392
2094.96	35.9678
2096.42	36.7562
2097.87	37.4809
2099.33	38.6224
2100.78	39.3259
2102.24	40.5074
2103.69	41.7413
2105.15	42.9388
2106.6	44.6616
2108.05	46.2178
2109.51	47.3867
2110.96	49.0172
2112.41	50.5101
2113.86	52.4737
2115.32	54.476
2116.77	57.3773
2118.22	59.1637
2119.67	61.2993
2121.12	63.3906
2122.57	66.4573
2124.02	68.4175
2125.47	70.7813
2126.92	72.3993
2128.37	74.5696
2129.82	76.0611
2131.27	78.3859
2132.72	80.6712
2134.17	83.4488
2135.62	84.9485
