#Acq. time (s)=	45
#Accumulations=	2
#Range (cm-¹)=	200...3150
#Windows=	2
#Auto scanning=	Off
#Autofocus=	Off
#Macrospot=	Off
#AutoExposure=	Off
#Spike filter=	Multiple accum.
#Delay time (s)=	0
#Binning=	1
#Readout mode=	Signal
#DeNoise=	Off
#ICS correction=	On
#Dark correction=	Off
#Inst. Process=	Off
#Detector Gain=	Best Dynamic Range
#Detector ADC=	20 kHz       
#Detector temperature (°C)=	-69.85
#Instrument=	LabRAM HR Evol
#Detector=	Synapse
#Objective=	x100
#Grating=	600 gr/mm
#ND Filter=	100%
#Laser (nm)=	532 
#Hole=	100.021
#Range=	Auto
#Laser Pol.=	No
#Raman. Pol.=	No
#Laser Pol. (°)=	-0.0007625
#Raman Pol. (°)=	89.9995
#Collection=	Microscope
#StageXY=	Marzhauser
#StageZ=	Marzhauser
#X (µm)=	4714.3
#Y (µm)=	-7717.6
#Z (µm)=	584.4
#Full time(mm:ss)=	3:18
#Project=	
#Sample=	
#Site=	
#Title=	Thy_30_10_42_2x_45s_532 nm_x100_100%_600 gr_mm
#Remark=	
#Date=	30.06.2022 14:26
#Acquired=	30.06.2022 14:26:27
#Base:Fit=	10.08.2022 09:58:11
#Base:Sub=	10.08.2022 09:58:44
#Filter:Polynom=	16.08.2022 10:22:53
#AxisType[0]=Intens
#AxisUnit[0]=Cnt
#AxisType[1]=Spectr
#AxisUnit[1]=1/cm
200.533	3.78405
202.348	8.38865
204.162	9.92343
205.976	11.8902
207.792	13.7227
209.605	15.2716
211.418	16.8101
213.23	18.7378
215.044	19.8259
216.856	21.9541
218.667	23.9033
220.478	26.0583
222.289	26.4138
224.102	27.9754
225.912	29.9354
227.721	31.0937
229.531	31.369
231.34	32.2813
233.148	31.5416
234.956	32.814
236.766	32.2767
238.574	33.4352
240.381	32.8679
242.188	32.7141
243.994	33.3936
245.801	34.2559
247.606	34.1066
249.412	33.2443
251.217	32.0112
253.024	32.7596
254.828	32.5547
256.632	32.2904
258.436	33.8403
260.239	34.4578
262.042	34.5587
263.845	33.5458
265.647	33.6113
267.449	33.6377
269.25	34.9372
271.052	33.9824
272.852	34.5048
274.653	34.9591
276.453	35.4574
278.253	34.8044
280.052	35.6215
281.852	36.7368
283.65	36.9604
285.449	35.7729
287.247	34.6792
289.044	34.8999
290.842	35.1374
292.639	35.243
294.436	35.3745
296.232	34.5369
298.028	34.1831
299.821	33.4289
301.617	33.8491
303.412	34.467
305.206	35.2913
307	36.3852
308.794	35.0487
310.588	34.6275
312.381	33.5422
314.172	33.2793
315.964	31.3242
317.756	28.7843
319.548	26.9293
321.34	25.7334
323.131	24.1114
324.921	23.4714
326.71	21.5938
328.5	20.5403
330.29	18.8214
332.079	18.2797
333.868	17.4745
335.654	16.4043
337.443	14.7891
339.231	13.0741
341.018	12.499
342.804	11.9441
344.591	11.2593
346.377	12.0006
348.163	11.9609
349.947	11.2134
351.733	10.5899
353.518	9.4161
355.303	9.77627
357.085	10.2156
358.869	11.1983
360.653	9.62062
362.435	10.3701
364.218	10.3399
366.001	9.78302
367.781	9.22175
369.563	10.3695
371.345	11.7561
373.124	10.802
374.905	11.9634
376.686	12.4433
378.464	13.411
380.244	13.6001
382.022	14.852
383.801	14.2883
385.58	15.3274
387.357	16.273
389.135	16.3899
390.911	17.6682
392.689	18.3126
394.466	17.7771
396.241	16.6935
398.018	15.7768
399.792	16.3798
401.568	14.8329
403.341	13.2932
405.117	12.8173
406.889	12.4768
408.664	12.5466
410.436	12.0183
412.21	11.5951
413.981	10.9616
415.755	10.887
417.525	10.8671
419.298	10.6059
421.068	9.90866
422.84	9.46883
424.609	9.23803
426.38	8.77028
428.149	8.12603
429.919	8.92854
431.688	9.21275
433.455	9.39132
435.225	8.72894
436.992	7.84642
438.76	8.35024
440.527	8.48999
442.293	9.04314
444.06	10.4737
445.826	10.5426
447.593	11.1762
449.357	11.6096
451.122	11.964
452.888	12.1002
454.651	11.9959
456.415	13.5039
458.18	15.1811
459.942	15.1523
461.705	14.4664
463.469	15.552
465.23	14.5091
466.991	15.514
468.752	16.7537
470.515	16.3019
472.275	15.7702
474.035	15.3157
475.797	14.9151
477.556	14.5373
479.315	15.3301
481.073	16.1953
482.834	16.2655
484.592	16.4054
486.349	16.5831
488.106	16.1904
489.863	15.3343
491.622	16.1369
493.378	16.5004
495.134	17.0363
496.889	17.4336
498.645	17.1641
500.401	17.4146
502.156	17.1891
503.91	18.2311
505.664	17.8375
507.417	16.812
509.171	17.1546
510.923	17.6566
512.678	17.2519
514.43	16.8937
516.182	16.7017
517.933	17.8478
519.684	17.7098
521.435	17.922
523.186	17.7459
524.936	19.7411
526.686	19.8967
528.435	17.9577
530.184	18.0593
531.933	18.1379
533.682	17.8198
535.43	18.1733
537.18	17.0051
538.927	16.1712
540.674	16.7365
542.421	16.3082
544.167	15.9171
545.913	16.0132
547.659	14.6849
549.403	15.0066
551.148	14.4307
552.893	13.6346
554.637	13.8886
556.381	13.8054
558.125	13.267
559.868	14.6279
561.611	13.7199
563.354	13.8769
565.097	14.0244
566.839	14.2262
568.581	14.2965
570.322	12.3962
572.063	11.6816
573.802	11.1387
575.542	10.2509
577.283	9.57188
579.022	9.2436
580.762	9.53314
582.501	9.68832
584.24	8.93964
585.976	7.83262
587.714	8.08062
589.452	6.43179
591.19	5.58786
592.927	4.42929
594.663	3.69527
596.398	3.43809
598.134	3.37672
599.87	2.65944
601.605	2.95021
603.338	4.01134
605.073	4.2148
606.808	3.84091
608.542	4.40641
610.274	4.12064
612.007	4.96636
613.74	3.72635
615.473	4.16652
617.204	5.31296
618.936	6.63285
620.668	7.33352
622.397	6.84799
624.128	7.02284
625.859	8.0786
627.588	9.61385
629.318	10.1804
631.048	11.7533
632.775	12.7939
634.505	13.0968
636.233	14.4133
637.96	13.5348
639.688	14.1886
641.416	14.6046
643.142	16.0613
644.869	17.0472
646.594	17.5515
648.32	17.0203
650.045	17.2476
651.771	18.6943
653.496	19.6488
655.219	20.7349
656.944	20.6931
658.667	21.5073
660.391	22.5962
662.113	23.7747
663.837	25.2128
665.558	26.9777
667.281	26.952
669.002	26.2531
670.724	26.2445
672.444	25.8192
674.166	26.275
675.885	25.3574
677.606	26.0487
679.325	27.4413
681.045	27.3912
682.763	28.7007
684.483	29.3237
686.2	29.9737
687.917	31.2258
689.636	32.7711
691.352	32.7837
693.07	34.1563
694.786	35.27
696.501	35.3087
698.219	36.6008
699.933	37.121
701.65	37.7209
703.364	38.5408
705.078	40.6083
706.793	40.426
708.506	41.0046
710.219	43.1741
711.934	44.7081
713.646	47.0592
715.358	47.8072
717.071	48.6113
718.782	48.3407
720.493	48.773
722.204	48.3848
723.916	48.4935
725.626	49.6293
727.336	50.3162
729.045	51.9064
730.756	52.5844
732.464	53.2736
734.173	53.9636
735.881	54.8825
737.59	56.5069
739.297	57.5259
741.004	57.2151
742.711	56.995
744.417	57.8702
746.125	58.9599
747.831	59.0698
749.537	59.6355
751.242	59.9451
752.946	60.1338
754.651	62.61
756.357	63.8357
758.061	64.5984
759.764	65.5839
761.467	66.3553
763.17	67.2007
764.872	68.0827
766.575	68.9401
768.276	69.4526
769.978	70.0411
771.679	70.8702
773.382	71.8989
775.083	72.3765
776.783	74.0864
778.483	74.7382
780.182	75.7998
781.882	76.9855
783.581	78.7499
785.279	79.6497
786.978	80.8484
788.676	82.5964
790.373	83.4976
792.071	84.4735
793.768	86.3393
795.464	86.4461
797.161	88.6086
798.857	89.8543
800.552	90.1778
802.248	89.7371
803.941	90.7364
805.636	91.9649
807.33	92.8982
809.024	93.5716
810.718	95.104
812.412	96.9032
814.105	97.1674
815.798	98.3622
817.49	99.1184
819.183	101.088
820.873	101.168
822.564	101.375
824.256	102.624
825.947	102.807
827.637	104.268
829.328	104.653
831.016	105.28
832.705	105.114
834.395	105.445
836.084	105.439
837.772	104.779
839.459	104.197
841.147	102.687
842.835	101.347
844.522	100.641
846.209	98.6522
847.894	96.8018
849.581	94.9662
851.267	92.4517
852.953	90.1411
854.637	88.9528
856.322	86.5454
858.007	84.6433
859.689	83.6968
861.374	81.5775
863.058	78.7403
864.739	77.5003
866.423	74.5552
868.106	72.9437
869.787	71.4758
871.469	69.6344
873.151	67.7095
874.831	66.1338
876.512	65.3973
878.193	65.2458
879.872	65.0105
881.553	65.3536
883.231	64.0862
884.911	64.2499
886.591	63.9151
888.268	64.494
889.947	65.2506
891.623	64.4698
893.302	63.9381
894.978	64.8963
896.656	64.2588
898.331	63.5851
900.008	65.4642
901.683	64.1859
903.359	64.7326
905.033	63.4184
906.709	63.7318
908.383	64.4896
910.058	65.0357
911.731	64.2148
913.405	63.1997
915.078	62.9017
916.752	62.711
918.423	62.3397
920.096	61.5931
921.768	60.4941
923.438	60.845
925.111	60.9259
926.781	59.4154
928.452	57.5893
930.122	55.8112
931.791	54.298
933.462	52.6275
935.13	50.8435
936.799	50.9001
938.468	49.8542
940.136	48.4677
941.803	48.2168
943.472	47.4907
945.139	44.8253
946.805	44.6783
948.473	43.7128
950.139	42.9843
951.804	43.8224
953.471	43.1329
955.136	43.195
956.801	42.2189
958.465	42.8369
960.131	41.3302
961.794	41.354
963.458	39.965
965.12	39.9774
966.785	39.521
968.447	39.4079
970.109	39.0423
971.771	38.2172
973.432	39.0536
975.095	37.8038
976.756	37.5917
978.417	38.4729
980.077	38.3332
981.737	37.9354
983.396	37.74
985.057	36.5599
986.716	37.0261
988.375	36.709
990.033	37.1804
991.691	37.032
993.349	36.9742
995.006	34.9135
996.663	34.6633
998.32	34.1901
999.976	33.836
1001.63	33.13
1003.29	33.2676
1004.95	33.4598
1006.6	33.393
1008.26	32.7688
1009.91	30.7927
1011.56	29.9578
1013.22	29.6354
1014.87	29.3843
1016.53	29.5387
1018.18	28.8279
1019.83	28.2259
1021.48	26.8916
1023.14	26.8596
1024.79	26.7697
1026.44	25.2765
1028.09	25.8625
1029.74	27.3637
1031.39	27.3629
1033.04	26.7323
1034.69	26.4684
1036.34	25.693
1037.99	25.5786
1039.64	24.5417
1041.29	24.9229
1042.94	24.2361
1044.58	25.7251
1046.23	25.792
1047.88	26.4439
1049.52	26.0484
1051.17	27.4816
1052.82	27.8106
1054.46	26.8656
1056.11	26.7707
1057.75	25.7254
1059.4	25.7893
1061.04	25.7352
1062.69	25.9916
1064.33	26.0356
1065.98	26.1935
1067.62	25.9029
1069.26	26.1625
1070.9	26.5315
1072.55	26.7219
1074.19	26.5915
1075.83	26.1813
1077.47	24.5502
1079.11	24.6008
1080.76	23.9755
1082.4	23.6776
1084.04	23.8922
1085.68	24.2864
1087.32	23.0329
1088.95	22.7064
1090.59	22.4944
1092.23	21.9825
1093.87	22.1578
1095.51	22.5053
1097.15	23.5234
1098.78	22.5329
1100.42	22.9146
1102.06	23.0769
1103.69	23.3681
1105.33	24.6841
1106.97	24.6308
1108.6	23.8204
1110.24	24.0876
1111.87	23.3802
1113.51	21.7325
1115.14	21.6973
1116.77	22.3048
1118.41	21.9311
1120.04	21.2355
1121.67	19.9366
1123.31	19.4295
1124.94	18.6495
1126.57	18.206
1128.2	16.9953
1129.83	16.1989
1131.47	15.8598
1133.1	15.0751
1134.72	13.2826
1136.36	12.0225
1137.98	13.5646
1139.62	13.6017
1141.24	13.2689
1142.87	11.7271
1144.5	11.9598
1146.13	10.8941
1147.76	10.3072
1149.38	9.4334
1151.01	8.83727
1152.64	7.61394
1154.27	6.84875
1155.89	4.74838
1157.52	2.71554
1159.14	2.1093
1160.77	2.4262
1162.39	1.31136
1164.02	0.73181
1165.64	0.908784
1167.27	1.58864
1168.89	1.1626
1170.51	2.59943
1172.14	2.78142
1173.76	2.94078
1175.38	4.32131
1177	4.73425
1178.63	5.48284
1180.25	4.6008
1181.87	5.10884
1183.49	4.46236
1185.11	5.38576
1186.73	6.45263
1188.35	5.58423
1189.97	5.66125
1191.59	7.00674
1193.21	7.75722
1194.83	8.82256
1196.45	10.5373
1198.07	10.4427
1199.68	10.2634
1201.3	11.127
1202.92	13.3048
1204.53	15.912
1206.15	17.6665
1207.77	20.6144
1209.38	21.7655
1211	23.9349
1212.62	25.8983
1214.23	26.9754
1215.84	28.3088
1217.46	30.6475
1219.07	34.0861
1220.69	34.0668
1222.3	35.621
1223.91	37.4927
1225.53	39.9765
1227.14	40.8782
1228.75	42.4358
1230.36	44.5733
1231.97	45.5806
1233.59	47.1779
1235.2	48.9952
1236.81	50.1425
1238.42	51.8756
1240.03	54.5384
1241.64	55.4226
1243.25	56.7165
1244.85	58.2397
1246.46	59.7235
1248.07	61.6319
1249.68	62.0968
1251.29	63.962
1252.9	63.6669
1254.5	63.5965
1256.11	65.2991
1257.72	63.8653
1259.32	63.7736
1260.93	63.7951
1262.54	65.0294
1264.14	65.9535
1265.75	67.0289
1267.35	66.4183
1268.96	67.3312
1270.56	68.9845
1272.16	69.0689
1273.77	68.3357
1275.37	67.7575
1276.97	67.4939
1278.57	67.8308
1280.18	68.219
1281.78	68.3908
1283.38	68.6175
1284.98	68.369
1286.58	69.2245
1288.18	69.8105
1289.78	69.9899
1291.38	70.4257
1292.99	70.099
1294.58	69.5867
1296.18	69.5641
1297.78	69.4242
1299.38	70.1618
1300.98	69.5244
1302.58	69.7638
1304.17	69.6583
1305.77	69.6671
1307.37	69.7784
1308.97	70.4132
1310.56	71.4142
1312.16	71.6204
1313.76	73.0139
1315.35	74.3413
1316.95	73.9461
1318.54	74.6156
1320.14	74.0032
1321.73	73.2521
1323.32	73.0074
1324.92	72.3289
1326.51	72.9415
1328.1	73.3846
1329.7	72.2482
1331.29	71.2933
1332.88	69.8735
1334.47	68.9295
1336.07	69.097
1337.66	67.1099
1339.25	65.8644
1340.84	66.4793
1342.43	65.9937
1344.02	64.5214
1345.61	64.0213
1347.2	63.6137
1348.79	62.4414
1350.37	60.435
1351.96	57.9705
1353.55	56.3204
1355.14	55.0124
1356.73	53.8949
1358.31	52.5132
1359.9	51.4717
1361.49	50.7325
1363.07	50.8595
1364.66	51.3953
1366.25	51.5041
1367.83	50.0808
1369.42	49.2746
1371	47.5605
1372.59	45.7428
1374.17	44.4596
1375.75	44.0396
1377.34	43.727
1378.92	43.9552
1380.5	43.1636
1382.09	42.8164
1383.67	42.6708
1385.25	43.1884
1386.83	42.459
1388.42	42.634
1390	43.0445
1391.58	42.6808
1393.16	42.0413
1394.74	41.1699
1396.32	39.7939
1397.9	40.0202
1399.48	38.6764
1401.06	38.3975
1402.64	37.3668
1404.21	37.152
1405.79	37.4098
1407.37	36.6488
1408.95	35.903
1410.53	35.9974
1412.1	36.6467
1413.68	37.0171
1415.26	38.1819
1416.83	37.8812
1418.41	38.8727
1419.98	41.1961
1421.56	40.9401
1423.13	41.1639
1424.71	42.5879
1426.28	44.5646
1427.86	44.6947
1429.43	47.6119
1431	49.0851
1432.58	52.1489
1434.15	53.6002
1435.72	55.5578
1437.29	58.3168
1438.87	60.1032
1440.44	62.3549
1442.01	64.1218
1443.58	65.9459
1445.15	66.8116
1446.72	67.1182
1448.29	67.9644
1449.86	68.0443
1451.43	67.8167
1453	67.7271
1454.57	68.3275
1456.14	68.0699
1457.71	67.0981
1459.27	66.3353
1460.84	65.8355
1462.41	64.2818
1463.98	62.5997
1465.54	60.112
1467.11	57.8579
1468.67	54.9514
1470.24	52.2421
1471.81	50.1935
1473.37	47.6445
1474.94	45.8299
1476.5	42.5368
1478.07	39.0542
1479.63	35.8182
1481.19	33.7313
1482.76	31.7876
1484.32	29.9426
1485.88	27.0695
1487.45	25.3455
1489.01	23.8734
1490.57	22.3639
1492.13	19.8687
1493.69	17.8681
1495.26	15.5851
1496.82	13.9787
1498.38	12.8737
1499.94	12.0229
1501.5	11.7715
1503.06	11.9433
1504.62	12.5835
1506.17	11.5525
1507.73	12.2469
1509.29	12.0884
1510.85	12.2182
1512.41	11.0611
1513.97	11.6476
1515.52	12.5301
1517.08	11.8868
1518.64	13.2934
1520.19	13.8422
1521.75	14.3638
1523.31	14.9448
1524.86	15.7086
1526.42	16.615
1527.97	17.1803
1529.52	17.7434
1531.08	18.4775
1532.63	20.6002
1534.19	20.6903
1535.74	21.1275
1537.29	22.637
1538.85	23.7908
1540.4	24.9095
1541.95	26.3521
1543.5	28.9124
1545.06	31.899
1546.61	34.3549
1548.16	37.3441
1549.71	40.1066
1551.26	42.3595
1552.81	44.2582
1554.36	45.5106
1555.91	47.8234
1557.46	49.0762
1559.01	51.9521
1560.56	53.5802
1562.11	55.0412
1563.65	57.1808
1565.2	59.3074
1566.75	60.3864
1568.29	61.6974
1569.84	62.9827
1571.39	64.5489
1572.94	65.9811
1574.48	66.761
1576.03	68.2668
1577.57	69.5973
1579.12	70.1064
1580.66	71.1172
1582.21	71.3652
1583.75	70.7602
1585.3	71.0146
1586.84	71.0293
1588.38	70.5429
1589.93	69.8881
1591.47	69.4347
1593.01	69.672
1594.55	68.0373
1596.1	68.2786
1597.64	67.5131
1599.18	65.7437
1600.72	64.9164
1602.26	63.7186
1603.8	62.1455
1605.34	61.4584
1606.88	60.6641
1608.42	59.6357
1609.96	58.9369
1611.5	58.5079
1613.04	59.1979
1614.58	59.5384
1616.12	59.7939
1617.65	60.691
1619.19	60.7325
1620.73	61.7911
1622.27	62.4139
1623.8	61.8938
1625.34	62.4646
1626.87	62.7556
1628.41	62.914
1629.95	63.0204
1631.48	63.8643
1633.02	64.657
1634.55	66.2112
1636.09	67.5916
1637.62	68.4385
1639.15	69.7596
1640.69	71.3862
1642.22	72.2994
1643.76	74.3157
1645.29	76.27
1646.82	78.1911
1648.35	78.6358
1649.88	79.0348
1651.42	79.1126
1652.95	80.2126
1654.48	79.8924
1656.01	78.7917
1657.54	77.9106
1659.07	76.6321
1660.6	76.7842
1662.13	75.6235
1663.66	75.0647
1665.19	73.0367
1666.72	72.0362
1668.24	70.5419
1669.77	68.2126
1671.3	65.5323
1672.83	63.2029
1674.35	60.4515
1675.88	57.1884
1677.41	54.4113
1678.93	52.3163
1680.46	49.5432
1681.99	46.3338
1683.51	43.0093
1685.04	39.9541
1686.56	37.7124
1688.09	36.0437
1689.61	33.1446
1691.13	29.048
1692.66	26.7577
1694.18	24.3602
1695.71	21.9963
1697.23	19.551
1698.75	17.9307
1700.27	15.1255
1701.8	13.1261
1703.32	11.2882
1704.84	9.9373
1706.36	9.30724
1707.88	8.26397
1709.4	7.27644
1710.92	6.26731
1712.44	5.16899
1713.96	5.69724
1715.48	5.21329
1717	4.44463
1718.52	4.75133
1720.04	4.55987
1721.56	3.73723
1723.07	3.43457
1724.59	2.36875
1726.11	2.14089
1727.63	1.92842
1729.14	1.29295
1730.66	0.564316
1732.18	0.528426
1733.69	1.40178
1735.21	1.80507
1736.72	1.73765
1738.24	0.378606
1739.75	0.697819
1741.27	-0.21083
1742.78	0.102789
1744.3	-1.07335
1745.81	-1.9952
1747.32	-1.75788
1748.84	-2.68178
1750.35	-2.68866
1751.86	-2.38803
1753.37	-1.80571
1754.89	-1.33527
1756.4	-2.00996
1757.91	-1.77385
1759.42	-1.01315
1760.93	-0.342055
1762.44	0.0397906
1763.95	0.120083
1765.46	-0.986041
1766.97	-1.18439
1768.48	0.0157401
1769.99	-0.423306
1771.5	-0.0979487
1773.01	0.0930739
1774.52	0.479645
1776.03	0.25799
1777.53	0.779237
1779.04	1.26805
1780.55	1.36996
1782.06	2.10619
1783.56	2.33602
1785.07	3.09038
1786.57	3.34507
1788.08	3.88331
1789.59	4.18201
1791.09	3.80609
1792.6	3.72998
1794.1	4.59013
1795.6	4.92008
1797.11	6.09657
1798.61	7.07718
1800.12	7.21103
1801.62	7.76916
1803.12	7.74131
1804.63	8.35902
1806.13	9.24543
1807.63	9.80444
1809.13	10.5003
1810.63	10.4056
1812.14	10.2787
1813.64	10.7267
1815.14	11.5291
1816.64	11.6996
1818.14	12.7573
1819.64	13.8216
1821.14	14.5918
1822.64	15.5133
1824.14	15.9746
1825.63	16.7792
1827.13	17.2918
1828.63	16.9729
1830.13	18.0704
1831.63	19.0499
1833.12	19.7376
1834.62	19.8992
1836.12	20.3262
1837.62	19.6321
1839.11	19.292
1840.61	19.609
1842.1	20.5433
1843.6	20.9604
1845.09	20.9792
1846.59	21.5358
1848.08	22.1006
1849.58	21.6946
1851.07	22.5172
1852.57	22.3451
1854.06	22.7494
1855.55	22.9159
1857.04	24.179
1858.54	23.9997
1860.03	23.5822
1861.52	22.7818
1863.01	22.4994
1864.5	23.724
1866	23.5165
1867.49	24.0262
1868.98	24.8987
1870.47	26.0111
1871.96	26.2669
1873.45	26.0885
1874.94	27.5594
1876.43	27.7804
1877.92	27.2781
1879.41	27.4198
1880.89	27.7348
1882.38	28.1041
1882.48	28.6617
1883.97	28.6243
1885.47	28.1934
1886.96	27.9218
1888.46	28.3941
1889.95	28.4619
1891.44	29.7379
1892.94	29.8973
1894.43	29.5632
1895.92	30.2779
1897.41	30.4011
1898.9	30.8222
1900.4	30.7023
1901.89	30.7337
1903.38	31.6819
1904.87	31.0033
1906.36	29.9752
1907.85	29.4061
1909.34	29.2863
1910.83	29.0511
1912.32	28.3396
1913.81	28.5003
1915.29	28.769
1916.78	28.9311
1918.27	28.2987
1919.76	28.1138
1921.25	27.5233
1922.74	26.2503
1924.22	26.2884
1925.71	25.7983
1927.2	25.6863
1928.68	24.719
1930.17	24.234
1931.65	23.2824
1933.14	22.6036
1934.63	22.7224
1936.11	24.3119
1937.59	24.8664
1939.08	23.5195
1940.56	24.333
1942.05	24.5504
1943.53	24.4488
1945.01	23.622
1946.5	24.0858
1947.98	24.2501
1949.46	22.994
1950.94	22.8154
1952.43	24.3003
1953.91	24.2159
1955.39	24.3832
1956.87	24.6177
1958.35	23.5587
1959.83	23.2299
1961.31	24.1236
1962.79	25.6037
1964.27	26.1067
1965.75	27.4896
1967.23	28.2678
1968.71	28.384
1970.19	28.8214
1971.67	28.8081
1973.14	29.3606
1974.62	29.2921
1976.1	28.5322
1977.58	28.8413
1979.05	28.3644
1980.53	29.0133
1982.01	29.609
1983.48	30.3972
1984.96	30.4388
1986.43	30.5992
1987.91	31.8661
1989.38	32.4517
1990.86	31.9132
1992.33	31.5968
1993.81	31.3182
1995.28	30.7238
1996.76	30.9512
1998.23	31.6737
1999.7	32.3561
2001.18	31.8063
2002.65	31.5958
2004.12	31.698
2005.59	31.6488
2007.06	31.2713
2008.54	30.5598
2010.01	29.8847
2011.48	27.8368
2012.95	27.642
2014.42	28.0155
2015.89	27.114
2017.36	26.8643
2018.83	26.3599
2020.3	26.3415
2021.77	25.3598
2023.24	25.885
2024.71	25.7567
2026.17	25.2627
2027.64	24.0208
2029.11	23.9217
2030.58	22.5747
2032.04	22.1711
2033.51	22.8661
2034.98	24.3082
2036.45	24.5792
2037.91	24.2322
2039.38	24.4312
2040.84	23.7927
2042.31	23.3995
2043.77	23.6462
2045.24	24.541
2046.7	24.8464
2048.17	24.7335
2049.63	25.0697
2051.1	26.6848
2052.56	27.485
2054.02	28.558
2055.48	29.1142
2056.95	30.2248
2058.41	30.9452
2059.87	31.3643
2061.33	31.8145
2062.8	32.6674
2064.26	33.4456
2065.72	34.1277
2067.18	34.586
2068.64	35.0484
2070.1	36.2034
2071.56	37.4264
2073.02	37.9034
2074.48	36.9882
2075.94	37.1779
2077.4	37.0846
2078.86	37.0499
2080.31	36.8073
2081.77	36.979
2083.23	36.8317
2084.69	37.1597
2086.14	36.8667
2087.6	36.4419
2089.06	35.8984
2090.52	36.5473
2091.97	35.8716
2093.43	35.6281
2094.88	35.8236
2096.34	36.489
2097.79	35.6642
2099.25	34.715
2100.7	35.3084
2102.16	35.8611
2103.61	36.794
2105.07	38.6569
2106.52	39.3073
2107.97	39.6423
2109.43	40.221
2110.88	40.8597
2112.33	42.468
2113.78	43.209
2115.24	45.1119
2116.69	46.7091
2118.14	49.3282
2119.59	51.2937
2121.04	51.9575
2122.49	53.7331
2123.94	55.2732
2125.39	57.7471
2126.84	59.3352
2128.29	61.25
2129.74	62.4222
