#Acq. time (s)=	45
#Accumulations=	2
#Range (cm-¹)=	200...3150
#Windows=	2
#Auto scanning=	Off
#Autofocus=	Off
#Macrospot=	Off
#AutoExposure=	Off
#Spike filter=	Multiple accum.
#Delay time (s)=	0
#Binning=	1
#Readout mode=	Signal
#DeNoise=	Off
#ICS correction=	On
#Dark correction=	Off
#Inst. Process=	Off
#Detector Gain=	Best Dynamic Range
#Detector ADC=	20 kHz       
#Detector temperature (°C)=	-69.85
#Instrument=	LabRAM HR Evol
#Detector=	Synapse
#Objective=	x100
#Grating=	600 gr/mm
#ND Filter=	100%
#Laser (nm)=	532 
#Hole=	100.021
#Range=	Auto
#Laser Pol.=	No
#Raman. Pol.=	No
#Laser Pol. (°)=	-0.0007625
#Raman Pol. (°)=	89.9995
#Collection=	Microscope
#StageXY=	Marzhauser
#StageZ=	Marzhauser
#X (µm)=	1971.3
#Y (µm)=	-46.1
#Z (µm)=	425.55
#Full time(mm:ss)=	3:18
#Project=	
#Sample=	
#Site=	
#Title=	Thy_40_11_21_2x_45s_532 nm_x100_100%_600 gr_mm
#Remark=	
#Date=	05.07.2022 11:21
#Acquired=	05.07.2022 11:21:20
#Base:Fit=	10.08.2022 10:01:35
#Base:Sub=	10.08.2022 10:01:52
#Filter:Polynom=	16.08.2022 10:21:53
#AxisType[0]=Intens
#AxisUnit[0]=Cnt
#AxisType[1]=Spectr
#AxisUnit[1]=1/cm
200.43	46.4779
202.244	38.864
204.059	31.8831
205.873	27.1876
207.688	22.7935
209.501	19.165
211.314	16.3208
213.127	14.5194
214.941	12.6903
216.753	11.3046
218.564	9.71026
220.375	8.41929
222.186	7.66975
223.999	6.86821
225.809	6.33143
227.618	5.3707
229.428	6.08655
231.236	5.52129
233.045	5.38984
234.855	5.35894
236.663	5.2934
238.471	5.34741
240.278	5.85712
242.085	5.53827
243.891	5.16354
245.698	5.4853
247.503	6.43157
249.309	7.02162
251.116	8.43858
252.921	8.80266
254.725	8.93413
256.529	9.05807
258.333	9.21183
260.136	9.74189
261.939	10.1065
263.742	9.82053
265.544	9.44828
267.346	9.8416
269.148	8.91065
270.949	8.48478
272.75	7.98421
274.55	7.70835
276.351	8.31495
278.15	7.24044
279.95	7.13557
281.749	6.96779
283.548	6.98307
285.346	5.57928
287.144	4.85127
288.942	4.29926
290.739	4.59169
292.536	5.82697
294.333	5.82357
296.129	5.27169
297.925	5.36162
299.721	4.74149
301.514	4.66083
303.309	4.33707
305.104	3.58132
306.898	3.22006
308.692	3.02579
310.486	3.23399
312.279	3.97705
314.072	4.1368
315.862	4.18526
317.654	3.99041
319.446	4.4843
321.238	4.53794
323.029	4.94087
324.819	5.43077
326.608	5.80117
328.398	5.7598
330.188	5.79911
331.977	5.4591
333.766	5.46872
335.553	5.51191
337.341	5.85105
339.129	6.13273
340.917	7.13149
342.704	7.71001
344.489	7.0265
346.275	6.93884
348.062	7.84389
349.845	7.29539
351.631	6.96014
353.416	6.84147
355.201	7.20433
356.984	7.68806
358.768	6.76656
360.552	7.04507
362.333	6.91687
364.116	6.49545
365.899	6.45592
367.68	6.56203
369.462	6.02597
371.243	6.04526
373.023	5.84789
374.804	5.74389
376.585	6.65874
378.363	6.67436
380.143	7.00436
381.923	6.71986
383.7	6.05881
385.479	5.01969
387.256	4.20246
389.034	3.62152
390.812	3.82398
392.588	4.1752
394.365	4.69499
396.14	4.24567
397.916	3.49884
399.691	4.06091
401.467	3.9002
403.24	3.40047
405.015	3.41114
406.788	3.24297
408.563	4.0158
410.335	4.43152
412.109	4.3085
413.88	4.84534
415.654	4.18842
417.424	4.07121
419.197	4.632
420.967	4.73342
422.739	4.59117
424.508	5.095
426.279	5.33472
428.048	5.10002
429.819	5.34457
431.587	4.66844
433.356	4.80758
435.124	4.72613
436.891	5.11742
438.66	4.15288
440.426	4.57168
442.194	4.79031
443.96	5.61027
445.725	5.7546
447.492	6.08491
449.257	6.18045
451.021	6.02112
452.787	6.03213
454.551	5.95907
456.314	5.94758
458.079	5.36345
459.842	6.03202
461.604	6.27571
463.368	6.6543
465.13	7.19887
466.891	6.93892
468.654	6.7902
470.415	7.44803
472.175	6.89658
473.935	6.802
475.696	7.42146
477.456	8.04763
479.215	8.69755
480.973	8.43165
482.733	8.22694
484.491	7.18388
486.249	7.62049
488.006	8.59163
489.765	8.62655
491.522	9.73438
493.278	10.4023
495.034	10.6283
496.789	11.1958
498.544	11.7925
500.301	13.268
502.056	13.8788
503.81	14.2239
505.564	15.1402
507.317	15.7716
509.071	15.6512
510.825	15.6922
512.578	15.6684
514.33	15.3496
516.082	15.497
517.833	15.6707
519.585	15.3603
521.335	15.3236
523.086	14.9342
524.836	15.8438
526.586	15.6711
528.335	16.4996
530.085	16.6617
531.835	16.3525
533.584	16.6538
535.332	15.9273
537.08	14.6395
538.827	14.4019
540.574	14.74
542.321	14.1577
544.068	14.5117
545.814	14.1831
547.56	14.5306
549.305	13.7571
551.05	12.9645
552.795	12.6431
554.54	11.7615
556.282	11.5256
558.025	11.0304
559.769	9.91556
561.512	9.15402
563.255	8.51268
564.997	8.37389
566.739	7.3843
568.481	6.65483
570.223	6.86471
571.964	6.96603
573.705	6.51454
575.443	6.08722
577.183	7.11961
578.923	7.2217
580.663	7.29284
582.402	7.42602
584.141	7.78313
585.879	7.74826
587.615	7.6112
589.353	6.47541
591.09	6.10581
592.828	6.32823
594.564	6.57422
596.299	6.54159
598.035	6.82882
599.771	6.80177
601.506	6.73414
603.242	6.92884
604.974	7.84656
606.709	8.45291
608.443	9.38684
610.177	11.3011
611.908	11.9658
613.642	12.5667
615.374	13.6301
617.105	13.9705
618.837	14.3578
620.569	16.3617
622.3	16.553
624.03	17.4676
625.761	18.109
627.491	19.6966
629.219	20.6939
630.949	21.1643
632.677	20.8969
634.406	21.796
636.135	21.5221
637.861	22.5633
639.59	22.2461
641.318	22.5494
643.043	23.0632
644.77	22.7746
646.495	23.2251
648.222	23.5058
649.948	24.4284
651.672	25.0843
653.398	24.7881
655.121	25.2973
656.846	25.8339
658.569	25.641
660.293	25.1873
662.015	26.0676
663.738	26.6411
665.46	26.7088
667.183	26.7269
668.903	27.3396
670.626	26.9827
672.346	27.596
674.067	29.3674
675.787	29.6406
677.508	30.8366
679.226	32.1612
680.947	32.1568
682.665	32.8483
684.385	33.3659
686.102	33.6678
687.821	34.5224
689.538	35.1629
691.254	36.0009
692.972	37.0038
694.688	37.7418
696.406	38.9115
698.121	39.4749
699.835	40.4687
701.552	41.0049
703.266	41.3724
704.98	43.2194
706.695	44.9338
708.409	46.0192
710.121	46.5591
711.836	47.392
713.548	47.822
715.26	48.3961
716.973	48.3916
718.685	48.6594
720.396	49.22
722.108	49.1375
723.818	50.0756
725.528	49.417
727.238	49.9613
728.949	50.9195
730.658	51.8746
732.367	53.1132
734.075	53.6526
735.785	54.9831
737.493	55.2665
739.2	55.62
740.907	56.5662
742.614	57.4815
744.322	57.7497
746.028	58.1065
747.734	58.8583
749.439	60.1278
751.144	61.1474
752.849	62.1314
754.555	63.6611
756.26	63.5494
757.963	65.4588
759.667	66.1596
761.37	65.8723
763.073	67.4189
764.775	69.0427
766.477	69.4637
768.179	70.8664
769.883	71.812
771.584	72.7319
773.285	73.9237
774.986	75.0901
776.686	75.788
778.386	77.6791
780.085	78.6751
781.785	79.6607
783.484	80.0046
785.182	80.7013
786.881	80.9266
788.579	81.8379
790.276	82.6665
791.974	83.5979
793.671	83.7182
795.367	82.9442
797.064	84.2072
798.76	85.357
800.456	85.9445
802.151	85.6965
803.846	85.7925
805.541	86.3907
807.234	86.3604
808.928	87.4248
810.622	87.8817
812.315	88.3858
814.008	88.8841
815.701	89.6144
817.394	89.8375
819.086	89.7505
820.778	90.3798
822.468	90.4975
824.159	90.7344
825.85	91.2003
827.541	90.6265
829.231	90.4274
830.921	90.4942
832.609	90.3813
834.298	90.6939
835.987	89.9071
837.676	89.8064
839.364	89.0626
841.051	88.0582
842.738	87.6759
844.426	86.4039
846.113	85.58
847.798	84.6299
849.484	83.9428
851.171	81.7991
852.857	80.9134
854.54	79.0777
856.226	77.5814
857.911	76.6936
859.593	74.8545
861.278	72.9649
862.961	72.8003
864.645	70.2353
866.327	68.7667
868.01	66.9495
869.692	66.0723
871.373	64.7887
873.055	64.4446
874.735	63.318
876.416	62.8656
878.097	61.5144
879.776	61.1947
881.457	61.7407
883.135	60.4862
884.815	59.2519
886.495	59.0131
888.172	59.1371
889.851	59.7178
891.528	59.0933
893.206	59.3045
894.882	58.9038
896.56	58.2749
898.237	58.8389
899.912	59.6476
901.589	59.7898
903.263	59.328
904.94	59.6041
906.614	59.4289
908.289	59.0491
909.962	58.388
911.635	58.006
913.31	58.1137
914.982	58.1465
916.656	57.379
918.328	57.1244
920.001	56.181
921.672	55.8729
923.345	55.6613
925.015	55.3534
926.685	54.9953
928.357	54.2553
930.026	53.4394
931.698	51.8398
933.366	51.0575
935.035	49.8808
936.705	49.4775
938.373	48.7873
940.041	48.9109
941.71	47.7116
943.377	46.5458
945.044	45.5562
946.712	44.9696
948.378	44.1616
950.044	44.6228
951.709	44.7381
953.376	45.6562
955.041	45.4924
956.706	44.4867
958.372	43.4611
960.036	42.6162
961.699	42.5337
963.362	42.4404
965.027	42.6459
966.69	42.2347
968.352	42.2085
970.014	41.9747
971.676	42.0297
973.339	41.7051
975	41.0847
976.661	41.0729
978.322	41.5364
979.982	42.0114
981.642	42.6263
983.303	42.0091
984.962	41.3986
986.621	40.4284
988.28	40.2961
989.938	39.8902
991.596	40.1781
993.254	39.8485
994.911	40.3412
996.57	39.8057
998.227	39.8419
999.884	39.0239
1001.54	39.0151
1003.2	38.9662
1004.85	38.772
1006.51	38.1498
1008.16	37.4842
1009.82	36.7712
1011.47	35.421
1013.12	34.7384
1014.78	34.3637
1016.43	33.9574
1018.08	34.3509
1019.74	34.2521
1021.39	33.9067
1023.04	33.2287
1024.69	32.2499
1026.34	32.8686
1028	32.5534
1029.65	33.3052
1031.3	33.0515
1032.95	32.9685
1034.6	32.755
1036.25	31.7569
1037.9	30.4613
1039.54	29.552
1041.19	29.2511
1042.84	29.1933
1044.49	30.2578
1046.14	30.6359
1047.78	30.902
1049.43	30.2234
1051.08	29.9879
1052.72	29.2804
1054.37	28.9031
1056.02	29.1897
1057.66	29.9729
1059.31	29.3438
1060.95	29.5484
1062.6	29.2179
1064.24	28.3291
1065.88	27.147
1067.53	27.1513
1069.17	27.2971
1070.81	26.8286
1072.45	26.3604
1074.1	25.8458
1075.74	24.494
1077.38	24.042
1079.02	23.424
1080.66	23.7377
1082.3	22.9184
1083.94	22.3221
1085.58	21.3536
1087.22	20.4278
1088.86	19.8523
1090.5	19.7957
1092.14	19.1671
1093.78	18.8776
1095.42	18.428
1097.05	18.5163
1098.69	17.616
1100.33	17.6222
1101.96	17.3971
1103.6	16.5007
1105.24	16.4191
1106.87	15.9931
1108.51	16.1262
1110.14	15.6557
1111.78	15.1416
1113.41	14.1689
1115.05	14.1311
1116.68	13.8993
1118.31	13.8003
1119.95	13.8257
1121.58	13.8599
1123.21	13.746
1124.85	13.4948
1126.48	13.6562
1128.11	13.4633
1129.74	12.6432
1131.37	11.5055
1133	11.8152
1134.63	12.2372
1136.26	12.9376
1137.89	13.0462
1139.52	12.1839
1141.15	11.7538
1142.78	12.1465
1144.41	11.624
1146.04	11.5456
1147.66	11.1437
1149.29	11.0915
1150.92	10.4614
1152.55	9.20921
1154.17	8.75611
1155.8	8.4789
1157.43	7.74808
1159.05	7.88665
1160.68	7.6976
1162.3	7.29572
1163.93	6.09403
1165.55	5.7633
1167.17	5.22754
1168.8	4.96667
1170.42	4.78661
1172.05	4.25115
1173.67	3.56381
1175.29	3.33263
1176.91	2.41896
1178.54	2.93701
1180.16	2.74494
1181.78	3.21839
1183.4	3.8807
1185.02	3.70602
1186.64	4.21624
1188.26	4.13945
1189.88	4.55505
1191.5	4.69003
1193.12	4.07698
1194.74	4.61848
1196.36	5.20025
1197.97	5.21548
1199.59	5.74686
1201.21	6.02325
1202.83	7.42135
1204.44	8.4376
1206.06	8.96997
1207.68	10.7271
1209.29	11.5106
1210.91	11.7536
1212.52	13.8194
1214.14	15.1602
1215.75	15.966
1217.37	16.454
1218.98	17.5592
1220.59	18.3607
1222.21	19.939
1223.82	21.5657
1225.43	23.215
1227.05	23.9183
1228.66	25.1276
1230.27	25.9594
1231.88	27.1578
1233.49	27.9347
1235.1	28.4928
1236.72	29.1249
1238.33	29.5709
1239.94	29.8983
1241.55	30.383
1243.16	30.674
1244.76	31.4163
1246.37	31.2735
1247.98	31.9475
1249.59	32.6467
1251.2	33.6427
1252.8	33.8678
1254.41	34.7149
1256.02	35.6466
1257.62	36.273
1259.23	36.6692
1260.84	36.758
1262.44	36.7073
1264.05	36.646
1265.66	36.6177
1267.26	37.4419
1268.86	37.8344
1270.47	37.5573
1272.07	37.3847
1273.67	37.2573
1275.28	37.794
1276.88	38.5351
1278.48	39.7904
1280.09	40.8587
1281.69	41.5096
1283.29	41.8961
1284.89	41.49
1286.49	42.0554
1288.09	42.9976
1289.69	43.4376
1291.29	44.1674
1292.89	45.5788
1294.49	45.2502
1296.09	46.0006
1297.69	46.5386
1299.29	47.6925
1300.89	47.7737
1302.49	49.0173
1304.08	50.0964
1305.68	50.469
1307.28	49.5448
1308.88	50.5523
1310.47	50.1828
1312.07	50.0741
1313.66	49.5892
1315.26	49.4466
1316.85	49.7159
1318.45	50.1239
1320.04	50.2294
1321.64	50.3669
1323.23	50.6819
1324.83	50.9292
1326.42	49.9732
1328.01	49.7915
1329.61	49.7669
1331.2	48.8144
1332.79	48.0827
1334.38	48.0812
1335.97	47.9654
1337.56	46.9771
1339.16	45.9706
1340.75	45.9057
1342.34	45.0503
1343.93	44.7896
1345.52	44.4537
1347.11	44.1999
1348.7	42.2259
1350.29	40.5966
1351.87	40.2896
1353.46	40.0499
1355.05	39.5261
1356.64	39.3707
1358.22	39.0177
1359.81	38.0629
1361.4	37.2076
1362.98	36.4949
1364.57	35.6044
1366.16	35.689
1367.74	34.4863
1369.33	33.6274
1370.91	32.211
1372.5	30.9856
1374.08	29.9827
1375.67	29.1705
1377.25	28.4338
1378.83	28.0023
1380.41	26.9995
1382	26.3448
1383.58	25.2217
1385.16	24.5506
1386.74	23.6986
1388.33	23.5679
1389.91	22.8346
1391.49	22.3431
1393.07	22.5602
1394.65	22.0466
1396.23	22.0923
1397.81	22.1736
1399.39	21.6189
1400.97	20.777
1402.55	21.1918
1404.13	20.9557
1405.7	20.7064
1407.28	21.8857
1408.86	22.8274
1410.44	22.758
1412.01	24.0166
1413.59	24.5537
1415.17	24.9518
1416.74	25.9002
1418.32	26.7895
1419.89	28.6277
1421.47	30.1005
1423.04	31.5287
1424.62	32.7009
1426.19	34.2445
1427.77	35.4828
1429.34	37.5541
1430.91	39.8996
1432.49	41.8434
1434.06	43.5388
1435.63	44.8504
1437.2	46.7071
1438.78	47.4001
1440.35	47.9738
1441.92	48.3939
1443.49	48.4511
1445.06	49.3556
1446.63	49.0939
1448.2	49.4112
1449.77	49.8198
1451.34	50.1536
1452.91	50.7319
1454.48	50.4339
1456.05	50.0978
1457.62	49.1394
1459.18	48.3377
1460.75	47.4114
1462.32	46.2254
1463.89	45.498
1465.45	44.4471
1467.02	43.393
1468.59	42.1041
1470.15	40.3914
1471.72	39.0264
1473.28	36.9088
1474.85	35.072
1476.41	33.4158
1477.98	31.6787
1479.54	29.961
1481.1	29.0827
1482.67	27.7229
1484.23	25.9791
1485.79	24.8613
1487.36	22.638
1488.92	21.5813
1490.48	20.5194
1492.04	18.6453
1493.61	18.1507
1495.17	17.7967
1496.73	16.5327
1498.29	16.0552
1499.85	15.9804
1501.41	14.5365
1502.97	14.5072
1504.53	14.2187
1506.09	14.2184
1507.65	13.6215
1509.2	13.8155
1510.76	13.8443
1512.32	13.168
1513.88	12.721
1515.43	12.8087
1516.99	12.6377
1518.55	12.102
1520.1	11.707
1521.66	12.306
1523.22	12.5663
1524.77	13.2473
1526.33	13.895
1527.88	14.5764
1529.44	15.0239
1530.99	15.4966
1532.54	15.8761
1534.1	16.0802
1535.65	16.4642
1537.21	17.6956
1538.76	18.5845
1540.31	19.6283
1541.86	20.4141
1543.42	21.5472
1544.97	22.502
1546.52	23.2025
1548.07	23.9104
1549.62	24.2276
1551.17	24.7469
1552.72	26.1441
1554.27	27.0567
1555.82	27.8865
1557.37	28.166
1558.92	29.3119
1560.47	29.4424
1562.02	29.6108
1563.56	30.6157
1565.11	31.2735
1566.66	31.9233
1568.21	32.2045
1569.75	32.6834
1571.3	34.2664
1572.85	35.5473
1574.39	35.9967
1575.94	36.9282
1577.49	37.8038
1579.03	38.0641
1580.57	39.4191
1582.12	39.5849
1583.66	40.0921
1585.21	40.4565
1586.75	40.634
1588.3	40.1592
1589.84	39.487
1591.38	40.3463
1592.92	40.1948
1594.47	40.2073
1596.01	39.2549
1597.55	40.4445
1599.09	40.8967
1600.63	40.414
1602.17	39.8626
1603.71	39.9741
1605.25	39.6395
1606.79	39.4893
1608.33	38.9354
1609.87	38.57
1611.41	38.5713
1612.95	38.525
1614.49	39.0307
1616.03	39.2398
1617.57	39.2897
1619.1	39.1263
1620.64	40.1086
1622.18	40.0029
1623.72	39.724
1625.25	39.194
1626.79	38.7457
1628.32	39.4592
1629.86	40.0883
1631.39	39.9675
1632.93	40.7736
1634.46	40.7203
1636	42.0268
1637.53	42.6433
1639.07	43.4065
1640.6	44.3796
1642.13	44.9191
1643.67	45.9731
1645.2	46.8801
1646.73	48.2192
1648.26	48.9888
1649.8	49.7367
1651.33	49.7745
1652.86	50.6144
1654.39	51.142
1655.92	51.5716
1657.45	51.4817
1658.98	50.6535
1660.51	50.4842
1662.04	49.7827
1663.57	48.6548
1665.1	47.9685
1666.63	47.293
1668.16	46.981
1669.68	44.8746
1671.21	43.3428
1672.74	42.1067
1674.27	41.6557
1675.79	39.8791
1677.32	38.3038
1678.85	36.5793
1680.37	35.3253
1681.9	33.1667
1683.42	31.7562
1684.95	30.3912
1686.47	29.4275
1688	27.9751
1689.52	26.473
1691.05	25.2819
1692.57	24.1855
1694.09	22.263
1695.62	20.4413
1697.14	18.5397
1698.66	16.6372
1700.18	15.144
1701.71	13.3071
1703.23	12.6185
1704.75	11.5754
1706.27	10.6452
1707.79	9.49186
1709.31	9.18047
1710.83	8.43334
1712.35	8.21775
1713.87	7.48637
1715.39	6.56259
1716.91	6.29416
1718.43	5.77261
1719.95	5.56499
1721.47	4.86508
1722.99	4.47622
1724.5	4.04712
1726.02	3.92419
1727.54	3.60222
1729.06	3.29559
1730.57	2.99147
1732.09	2.57621
1733.61	2.2394
1735.12	1.43497
1736.64	1.45465
1738.15	0.998829
1739.67	0.936127
1741.18	0.807215
1742.7	0.740137
1744.21	0.941556
1745.72	0.784518
1747.24	1.06293
1748.75	1.63023
1750.26	1.85288
1751.77	1.9285
1753.29	1.70704
1754.8	1.37513
1756.31	1.27199
1757.82	1.8599
1759.33	2.12518
1760.84	1.95944
1762.36	2.06907
1763.87	1.71119
1765.38	1.60661
1766.89	1.62419
1768.4	1.17512
1769.91	0.517289
1771.41	0.414754
1772.92	0.523399
1774.43	1.32324
1775.94	1.68216
1777.45	1.6408
1778.95	2.3619
1780.46	2.32324
1781.97	2.91877
1783.48	3.08309
1784.98	3.30994
1786.49	3.02242
1787.99	3.08452
1789.5	3.08459
1791.01	3.10701
1792.51	3.57707
1794.01	3.65133
1795.52	3.68124
1797.02	3.89566
1798.53	4.0872
1800.03	4.30264
1801.53	4.4462
1803.04	4.81895
1804.54	5.12366
1806.04	5.25749
1807.54	5.48956
1809.05	5.64499
1810.55	5.82064
1812.05	6.3519
1813.55	6.36561
1815.05	6.64241
1816.55	7.32009
1818.05	7.35795
1819.55	7.23895
1821.05	6.54975
1822.55	6.56974
1824.05	6.69799
1825.55	6.45671
1827.05	6.36698
1828.55	6.49055
1830.04	6.62861
1831.54	6.81219
1833.04	7.08371
1834.54	6.6838
1836.03	6.78035
1837.53	6.69985
1839.03	6.07399
1840.52	5.65455
1842.02	6.01839
1843.51	5.55958
1845.01	5.9941
1846.5	6.02141
1848	6.48855
1849.49	6.52639
1850.99	5.79404
1852.48	5.23768
1853.97	4.87352
1855.47	4.9332
1856.96	4.23855
1858.45	4.15093
1859.94	4.30257
1861.44	4.37033
1862.93	4.20135
1864.42	4.62487
1865.91	5.33495
1867.4	5.27093
1868.89	5.2821
1870.38	5.43447
1871.87	5.52988
1873.36	5.71226
1874.85	5.85448
1876.34	6.00473
1877.83	5.92991
1879.32	5.82772
1880.81	5.94632
1882.3	6.20858
1882.57	6.39132
1884.07	6.89714
1885.56	6.95333
1887.06	7.06633
1888.55	7.34116
1890.04	7.87067
1891.54	7.32476
1893.03	7.26665
1894.52	7.82575
1896.02	8.74036
1897.51	9.50597
1899	9.30078
1900.49	9.5536
1901.98	9.85111
1903.47	9.72629
1904.96	9.17156
1906.45	8.80791
1907.94	8.75681
1909.43	8.27464
1910.92	8.13588
1912.41	7.94897
1913.9	7.61582
1915.39	7.91455
1916.88	8.42011
1918.37	8.52998
1919.85	8.24601
1921.34	7.63837
1922.83	6.61544
1924.32	6.1737
1925.8	5.75662
1927.29	5.84212
1928.78	5.97826
1930.26	5.90573
1931.75	6.42582
1933.23	6.552
1934.72	6.36097
1936.2	6.65434
1937.69	7.00389
1939.17	7.12639
1940.66	6.90075
1942.14	6.80239
1943.63	6.19298
1945.11	5.30534
1946.59	5.41828
1948.07	5.11323
1949.56	4.5561
1951.04	4.34583
1952.52	4.18994
1954	4.34036
1955.48	4.81446
1956.96	5.13452
1958.45	4.87434
1959.93	3.9011
1961.41	3.90205
1962.89	3.66387
1964.37	3.75834
1965.85	4.06921
1967.32	3.97924
1968.8	3.90808
1970.28	3.40348
1971.76	2.97937
1973.24	1.74809
1974.72	1.42324
1976.19	0.987724
1977.67	0.804401
1979.15	0.72698
1980.63	1.549
1982.1	1.4543
1983.58	1.27457
1985.05	2.08476
1986.53	1.89912
1988	1.4263
1989.48	2.21128
1990.95	2.47496
1992.43	1.9107
1993.9	1.76452
1995.38	1.67063
1996.85	2.01354
1998.32	2.88117
1999.8	2.91633
2001.27	2.96711
2002.74	3.1062
2004.22	3.25448
2005.69	3.21116
2007.16	3.46313
2008.63	3.57907
2010.1	4.64706
2011.57	4.7777
2013.04	5.24521
2014.51	4.82746
2015.98	4.65864
2017.45	4.15849
2018.92	4.57712
2020.39	4.89538
2021.86	4.16247
2023.33	4.33937
2024.8	4.88063
2026.27	4.92744
2027.74	5.13018
2029.2	5.24103
2030.67	4.59457
2032.14	4.39302
2033.61	4.48039
2035.07	4.92143
2036.54	4.89236
2038.01	5.19256
2039.47	4.77507
2040.94	3.61602
2042.4	3.88643
2043.87	4.11478
2045.33	4.46309
2046.8	4.64229
2048.26	4.77691
2049.72	5.18381
2051.19	6.04762
2052.65	6.3116
2054.12	6.87565
2055.58	6.68897
2057.04	7.12156
2058.5	7.6238
2059.97	7.99717
2061.43	8.40977
2062.89	9.24635
2064.35	9.57408
2065.81	9.45822
2067.27	9.81512
2068.73	9.79792
2070.19	10.298
2071.65	10.5443
2073.11	10.7854
2074.57	11.132
2076.03	11.4231
2077.49	12.3583
2078.95	12.9386
2080.41	13.5181
2081.87	14.0398
2083.32	14.2849
2084.78	14.1448
2086.24	14.6498
2087.7	14.6751
2089.15	15.155
2090.61	14.8189
2092.07	15.3412
2093.52	15.175
2094.98	15.4753
2096.43	16.1574
2097.89	16.1181
2099.34	15.8769
2100.8	15.9641
2102.25	16.3304
2103.71	16.4934
2105.16	16.7215
2106.61	17.2955
2108.07	17.448
2109.52	17.4936
2110.97	17.9404
2112.43	18.547
2113.88	19.8239
2115.33	21.2368
2116.78	21.9778
2118.23	22.5882
2119.68	23.4902
2121.13	24.0104
2122.59	25.2464
2124.04	25.8034
2125.49	26.8453
2126.94	28.457
2128.39	29.633
2129.83	31.1199
2131.28	32.5587
2132.73	33.8278
2134.18	35.3506
2135.63	35.9117
2137.08	37.054
