#Acq. time (s)=	45
#Accumulations=	2
#Range (cm-¹)=	200...3150
#Windows=	2
#Auto scanning=	Off
#Autofocus=	Off
#Macrospot=	Off
#AutoExposure=	Off
#Spike filter=	Multiple accum.
#Delay time (s)=	0
#Binning=	1
#Readout mode=	Signal
#DeNoise=	Off
#ICS correction=	On
#Dark correction=	Off
#Inst. Process=	Off
#Detector Gain=	Best Dynamic Range
#Detector ADC=	20 kHz       
#Detector temperature (°C)=	-69.85
#Instrument=	LabRAM HR Evol
#Detector=	Synapse
#Objective=	x100
#Grating=	600 gr/mm
#ND Filter=	100%
#Laser (nm)=	532 
#Hole=	100.021
#Range=	Auto
#Laser Pol.=	No
#Raman. Pol.=	No
#Laser Pol. (°)=	-0.0007625
#Raman Pol. (°)=	89.9995
#Collection=	Microscope
#StageXY=	Marzhauser
#StageZ=	Marzhauser
#X (µm)=	-5927.7
#Y (µm)=	2844.9
#Z (µm)=	-223.8
#Full time(mm:ss)=	3:19
#Project=	
#Sample=	
#Site=	
#Title=	Thy_20_09_45_2x_45s_532 nm_x100_100%_600 gr_mm
#Remark=	
#Date=	29.06.2022 13:49
#Acquired=	29.06.2022 13:49:06
#Base:Fit=	10.08.2022 09:52:02
#Base:Fit=	10.08.2022 09:52:12
#Base:Sub=	10.08.2022 09:54:21
#Filter:Polynom=	16.08.2022 10:24:04
#AxisType[0]=Intens
#AxisUnit[0]=Cnt
#AxisType[1]=Spectr
#AxisUnit[1]=1/cm
200.523	47.1044
202.339	43.0865
204.154	38.8457
205.967	36.6
207.781	34.1913
209.596	32.1453
211.409	30.2368
213.222	28.8727
215.034	28.4503
216.848	26.6907
218.659	25.6623
220.47	25.8
222.281	25.9322
224.091	24.6894
225.903	23.8475
227.713	23.4317
229.522	23.0899
231.331	22.4572
233.14	20.6341
234.948	20.1284
236.756	20.1163
238.566	18.584
240.373	18.2616
242.18	17.7898
243.986	17.1962
245.792	16.5055
247.598	15.5454
249.403	15.1229
251.208	14.0768
253.013	12.8727
254.818	12.6403
256.624	11.5426
258.427	11.5755
260.231	11.7999
262.034	10.7321
263.836	9.51656
265.638	8.73172
267.44	8.28052
269.242	7.43331
271.043	6.49506
272.844	5.54747
274.645	5.71516
276.445	5.56409
278.245	4.71283
280.044	3.46741
281.843	3.38034
283.642	3.01556
285.44	2.47037
287.238	2.30644
289.036	2.53157
290.833	3.55362
292.63	4.29583
294.425	4.22917
296.221	3.60663
298.017	4.26059
299.813	4.48099
301.608	5.542
303.403	6.92571
305.198	7.8732
306.992	7.82803
308.786	9.52402
310.579	10.5368
312.371	10.6915
314.163	11.0377
315.956	11.6023
317.748	12.3776
319.54	12.1628
321.331	12.0509
323.122	12.1291
324.911	12.9009
326.701	12.3585
328.491	11.8937
330.281	12.6379
332.071	11.9964
333.857	11.7063
335.646	11.3198
337.434	10.3868
339.222	9.7667
341.008	9.65331
342.795	9.8954
344.582	8.48915
346.369	7.82515
348.153	8.82396
349.939	7.9937
351.724	6.84753
353.51	6.61043
355.292	7.01612
357.077	6.38374
358.861	5.53065
360.643	5.47203
362.426	5.07974
364.21	4.73515
365.99	4.33323
367.773	3.57596
369.555	3.51869
371.335	3.36457
373.116	2.5102
374.897	2.73168
376.676	2.39896
378.456	2.60737
380.236	2.77549
382.014	2.45657
383.793	2.9666
385.57	3.23436
387.349	4.7473
389.127	5.3927
390.903	6.36592
392.681	6.37902
394.456	5.82995
396.233	6.53593
398.007	6.9415
399.784	6.90564
401.56	6.40048
403.333	6.69403
405.108	6.52712
406.881	6.52672
408.656	5.94709
410.428	6.12404
412.202	5.81423
413.973	5.61927
415.746	5.25814
417.517	5.90935
419.29	5.95141
421.06	6.23604
422.831	6.43875
424.601	6.3727
426.37	6.08356
428.141	6.30393
429.909	6.71459
431.679	5.71413
433.447	5.19986
435.216	6.1641
436.983	5.94809
438.75	5.04329
440.519	5.25329
442.285	5.84175
444.052	4.96968
445.818	4.24739
447.583	4.52529
449.349	4.91489
451.114	4.54362
452.878	4.19264
454.643	4.90623
456.407	4.3305
458.169	3.43712
459.934	3.12984
461.696	3.07797
463.458	3.7399
465.222	3.7754
466.983	4.56099
468.744	5.07912
470.507	5.75577
472.267	6.2591
474.027	5.20286
475.787	6.4954
477.548	7.47718
479.307	7.86537
481.065	8.38199
482.823	8.55752
484.583	9.31978
486.341	8.68537
488.098	8.58643
489.855	8.74781
491.612	9.17591
493.37	9.69105
495.126	10.2004
496.881	10.239
498.636	10.7258
500.391	11.4603
502.148	12.6942
503.902	12.5039
505.656	13.2414
507.409	13.5885
509.162	13.8482
510.915	13.7488
512.668	13.6601
514.42	13.4091
516.174	13.7204
517.925	12.8196
519.676	12.3151
521.427	12.2783
523.178	13.1946
524.928	13.1048
526.678	13.8995
528.427	13.9114
530.176	13.8413
531.925	13.0819
533.673	13.2343
535.422	13.3905
537.169	13.2853
538.917	12.6331
540.664	11.5713
542.411	11.1951
544.157	10.6935
545.903	10.7672
547.649	10.9077
549.395	10.8282
551.14	10.8505
552.884	10.5616
554.629	10.851
556.373	11.1761
558.117	11.0617
559.86	11.4818
561.603	11.0081
563.346	11.793
565.089	11.1283
566.831	8.88859
568.573	8.02018
570.314	7.07074
572.053	6.7647
573.794	6.24605
575.534	5.65742
577.274	5.94548
579.014	6.41506
580.754	7.22818
582.493	7.00758
584.23	6.67383
585.968	6.98081
587.706	7.00151
589.444	7.18332
591.181	6.44817
592.919	6.8304
594.653	7.06976
596.39	6.63387
598.126	6.86988
599.862	7.42191
601.595	7.89667
603.33	8.24955
605.065	7.70698
606.8	8.40416
608.532	9.70108
610.266	11.3553
611.999	12.3578
613.732	13.3901
615.463	13.3531
617.196	13.9067
618.928	14.3601
620.66	14.9964
622.389	15.0736
624.12	15.5171
625.851	15.4446
627.58	15.6742
629.31	16.7632
631.04	18.1248
632.767	18.1951
634.497	18.1041
636.223	18.7273
637.952	19.2323
639.68	19.7804
641.406	20.3918
643.134	20.1913
644.861	20.2516
646.586	20.55
648.312	19.878
650.037	20.5516
651.762	21.4977
653.486	22.5837
655.211	23.5316
656.936	25.1642
658.659	25.7948
660.383	26.9813
662.105	27.6814
663.829	28.7533
665.55	29.295
667.273	29.6993
668.994	30.0919
670.716	31.44
672.436	31.909
674.158	33.6703
675.877	34.7501
677.598	35.14
679.317	36.1472
681.035	36.2715
682.755	37.139
684.473	38.2752
686.192	39.5988
687.909	39.711
689.628	40.6657
691.344	41.6054
693.06	43.3345
694.778	44.7002
696.493	45.4316
698.211	45.7318
699.925	45.3458
701.64	44.8058
703.356	44.4612
705.07	44.5146
706.783	44.8318
708.498	44.7417
710.211	45.2312
711.924	45.3034
713.638	45.4026
715.35	45.4773
717.061	46.5717
718.774	46.4461
720.485	47.0439
722.196	47.819
723.906	48.3792
725.618	48.4779
727.328	48.266
729.037	48.1169
730.746	48.926
732.456	49.4456
734.165	49.7859
735.873	51.2879
737.58	51.7824
739.289	51.4509
740.997	51.9999
742.703	52.9866
744.41	52.9604
746.116	54.2192
747.823	53.4903
749.529	54.8414
751.234	56.7641
752.938	58.6783
754.643	60.144
756.347	62.464
758.051	63.4744
759.756	65.0324
761.459	65.1049
763.162	65.6971
764.865	66.8101
766.567	68.0995
768.269	70.2632
769.97	71.6803
771.671	73.1799
773.372	73.9234
775.073	76.0656
776.773	77.0266
778.473	77.8781
780.174	77.958
781.874	79.3133
783.573	79.5939
785.271	80.2943
786.97	79.7546
788.668	79.4667
790.365	80.3101
792.063	80.979
793.76	81.8431
795.456	82.5136
797.153	82.8349
798.847	83.0602
800.543	82.9602
802.238	83.6765
803.933	83.2464
805.628	83.1083
807.322	82.4169
809.017	82.2715
810.71	81.3232
812.404	80.0644
814.097	80.2045
815.79	80.1012
817.483	80.4598
819.173	79.7555
820.865	80.5181
822.556	80.0145
824.248	79.14
825.939	79.2696
827.629	78.6936
829.318	78.2864
831.008	78.7053
832.697	78.0494
834.387	78.7098
836.076	78.5003
837.765	78.0168
839.451	77.4944
841.139	77.4724
842.827	76.5061
844.514	76.2934
846.2	74.9848
847.886	74.3352
849.573	73.5562
851.259	73.0041
852.943	70.963
854.629	69.6869
856.314	68.1101
857.997	67.0247
859.682	66.3937
861.366	64.6605
863.05	63.4738
864.732	62.895
866.415	61.6419
868.098	59.8868
869.779	58.2823
871.461	55.7735
873.141	54.575
874.823	54.2148
876.505	53.4262
878.184	52.9857
879.865	51.8085
881.545	51.0113
883.223	50.273
884.903	50.1213
886.581	49.8303
888.26	49.0878
889.937	48.2073
891.616	47.4489
893.294	47.2851
894.97	47.0473
896.648	47.0969
898.323	48.3869
900	48.4486
901.675	49.2243
903.351	49.3671
905.026	49.568
906.701	49.0065
908.375	47.973
910.05	48.5347
911.723	48.3536
913.398	49.0509
915.07	49.0437
916.742	49.245
918.415	48.5757
920.087	49.1584
921.76	49.3085
923.43	48.9438
925.103	48.9694
926.773	48.1252
928.443	47.1762
930.114	45.5351
931.783	44.3367
933.454	43.2868
935.123	42.5577
936.791	42.135
938.461	41.809
940.128	40.1432
941.796	39.0799
943.464	38.1633
945.131	38.0326
946.797	37.8626
948.465	37.1716
950.131	35.7724
951.797	35.0215
953.462	33.8773
955.128	32.8147
956.793	32.5146
958.457	32.4688
960.121	31.4907
961.786	31.5086
963.45	30.4729
965.113	29.9065
966.775	29.503
968.44	29.2072
970.102	27.7528
971.763	27.3007
973.425	27.3934
975.086	28.3757
976.748	28.6478
978.409	28.9563
980.069	29.3473
981.729	29.8556
983.388	29.4183
985.048	28.9862
986.708	28.3144
988.367	27.12
990.025	26.671
991.683	26.1517
993.341	26.218
994.998	25.8836
996.655	26.2165
998.312	25.4085
999.969	24.9423
1001.62	24.5746
1003.28	25.1726
1004.94	25.3059
1006.59	24.9519
1008.25	25.1976
1009.9	24.384
1011.56	23.8529
1013.21	24.3887
1014.86	24.1292
1016.52	24.1126
1018.17	23.2694
1019.82	22.4477
1021.48	20.9669
1023.13	20.9741
1024.78	21.4263
1026.43	21.796
1028.08	22.3302
1029.73	21.9465
1031.38	21.2181
1033.03	21.4058
1034.68	20.7305
1036.33	20.1761
1037.98	19.643
1039.63	19.6564
1041.28	18.9388
1042.93	17.6037
1044.57	17.8612
1046.22	17.5339
1047.87	17.1593
1049.52	17.4096
1051.16	17.4728
1052.81	16.9921
1054.45	17.6309
1056.1	17.4385
1057.75	17.7805
1059.39	17.2765
1061.04	17.2954
1062.68	17.0146
1064.32	16.1232
1065.97	15.2172
1067.61	14.6896
1069.25	14.0533
1070.9	13.8936
1072.54	14.4355
1074.18	13.8345
1075.82	13.6735
1077.47	13.7788
1079.11	14.0889
1080.75	13.2522
1082.39	13.6016
1084.03	14.8611
1085.67	15.3009
1087.31	15.9139
1088.95	15.1802
1090.59	15.0262
1092.22	14.8583
1093.86	14.9604
1095.5	15.1116
1097.14	14.0925
1098.78	13.1489
1100.41	12.3382
1102.05	12.1262
1103.69	12.5299
1105.32	12.4393
1106.96	12.0701
1108.59	12.0801
1110.23	12.5311
1111.86	12.1938
1113.5	11.8233
1115.13	11.8121
1116.77	10.5478
1118.4	9.80238
1120.03	9.83977
1121.67	8.98443
1123.3	7.98201
1124.93	7.46491
1126.56	7.54382
1128.19	7.68338
1129.83	7.63252
1131.46	7.82806
1133.09	7.40462
1134.72	6.44566
1136.35	6.54034
1137.98	6.35539
1139.61	6.31334
1141.24	6.06439
1142.86	5.42917
1144.49	5.27172
1146.12	4.61642
1147.75	4.47481
1149.38	3.23305
1151	2.96093
1152.63	3.50134
1154.26	3.25882
1155.88	2.73369
1157.51	3.19777
1159.14	3.36977
1160.76	3.01111
1162.39	3.15104
1164.01	3.41969
1165.63	3.69139
1167.26	3.21713
1168.88	1.83043
1170.51	1.50412
1172.13	1.0382
1173.75	1.00144
1175.38	0.569374
1177	0.651431
1178.62	0.993341
1180.24	0.783047
1181.86	1.12473
1183.48	1.97966
1185.1	2.82
1186.72	3.20978
1188.34	4.28559
1189.96	4.58578
1191.58	5.00588
1193.2	4.65089
1194.82	5.55012
1196.44	5.95824
1198.06	6.70755
1199.68	7.51613
1201.29	8.79849
1202.91	9.57165
1204.53	10.886
1206.14	11.9999
1207.76	13.4429
1209.38	15.0116
1210.99	16.5396
1212.61	17.7501
1214.22	18.9246
1215.84	20.1275
1217.45	21.8729
1219.07	22.2288
1220.68	22.4468
1222.29	23.8569
1223.91	24.2417
1225.52	25.9583
1227.13	26.6869
1228.74	27.7644
1230.36	27.7078
1231.97	28.9158
1233.58	30.3442
1235.19	30.4451
1236.8	30.8473
1238.41	30.9658
1240.02	30.7551
1241.63	31.1799
1243.24	31.8895
1244.85	31.3892
1246.46	31.808
1248.07	30.8442
1249.67	30.9373
1251.28	31.3897
1252.89	31.1791
1254.5	32.1423
1256.1	32.1995
1257.71	32.8769
1259.32	33.6639
1260.92	33.864
1262.53	34.3037
1264.13	34.6924
1265.74	35.2793
1267.34	35.827
1268.95	35.8919
1270.55	35.6652
1272.15	35.9578
1273.76	36.7248
1275.36	37.5872
1276.97	38.6674
1278.57	40.0279
1280.17	40.3856
1281.77	40.867
1283.37	42.1918
1284.97	42.1419
1286.58	42.8529
1288.18	43.8176
1289.78	43.7878
1291.38	44.5709
1292.98	44.9876
1294.58	45.2032
1296.18	46.0198
1297.78	46.3766
1299.37	46.4255
1300.97	47.6789
1302.57	48.2857
1304.17	48.925
1305.77	50.5589
1307.36	50.1605
1308.96	49.8416
1310.55	49.6366
1312.15	50.2356
1313.75	51.3917
1315.34	51.4491
1316.94	51.994
1318.53	52.2253
1320.13	52.2926
1321.72	52.7588
1323.32	52.992
1324.91	53.3745
1326.5	53.1719
1328.1	53.0572
1329.69	53.8483
1331.28	53.5216
1332.87	53.3764
1334.47	53.412
1336.06	53.3745
1337.65	53.6073
1339.24	53.2771
1340.83	52.5235
1342.42	51.717
1344.01	50.7419
1345.6	49.8921
1347.19	48.9268
1348.78	46.8249
1350.37	46.567
1351.96	46.3139
1353.54	45.3353
1355.13	44.5534
1356.72	44.7037
1358.31	43.6785
1359.89	42.6804
1361.48	41.8496
1363.07	41.1147
1364.65	39.6524
1366.24	38.9216
1367.82	38.3178
1369.41	36.57
1370.99	36.3926
1372.58	36.0061
1374.16	35.3081
1375.75	35.0501
1377.33	34.0278
1378.91	33.7635
1380.5	33.5615
1382.08	32.5099
1383.66	33.0406
1385.25	32.7047
1386.83	31.9134
1388.41	31.7279
1389.99	32.1902
1391.57	33.3519
1393.15	33.5079
1394.73	32.889
1396.31	32.1133
1397.89	32.103
1399.47	32.2646
1401.05	32.3295
1402.63	32.9075
1404.21	32.6277
1405.78	31.9145
1407.36	31.9878
1408.94	32.2305
1410.52	31.6358
1412.1	31.6785
1413.67	32.3073
1415.25	32.9004
1416.82	32.5126
1418.4	33.3932
1419.98	33.842
1421.55	34.5725
1423.13	35.6532
1424.7	36.4846
1426.28	38.3361
1427.85	39.7223
1429.42	41.9244
1431	43.1609
1432.57	44.2793
1434.14	46.1944
1435.71	47.7157
1437.29	48.1269
1438.86	49.6553
1440.43	49.9028
1442	50.3993
1443.57	51.0876
1445.14	51.3664
1446.71	51.8148
1448.28	51.531
1449.85	51.8207
1451.42	51.9697
1452.99	51.8921
1454.56	51.2254
1456.13	50.1158
1457.7	50.2952
1459.26	49.9354
1460.83	49.3388
1462.4	48.6793
1463.97	47.8002
1465.54	46.8853
1467.1	46.0868
1468.67	44.9347
1470.23	43.7256
1471.8	41.9332
1473.36	40.4047
1474.93	38.9847
1476.49	37.5171
1478.06	35.0402
1479.62	33.1016
1481.19	32.1555
1482.75	30.4296
1484.31	28.5387
1485.88	28.043
1487.44	27.7559
1489	25.9606
1490.56	25.1779
1492.13	24.5898
1493.69	24.0209
1495.25	23.4056
1496.81	24.0021
1498.37	23.311
1499.93	23.1282
1501.49	22.8462
1503.05	21.9834
1504.61	22.137
1506.17	21.5745
1507.73	21.4209
1509.28	21.9481
1510.84	22.5115
1512.4	22.8978
1513.96	23.17
1515.52	23.3668
1517.07	23.7822
1518.63	24.3123
1520.19	25.3697
1521.74	26.2626
1523.3	26.5669
1524.85	27.0284
1526.41	27.3424
1527.96	27.929
1529.52	28.5361
1531.07	28.9765
1532.63	29.0156
1534.18	30.2996
1535.73	31.6826
1537.29	32.2517
1538.84	33.0399
1540.39	32.995
1541.94	34.397
1543.5	34.505
1545.05	35.653
1546.6	37.0829
1548.15	38.6741
1549.7	40.4491
1551.25	41.1892
1552.8	42.6302
1554.35	43.4925
1555.9	44.3139
1557.45	46.3686
1559	47.1402
1560.55	47.3082
1562.1	48.2265
1563.65	50.0979
1565.19	50.0203
1566.74	49.7475
1568.29	51.5013
1569.83	52.3024
1571.38	53.2283
1572.93	53.9147
1574.47	53.9633
1576.02	54.125
1577.56	54.394
1579.11	54.8728
1580.66	55.3652
1582.2	56.4003
1583.74	57.5293
1585.29	59.0548
1586.83	59.4771
1588.38	60.2825
1589.92	59.8991
1591.46	60.8097
1593.01	61.4095
1594.55	61.7936
1596.09	62.0822
1597.63	62.2794
1599.17	62.0351
1600.71	61.3883
1602.25	61.251
1603.79	60.7262
1605.34	60.541
1606.88	59.7024
1608.41	59.146
1609.95	57.6848
1611.49	56.6697
1613.03	55.1865
1614.57	54.9983
1616.11	54.2202
1617.65	53.3915
1619.18	53.8038
1620.72	52.7714
1622.26	52.9561
1623.79	52.7085
1625.33	52.5135
1626.87	52.057
1628.4	51.1535
1629.94	50.3475
1631.48	49.0192
1633.01	48.1094
1634.55	47.864
1636.08	47.1983
1637.61	47.4655
1639.15	47.3775
1640.68	47.2572
1642.21	47.0774
1643.75	47.0093
1645.28	47.3757
1646.81	46.9761
1648.34	46.728
1649.88	46.0579
1651.41	45.6926
1652.94	45.5606
1654.47	45.0656
1656	45.4643
1657.53	44.5603
1659.06	44.9416
1660.59	44.8784
1662.12	44.6812
1663.65	43.5445
1665.18	43.0541
1666.71	42.1597
1668.24	42.3039
1669.76	41.8584
1671.29	41.2708
1672.82	40.38
1674.35	39.9336
1675.87	39.1935
1677.4	38.3192
1678.93	37.4088
1680.45	35.1941
1681.98	33.5859
1683.5	31.8978
1685.03	29.8265
1686.55	28.3247
1688.08	27.29
1689.6	26.3154
1691.13	26.3129
1692.65	24.8178
1694.17	23.3018
1695.7	21.8336
1697.22	19.9557
1698.74	18.6796
1700.27	17.9159
1701.79	16.9251
1703.31	15.0948
1704.83	13.9098
1706.35	12.5046
1707.87	11.6906
1709.39	10.9963
1710.91	10.4127
1712.43	9.72134
1713.95	9.09913
1715.47	8.17203
1716.99	7.62415
1718.51	7.00392
1720.03	5.8579
1721.55	5.96021
1723.07	5.00915
1724.58	4.19067
1726.1	3.60481
1727.62	3.55812
1729.13	3.42398
1730.65	3.78275
1732.17	4.11232
1733.68	3.531
1735.2	4.24659
1736.72	3.64852
1738.23	3.22514
1739.74	3.39226
1741.26	4.11207
1742.77	4.39045
1744.29	5.1558
1745.8	5.93722
1747.32	5.44134
1748.83	5.49015
1750.34	5.91162
1751.85	6.33829
1753.37	5.63016
1754.88	5.39539
1756.39	5.07738
1757.9	5.88467
1759.41	6.18616
1760.92	6.12785
1762.44	6.58471
1763.95	6.50364
1765.46	6.93181
1766.96	7.08505
1768.47	6.39663
1769.98	6.17947
1771.49	6.20771
1773	6.29668
1774.51	6.45204
1776.02	6.78384
1777.53	6.1135
1779.03	5.48972
1780.54	5.52487
1782.05	5.58226
1783.55	5.62764
1785.06	5.5814
1786.57	5.27305
1788.07	4.99181
1789.58	4.92291
1791.08	4.4857
1792.59	4.81082
1794.09	5.46565
1795.6	5.91406
1797.1	6.5084
1798.61	6.49384
1800.11	7.47081
1801.61	7.7827
1803.12	8.52301
1804.62	9.00122
1806.12	9.73171
1807.62	9.8534
1809.12	10.2837
1810.63	10.6858
1812.13	11.0679
1813.63	11.0791
1815.13	11.8843
1816.63	12.0049
1818.13	11.7959
1819.63	11.8481
1821.13	11.3237
1822.63	10.0448
1824.13	9.83792
1825.63	9.97187
1827.13	9.73619
1828.62	9.45323
1830.12	9.70624
1831.62	9.86714
1833.12	9.48414
1834.61	9.3149
1836.11	9.21165
1837.61	9.20718
1839.1	9.44843
1840.6	9.42707
1842.09	9.51724
1843.59	9.78876
1845.09	9.13249
1846.58	8.28699
1848.08	8.08689
1849.57	7.51597
1851.06	7.06521
1852.56	6.22149
1854.05	5.49372
1855.54	4.59354
1857.04	3.91275
1858.53	3.06295
1860.02	2.9094
1861.51	2.04718
1863.01	2.42003
1864.5	3.09092
1865.99	3.70864
1867.48	4.53084
1868.97	4.71688
1870.46	4.10834
1871.95	4.70506
1873.44	4.84482
1874.93	5.55275
1876.42	5.61845
1877.91	6.28438
1879.4	6.89677
1880.89	6.81328
1882.37	6.51837
1882.46	6.8282
1883.95	6.54899
1885.45	6.27219
1886.94	6.47234
1888.43	6.6714
1889.93	6.41671
1891.42	6.33829
1892.91	6.86637
1894.41	7.73802
1895.9	8.46163
1897.39	9.62553
1898.88	10.3654
1900.37	10.0567
1901.86	10.728
1903.36	11.6192
1904.85	12.1674
1906.34	12.333
1907.83	12.746
1909.32	12.683
1910.81	12.4473
1912.29	12.439
1913.78	12.6614
1915.27	12.6477
1916.76	12.3839
1918.25	11.8184
1919.74	11.6498
1921.23	11.4793
1922.71	10.8584
1924.2	10.6336
1925.69	9.94521
1927.17	9.41325
1928.66	9.246
1930.15	9.31983
1931.63	9.34692
1933.12	9.18493
1934.6	9.13414
1936.09	9.27452
1937.57	9.21086
1939.06	8.99999
1940.54	8.77346
1942.02	8.10349
1943.51	7.53529
1944.99	7.13363
1946.47	7.11065
1947.96	7.03192
1949.44	6.73642
1950.92	6.65829
1952.4	6.49514
1953.88	5.3755
1955.37	5.02764
1956.85	5.00587
1958.33	4.58235
1959.81	4.77668
1961.29	4.71369
1962.77	4.68242
1964.25	5.40691
1965.73	6.11871
1967.21	6.98675
1968.69	6.81403
1970.16	6.33406
1971.64	6.03816
1973.12	6.11043
1974.6	6.53911
1976.08	6.5857
1977.55	6.64891
1979.03	6.44951
1980.51	6.38473
1981.98	6.09323
1983.46	6.16619
1984.94	6.49612
1986.41	6.95556
1987.89	7.54116
1989.36	7.70774
1990.84	7.52944
1992.31	8.00688
1993.79	8.13747
1995.26	8.0335
1996.73	8.63834
1998.21	8.87563
1999.68	8.41506
2001.15	8.52974
2002.63	9.04399
2004.1	9.09577
2005.57	9.25941
2007.04	9.39191
2008.51	10.055
2009.99	10.059
2011.46	9.71437
2012.93	8.66681
2014.4	8.33247
2015.87	7.4621
2017.34	7.37599
2018.81	7.54994
2020.28	7.91117
2021.75	7.75697
2023.21	7.38656
2024.68	7.15637
2026.15	6.37666
2027.62	5.95386
2029.09	6.2302
2030.56	6.5153
2032.02	6.28879
2033.49	5.98585
2034.96	5.58779
2036.42	5.58586
2037.89	5.74616
2039.36	5.43983
2040.82	4.93271
2042.29	4.50131
2043.75	4.80201
2045.22	4.6753
2046.68	5.0754
2048.14	5.0899
2049.61	4.24316
2051.07	4.51584
2052.54	5.24974
2054	4.71025
2055.46	4.9229
2056.93	5.49548
2058.39	5.90191
2059.85	6.08108
2061.31	6.61568
2062.77	6.52027
2064.23	6.48278
2065.7	7.45482
2067.16	7.67159
2068.62	7.54865
2070.08	8.02631
2071.54	8.27366
2073	8.5924
2074.46	9.07466
2075.92	9.39172
2077.38	9.22898
2078.83	9.44506
2080.29	9.25459
2081.75	8.58057
2083.21	8.11527
2084.67	7.39534
2086.12	7.6848
2087.58	8.24466
2089.04	8.5311
2090.49	8.96548
2091.95	9.04134
2093.41	9.23738
2094.86	9.66728
2096.32	8.96911
2097.77	8.86418
2099.23	8.6378
2100.68	9.57699
2102.14	9.53327
2103.59	9.1856
2105.05	8.9861
2106.5	8.94622
2107.95	9.23987
2109.41	10.0728
2110.86	10.5246
2112.31	10.8936
2113.76	10.6752
2115.21	10.7191
2116.67	10.8306
2118.12	10.9097
2119.57	11.657
2121.02	11.6093
2122.47	11.4511
2123.92	12.3131
2125.37	13.2133
2126.82	12.2219
2128.27	13.1613
2129.72	14.1228
2131.17	13.9702
2132.62	14.5146
2134.07	14.9478
2135.51	15.665
