#Acq. time (s)=	45
#Accumulations=	2
#Range (cm-¹)=	200...3150
#Windows=	2
#Auto scanning=	Off
#Autofocus=	Off
#Macrospot=	Off
#AutoExposure=	Off
#Spike filter=	Multiple accum.
#Delay time (s)=	0
#Binning=	1
#Readout mode=	Signal
#DeNoise=	Off
#ICS correction=	On
#Dark correction=	Off
#Inst. Process=	Off
#Detector Gain=	Best Dynamic Range
#Detector ADC=	20 kHz       
#Detector temperature (°C)=	-69.85
#Instrument=	LabRAM HR Evol
#Detector=	Synapse
#Objective=	x100
#Grating=	600 gr/mm
#ND Filter=	100%
#Laser (nm)=	532 
#Hole=	100.021
#Range=	Auto
#Laser Pol.=	No
#Raman. Pol.=	No
#Laser Pol. (°)=	-0.0007625
#Raman Pol. (°)=	89.9995
#Collection=	Microscope
#StageXY=	Marzhauser
#StageZ=	Marzhauser
#X (µm)=	4741.5
#Y (µm)=	-7728.2
#Z (µm)=	583.7
#Full time(mm:ss)=	3:18
#Project=	
#Sample=	
#Site=	
#Title=	Thy_30_10_14_2x_45s_532 nm_x100_100%_600 gr_mm
#Remark=	
#Date=	30.06.2022 12:27
#Acquired=	30.06.2022 12:27:34
#Base:Fit=	10.08.2022 09:58:11
#Base:Sub=	10.08.2022 09:58:44
#Filter:Polynom=	16.08.2022 10:22:53
#AxisType[0]=Intens
#AxisUnit[0]=Cnt
#AxisType[1]=Spectr
#AxisUnit[1]=1/cm
200.533	3.63478
202.348	5.66498
204.162	5.74047
205.976	5.62406
207.792	6.43415
209.605	7.06459
211.418	7.71765
213.23	8.57746
215.044	8.63124
216.856	10.3059
218.667	11.383
220.478	11.8145
222.289	11.8929
224.102	12.2423
225.912	12.9124
227.721	14.1727
229.531	14.3334
231.34	14.3244
233.148	14.2249
234.956	14.5236
236.766	14.6911
238.574	14.3889
240.381	13.4123
242.188	13.0884
243.994	12.9026
245.801	13.1004
247.606	12.7266
249.412	12.926
251.217	12.4691
253.024	11.7267
254.828	10.2828
256.632	9.44742
258.436	7.83406
260.239	8.05721
262.042	8.86598
263.845	8.65705
265.647	8.408
267.449	9.24982
269.25	9.35195
271.052	9.12588
272.852	8.63096
274.653	8.79018
276.453	8.56217
278.253	7.04066
280.052	5.52148
281.852	4.76609
283.65	5.61471
285.449	6.10606
287.247	6.38036
289.044	6.46501
290.842	7.35036
292.639	7.69241
294.436	8.46938
296.232	9.55802
298.028	9.92971
299.821	10.9311
301.617	12.4215
303.412	12.9707
305.206	13.5846
307	15.2183
308.794	14.8483
310.588	15.316
312.381	16.891
314.172	18.1503
315.964	18.427
317.756	18.56
319.548	18.5612
321.34	19.3553
323.131	20.2578
324.921	21.4703
326.71	21.701
328.5	21.6347
330.29	22.4885
332.079	23.0268
333.868	23.8915
335.654	23.7821
337.443	23.1147
339.231	22.837
341.018	22.2417
342.804	21.1794
344.591	20.4268
346.377	20.2157
348.163	19.5726
349.947	18.86
351.733	16.9792
353.518	15.172
355.303	14.6171
357.085	13.9997
358.869	12.4199
360.653	11.3348
362.435	9.65647
364.218	8.26926
366.001	7.29141
367.781	6.08834
369.563	6.18101
371.345	6.30011
373.124	6.15761
374.905	5.04963
376.686	4.66607
378.464	4.64064
380.244	5.29784
382.022	4.80989
383.801	5.37567
385.58	6.22211
387.357	6.17781
389.135	5.91578
390.911	5.54604
392.689	5.13246
394.466	5.89531
396.241	6.46243
398.018	7.24028
399.792	8.07817
401.568	9.43249
403.341	9.28961
405.117	9.28352
406.889	9.89359
408.664	11.4968
410.436	13.3297
412.21	15.182
413.981	14.7451
415.755	15.049
417.525	15.2146
419.298	15.2669
421.068	15.1532
422.84	15.2069
424.609	13.8858
426.38	13.2532
428.149	13.0529
429.919	13.1613
431.688	11.4945
433.455	11.9716
435.225	11.9356
436.992	11.2532
438.76	10.5294
440.527	9.82686
442.293	9.86963
444.06	10.2941
445.826	9.99701
447.593	9.67836
449.357	9.22707
451.122	8.14921
452.888	9.0678
454.651	9.53466
456.415	9.13802
458.18	9.93268
459.942	10.4776
461.705	11.4846
463.469	11.5022
465.23	12.3947
466.991	13.1533
468.752	13.2307
470.515	13.8145
472.275	14.7817
474.035	14.0689
475.797	14.4821
477.556	15.1304
479.315	15.9246
481.073	17.4778
482.834	18.669
484.592	20.8685
486.349	21.8751
488.106	23.2259
489.863	24.3331
491.622	24.202
493.378	24.7181
495.134	25.696
496.889	27.6317
498.645	28.4663
500.401	28.1887
502.156	27.9904
503.91	29.0377
505.664	28.9647
507.417	28.9533
509.171	29.5745
510.923	28.6523
512.678	28.8712
514.43	29.2863
516.182	28.9345
517.933	28.6277
519.684	27.7369
521.435	28.6141
523.186	27.3464
524.936	26.8377
526.686	26.6017
528.435	25.8131
530.184	25.3329
531.933	24.4526
533.682	23.6169
535.43	23.5883
537.18	22.296
538.927	21.1446
540.674	20.3183
542.421	19.2081
544.167	18.2272
545.913	17.7602
547.659	16.9154
549.403	15.1863
551.148	14.0191
552.893	12.7969
554.637	11.9359
556.381	10.6464
558.125	10.4714
559.868	8.91544
561.611	7.5826
563.354	7.74766
565.097	6.96358
566.839	7.12689
568.581	6.34577
570.322	4.99685
572.063	4.72583
573.802	3.37492
575.542	3.35845
577.283	2.59051
579.022	2.15497
580.762	2.51658
582.501	3.04013
584.24	4.06015
585.976	3.49889
587.714	3.90689
589.452	4.48744
591.19	3.69025
592.927	2.9322
594.663	2.88407
596.398	2.93801
598.134	3.14093
599.87	3.61082
601.605	3.11852
603.338	3.46162
605.073	4.27009
606.808	4.60947
608.542	6.02937
610.274	6.44379
612.007	7.68564
613.74	8.00762
615.473	7.36538
617.204	7.95873
618.936	8.70535
620.668	9.11026
622.397	8.5977
624.128	7.8813
625.859	8.43372
627.588	8.76249
629.318	9.71676
631.048	9.71085
632.775	9.79662
634.505	10.2791
636.233	9.62351
637.96	10.2827
639.688	10.3868
641.416	11.8469
643.142	12.2514
644.869	12.3728
646.594	12.1147
648.32	12.414
650.045	12.4642
651.771	12.997
653.496	12.3472
655.219	12.5532
656.944	13.5208
658.667	15.0451
660.391	17.4297
662.113	18.5033
663.837	19.312
665.558	19.9254
667.281	21.4381
669.002	21.7469
670.724	22.1468
672.444	21.5543
674.166	22.9047
675.885	22.8996
677.606	23.9386
679.325	25.2531
681.045	25.6562
682.763	26.4403
684.483	27.6477
686.2	28.0964
687.917	28.6426
689.636	29.739
691.352	29.1707
693.07	29.2767
694.786	30.9502
696.501	30.6867
698.219	31.6528
699.933	30.9568
701.65	31.0504
703.364	32.3594
705.078	31.928
706.793	31.4546
708.506	31.9196
710.219	33.2229
711.934	34.1971
713.646	34.4886
715.358	34.9524
717.071	35.1204
718.782	35.5
720.493	37.0194
722.204	37.5978
723.916	38.9709
725.626	39.8331
727.336	40.8608
729.045	41.406
730.756	41.6907
732.464	42.8058
734.173	43.3113
735.881	44.3531
737.59	44.8441
739.297	45.8154
741.004	47.0721
742.711	48.0874
744.417	49.3022
746.125	50.9952
747.831	51.0845
749.537	52.241
751.242	52.3775
752.946	54.1656
754.651	54.7476
756.357	55.8381
758.061	57.6092
759.764	59.3485
761.467	59.9481
763.17	62.3189
764.872	63.6188
766.575	63.1775
768.276	64.7292
769.978	65.9349
771.679	65.8618
773.382	66.6864
775.083	66.374
776.783	65.4646
778.483	67.6769
780.182	68.568
781.882	68.3465
783.581	69.2817
785.279	69.4164
786.978	69.8922
788.676	71.0039
790.373	70.3141
792.071	72.6663
793.768	73.9536
795.464	74.654
797.161	75.5488
798.857	76.5635
800.552	77.2038
802.248	77.8102
803.941	78.2843
805.636	78.6366
807.33	78.7934
809.024	79.7733
810.718	79.7995
812.412	80.4313
814.105	80.7649
815.798	81.6151
817.49	81.8457
819.183	82.0366
820.873	82.4776
822.564	82.7241
824.256	83.679
825.947	83.0543
827.637	84.3865
829.328	84.09
831.016	83.4976
832.705	84.0182
834.395	83.9223
836.084	83.4718
837.772	83.837
839.459	83.1632
841.147	82.795
842.835	81.84
844.522	80.9194
846.209	79.7487
847.894	79.0214
849.581	77.6846
851.267	75.11
852.953	74.064
854.637	72.5824
856.322	69.4404
858.007	68.5105
859.689	66.3653
861.374	65.8316
863.058	65.7701
864.739	63.9578
866.423	62.8367
868.106	61.608
869.787	61.2901
871.469	58.7514
873.151	57.3881
874.831	55.292
876.512	55.6655
878.193	53.508
879.872	53.4685
881.553	52.5767
883.231	51.1214
884.911	49.8835
886.591	49.2373
888.268	49.0527
889.947	49.2885
891.623	49.2226
893.302	49.2142
894.978	48.9427
896.656	49.3055
898.331	49.2186
900.008	48.5583
901.683	47.8138
903.359	48.4704
905.033	48.4556
906.709	48.5028
908.383	48.0817
910.058	48.302
911.731	48.6487
913.405	47.7126
915.078	47.9591
916.752	48.8069
918.423	48.7977
920.096	48.1717
921.768	47.4356
923.438	47.0406
925.111	46.2327
926.781	45.4019
928.452	45.7951
930.122	44.2131
931.791	44.012
933.462	44.1171
935.13	42.5885
936.799	42.4304
938.468	41.8587
940.136	41.2713
941.803	41.7608
943.472	40.388
945.139	40.0129
946.805	38.359
948.473	37.5523
950.139	37.1227
951.804	36.9389
953.471	37.7475
955.136	37.1426
956.801	37.593
958.465	37.463
960.131	37.7682
961.794	37.9238
963.458	39.4372
965.12	39.3094
966.785	40.7579
968.447	42.5706
970.109	44.421
971.771	44.7723
973.432	44.5699
975.095	45.5628
976.756	47.7457
978.417	49.2773
980.077	50.1935
981.737	51.0106
983.396	51.9845
985.057	53.7732
986.716	55.0172
988.375	54.9623
990.033	55.6
991.691	56.0769
993.349	56.8896
995.006	56.6715
996.663	56.9699
998.32	57.4852
999.976	57.0268
1001.63	57.2123
1003.29	56.3711
1004.95	56.1678
1006.6	54.9043
1008.26	55.6397
1009.91	55.7403
1011.56	54.5675
1013.22	53.4143
1014.87	53.8595
1016.53	52.6168
1018.18	50.7124
1019.83	50.35
1021.48	48.3012
1023.14	47.4501
1024.79	45.9947
1026.44	45.093
1028.09	44.9578
1029.74	43.957
1031.39	43.8372
1033.04	43.7863
1034.69	43.1432
1036.34	42.5474
1037.99	41.2363
1039.64	40.1807
1041.29	39.9935
1042.94	40.673
1044.58	41.2829
1046.23	41.7172
1047.88	41.2586
1049.52	41.454
1051.17	40.7557
1052.82	40.1216
1054.46	38.6556
1056.11	38.8467
1057.75	38.7739
1059.4	37.7885
1061.04	36.7702
1062.69	36.2513
1064.33	35.661
1065.98	34.8355
1067.62	33.8539
1069.26	33.4629
1070.9	32.9995
1072.55	32.3695
1074.19	31.6966
1075.83	31.7083
1077.47	31.0193
1079.11	30.5905
1080.76	29.5637
1082.4	29.2076
1084.04	29.3182
1085.68	28.6426
1087.32	28.1566
1088.95	27.787
1090.59	28.6814
1092.23	27.2432
1093.87	26.7167
1095.51	27.5498
1097.15	27.7277
1098.78	26.7613
1100.42	26.4933
1102.06	27.8965
1103.69	27.7251
1105.33	28.1997
1106.97	27.3083
1108.6	26.6478
1110.24	27.2057
1111.87	26.9506
1113.51	26.9422
1115.14	26.0988
1116.77	25.7804
1118.41	25.8168
1120.04	25.4076
1121.67	25.3441
1123.31	25.8087
1124.94	24.7078
1126.57	23.4718
1128.2	22.4019
1129.83	20.9051
1131.47	20.1369
1133.1	19.6526
1134.72	19.8012
1136.36	19.0055
1137.98	18.6667
1139.62	17.6646
1141.24	17.2549
1142.87	17.9965
1144.5	17.2437
1146.13	16.2295
1147.76	16.0859
1149.38	15.5607
1151.01	14.6081
1152.64	12.527
1154.27	11.4334
1155.89	10.4671
1157.52	10.2466
1159.14	9.11831
1160.77	8.17157
1162.39	7.08005
1164.02	6.00511
1165.64	5.48492
1167.27	5.08037
1168.89	5.59775
1170.51	5.64277
1172.14	5.91902
1173.76	6.67954
1175.38	8.20918
1177	7.93233
1178.63	7.93065
1180.25	7.81391
1181.87	7.5344
1183.49	7.92789
1185.11	7.31496
1186.73	7.48926
1188.35	8.51825
1189.97	9.57566
1191.59	11.5796
1193.21	11.2886
1194.83	12.5104
1196.45	13.3323
1198.07	15.7829
1199.68	17.3915
1201.3	18.7184
1202.92	21.0433
1204.53	23.5157
1206.15	24.99
1207.77	27.2337
1209.38	29.5713
1211	32.3568
1212.62	35.3634
1214.23	37.848
1215.84	40.1908
1217.46	42.1615
1219.07	45.0104
1220.69	47.529
1222.3	49.5818
1223.91	52.2984
1225.53	53.7976
1227.14	57.206
1228.75	59.2156
1230.36	60.6578
1231.97	62.0574
1233.59	64.203
1235.2	66.7078
1236.81	68.0091
1238.42	70.6274
1240.03	71.5842
1241.64	72.8529
1243.25	74.0937
1244.85	76.0919
1246.46	78.8827
1248.07	80.2543
1249.68	82.1547
1251.29	83.3969
1252.9	85.1635
1254.5	86.3816
1256.11	86.6669
1257.72	87.4865
1259.32	88.4779
1260.93	88.6677
1262.54	89.4958
1264.14	90.8774
1265.75	91.8561
1267.35	92.9039
1268.96	93.9612
1270.56	93.6632
1272.16	93.9018
1273.77	93.8921
1275.37	94.2518
1276.97	94.0774
1278.57	94.0735
1280.18	94.4127
1281.78	94.409
1283.38	96.498
1284.98	96.4266
1286.58	95.2474
1288.18	94.5304
1289.78	94.7188
1291.38	94.723
1292.99	94.5455
1294.58	94.0951
1296.18	94.6466
1297.78	95.9559
1299.38	96.1168
1300.98	96.5599
1302.58	96.854
1304.17	98.555
1305.77	99.6133
1307.37	100.208
1308.97	99.7611
1310.56	100.077
1312.16	101.028
1313.76	102.006
1315.35	102.046
1316.95	102.179
1318.54	102.702
1320.14	102.968
1321.73	103.607
1323.32	103.921
1324.92	103.729
1326.51	103.974
1328.1	103.34
1329.7	104.046
1331.29	103.301
1332.88	102.733
1334.47	101.844
1336.07	100.635
1337.66	100.247
1339.25	98.2734
1340.84	97.2421
1342.43	96.7387
1344.02	94.9608
1345.61	92.8796
1347.2	91.2563
1348.79	88.7805
1350.37	86.0045
1351.96	83.0436
1353.55	80.253
1355.14	77.4919
1356.73	75.5096
1358.31	72.9559
1359.9	70.888
1361.49	68.4586
1363.07	66.4524
1364.66	62.7584
1366.25	59.7529
1367.83	58.0706
1369.42	57.1314
1371	56.3294
1372.59	54.828
1374.17	53.0747
1375.75	52.2001
1377.34	51.8927
1378.92	50.6776
1380.5	50.4569
1382.09	49.8541
1383.67	49.2864
1385.25	48.4701
1386.83	48.3846
1388.42	48.3668
1390	48.1278
1391.58	48.9723
1393.16	47.8981
1394.74	48.5897
1396.32	48.3247
1397.9	49.1298
1399.48	49.233
1401.06	49.1378
1402.64	49.292
1404.21	49.6121
1405.79	50.052
1407.37	50.7426
1408.95	51.2807
1410.53	51.3373
1412.1	52.7994
1413.68	54.437
1415.26	55.8063
1416.83	57.6317
1418.41	60.0163
1419.98	62.7565
1421.56	64.918
1423.13	66.6906
1424.71	68.4103
1426.28	69.9253
1427.86	71.9614
1429.43	74.1637
1431	76.2055
1432.58	79.6427
1434.15	81.9447
1435.72	84.0298
1437.29	86.347
1438.87	88.6469
1440.44	91.3957
1442.01	92.6295
1443.58	94.1591
1445.15	95.0701
1446.72	95.6394
1448.29	96.3278
1449.86	95.9617
1451.43	94.8792
1453	94.6291
1454.57	94.2361
1456.14	94.1242
1457.71	92.5594
1459.27	91.1241
1460.84	89.698
1462.41	86.9025
1463.98	85.042
1465.54	82.5392
1467.11	79.1189
1468.67	75.5131
1470.24	72.3909
1471.81	68.937
1473.37	66.8856
1474.94	62.7995
1476.5	60.4157
1478.07	56.4106
1479.63	53.2068
1481.19	49.0328
1482.76	46.0123
1484.32	42.8446
1485.88	40.642
1487.45	38.5421
1489.01	36.9352
1490.57	35.771
1492.13	33.833
1493.69	32.3416
1495.26	31.1447
1496.82	29.9423
1498.38	28.9789
1499.94	28.1005
1501.5	27.83
1503.06	27.431
1504.62	26.9351
1506.17	27.3615
1507.73	27.3799
1509.29	27.7102
1510.85	28.617
1512.41	28.5976
1513.97	29.1183
1515.52	30.2341
1517.08	30.8646
1518.64	31.8723
1520.19	32.1036
1521.75	33.7285
1523.31	34.6478
1524.86	34.9688
1526.42	36.5044
1527.97	37.2335
1529.52	37.7058
1531.08	39.0494
1532.63	39.5377
1534.19	39.5867
1535.74	40.5309
1537.29	41.8673
1538.85	42.4946
1540.4	43.1145
1541.95	44.4659
1543.5	45.3007
1545.06	46.877
1546.61	48.8071
1548.16	50.7095
1549.71	53.002
1551.26	55.4472
1552.81	56.9477
1554.36	58.3446
1555.91	60.5136
1557.46	62.3875
1559.01	63.2114
1560.56	65.7144
1562.11	67.4493
1563.65	69.0035
1565.2	70.781
1566.75	71.7324
1568.29	73.0322
1569.84	74.3801
1571.39	76.043
1572.94	77.5635
1574.48	79.5199
1576.03	81.3584
1577.57	82.597
1579.12	83.799
1580.66	84.9878
1582.21	85.8759
1583.75	86.6778
1585.3	88.5183
1586.84	89.4115
1588.38	90.4711
1589.93	90.7422
1591.47	91.5461
1593.01	92.1015
1594.55	93.4264
1596.1	94.3962
1597.64	94.6555
1599.18	94.1186
1600.72	93.4723
1602.26	93.1518
1603.8	92.2569
1605.34	91.2312
1606.88	90.5385
1608.42	91.0902
1609.96	90.6994
1611.5	90.3346
1613.04	91.174
1614.58	90.1637
1616.12	90.1054
1617.65	91.6304
1619.19	92.7511
1620.73	93.6147
1622.27	94.4117
1623.8	94.7832
1625.34	96.346
1626.87	97.9663
1628.41	100.343
1629.95	101.457
1631.48	102.966
1633.02	104.215
1634.55	104.635
1636.09	106.014
1637.62	107.715
1639.15	110.08
1640.69	111.588
1642.22	114.08
1643.76	116.416
1645.29	118.744
1646.82	121.089
1648.35	122.177
1649.88	124.062
1651.42	125.903
1652.95	126.157
1654.48	126.275
1656.01	126.47
1657.54	126.895
1659.07	125.934
1660.6	124.977
1662.13	125.071
1663.66	123.631
1665.19	122.415
1666.72	121.139
1668.24	119.366
1669.77	117.183
1671.3	115.392
1672.83	112.184
1674.35	109.032
1675.88	106.599
1677.41	103.888
1678.93	101.16
1680.46	97.3897
1681.99	94.5389
1683.51	91.5827
1685.04	88.4716
1686.56	84.1
1688.09	80.4877
1689.61	76.7333
1691.13	73.3205
1692.66	70.8431
1694.18	67.416
1695.71	63.3401
1697.23	59.4975
1698.75	55.4907
1700.27	52.7764
1701.8	50.5652
1703.32	47.4152
1704.84	44.4359
1706.36	40.4941
1707.88	37.9608
1709.4	35.4079
1710.92	34.1058
1712.44	32.636
1713.96	30.9699
1715.48	30.7961
1717	29.0249
1718.52	28.5485
1720.04	27.8682
1721.56	26.5613
1723.07	25.2274
1724.59	23.7041
1726.11	22.8103
1727.63	21.5419
1729.14	19.99
1730.66	18.9144
1732.18	18.4769
1733.69	17.896
1735.21	16.8645
1736.72	16.3297
1738.24	16.552
1739.75	15.4921
1741.27	14.3477
1742.78	13.6269
1744.3	12.2158
1745.81	11.933
1747.32	11.6792
1748.84	11.4166
1750.35	12.1465
1751.86	12.8598
1753.37	12.6461
1754.89	13.0475
1756.4	12.4466
1757.91	12.0576
1759.42	11.4738
1760.93	10.734
1762.44	10.086
1763.95	10.0079
1765.46	9.3544
1766.97	9.15218
1768.48	8.49856
1769.99	7.62016
1771.5	7.56943
1773.01	7.45495
1774.52	7.1733
1776.03	7.87916
1777.53	7.81362
1779.04	7.51516
1780.55	7.67977
1782.06	8.02097
1783.56	8.81986
1785.07	8.92441
1786.57	9.00715
1788.08	9.21843
1789.59	9.25149
1791.09	9.42071
1792.6	8.41988
1794.1	8.50049
1795.6	8.33437
1797.11	7.39399
1798.61	6.96141
1800.12	6.77024
1801.62	6.07178
1803.12	5.76165
1804.63	5.61823
1806.13	5.3895
1807.63	5.28877
1809.13	4.78827
1810.63	4.09703
1812.14	3.77524
1813.64	3.66221
1815.14	2.61447
1816.64	1.77393
1818.14	1.59069
1819.64	1.33035
1821.14	1.62161
1822.64	1.49115
1824.14	0.857098
1825.63	1.29664
1827.13	1.1737
1828.63	0.856944
1830.13	0.681249
1831.63	0.132361
1833.12	-0.520126
1834.62	-0.356432
1836.12	-0.286846
1837.62	-0.765173
1839.11	-0.631769
1840.61	-1.18862
1842.1	-1.2235
1843.6	-1.01588
1845.09	-0.926451
1846.59	-0.405155
1848.08	-0.174172
1849.58	0.189967
1851.07	0.940508
1852.57	0.625873
1854.06	0.670329
1855.55	1.2476
1857.04	0.879533
1858.54	0.701365
1860.03	0.39474
1861.52	0.0777163
1863.01	0.807631
1864.5	0.503438
1866	0.449555
1867.49	0.3937
1868.98	1.23768
1870.47	1.26623
1871.96	1.17078
1873.45	1.19654
1874.94	1.92302
1876.43	2.33373
1877.92	3.02978
1879.41	3.02613
1880.89	3.19896
1882.38	2.8426
1882.48	2.42732
1883.97	3.04757
1885.47	3.20046
1886.96	3.21288
1888.46	3.50216
1889.95	3.01081
1891.44	3.29479
1892.94	2.69969
1894.43	2.58554
1895.92	2.64015
1897.41	2.69802
1898.9	3.69295
1900.4	3.81397
1901.89	4.50675
1903.38	4.88872
1904.87	4.54756
1906.36	4.21858
1907.85	5.04467
1909.34	4.88158
1910.83	4.35418
1912.32	4.36954
1913.81	4.02206
1915.29	4.89883
1916.78	4.69902
1918.27	4.30168
1919.76	4.59439
1921.25	4.52504
1922.74	5.06372
1924.22	5.29069
1925.71	4.86353
1927.2	5.15617
1928.68	5.09158
1930.17	5.39818
1931.65	5.2886
1933.14	5.63938
1934.63	5.90377
1936.11	6.42227
1937.59	6.80359
1939.08	7.18712
1940.56	7.25067
1942.05	7.52301
1943.53	7.84551
1945.01	8.92852
1946.5	9.26106
1947.98	9.57912
1949.46	9.64823
1950.94	10.1158
1952.43	9.70501
1953.91	10.2183
1955.39	10.3097
1956.87	10.6648
1958.35	10.8873
1959.83	10.4227
1961.31	10.9864
1962.79	10.4897
1964.27	10.0863
1965.75	10.1983
1967.23	10.2165
1968.71	10.9369
1970.19	11.0468
1971.67	11.1892
1973.14	11.859
1974.62	11.9583
1976.1	11.985
1977.58	11.7479
1979.05	11.1865
1980.53	11.4569
1982.01	11.9695
1983.48	11.5822
1984.96	12.0022
1986.43	11.9607
1987.91	12.4895
1989.38	12.7902
1990.86	12.1307
1992.33	12.005
1993.81	11.8627
1995.28	11.6692
1996.76	11.764
1998.23	11.3535
1999.7	10.768
2001.18	10.6665
2002.65	10.3499
2004.12	10.7444
2005.59	10.3816
2007.06	10.3681
2008.54	10.3374
2010.01	10.2836
2011.48	10.607
2012.95	10.263
2014.42	10.6236
2015.89	11.2645
2017.36	11.9835
2018.83	11.6039
2020.3	10.9448
2021.77	11.0394
2023.24	11.0514
2024.71	11.4477
2026.17	10.5081
2027.64	10.3882
2029.11	10.0759
2030.58	9.73983
2032.04	9.92823
2033.51	9.60916
2034.98	9.7036
2036.45	9.41366
2037.91	9.57082
2039.38	9.46162
2040.84	9.52789
2042.31	9.80823
2043.77	9.8849
2045.24	10.6558
2046.7	10.9294
2048.17	10.9527
2049.63	11.5397
2051.1	12.0066
2052.56	12.2462
2054.02	13.1774
2055.48	13.7036
2056.95	14.8322
2058.41	16.003
2059.87	15.6815
2061.33	16.5039
2062.8	16.39
2064.26	16.244
2065.72	16.7983
2067.18	16.9804
2068.64	17.4415
2070.1	17.7633
2071.56	18.3583
2073.02	18.531
2074.48	19.2093
2075.94	19.5142
2077.4	20.1531
2078.86	20.423
2080.31	20.9324
2081.77	22.0675
2083.23	22.3006
2084.69	22.9698
2086.14	23.9875
2087.6	25.3539
2089.06	25.2406
2090.52	25.9303
2091.97	26.408
2093.43	27.886
2094.88	28.9035
2096.34	29.663
2097.79	30.3951
2099.25	30.5586
2100.7	31.1945
2102.16	31.5191
2103.61	32.7298
2105.07	33.7032
2106.52	34.2049
2107.97	35.3193
2109.43	36.3987
2110.88	37.0104
2112.33	37.8681
2113.78	38.9829
2115.24	40.8402
2116.69	41.4278
2118.14	42.4584
2119.59	43.9234
2121.04	45.778
2122.49	47.6185
2123.94	49.2384
2125.39	51.6842
2126.84	53.7509
2128.29	55.2872
2129.74	57.4832
2131.19	59.6545
2132.64	60.8726
2134.09	63.2919
