#Acq. time (s)=	45
#Accumulations=	2
#Range (cm-¹)=	200...3150
#Windows=	2
#Auto scanning=	Off
#Autofocus=	Off
#Macrospot=	Off
#AutoExposure=	Off
#Spike filter=	Multiple accum.
#Delay time (s)=	0
#Binning=	1
#Readout mode=	Signal
#DeNoise=	Off
#ICS correction=	On
#Dark correction=	Off
#Inst. Process=	Off
#Detector Gain=	Best Dynamic Range
#Detector ADC=	20 kHz       
#Detector temperature (°C)=	-69.85
#Instrument=	LabRAM HR Evol
#Detector=	Synapse
#Objective=	x100
#Grating=	600 gr/mm
#ND Filter=	100%
#Laser (nm)=	532 
#Hole=	100.021
#Range=	Auto
#Laser Pol.=	No
#Raman. Pol.=	No
#Laser Pol. (°)=	-0.0007625
#Raman Pol. (°)=	89.9995
#Collection=	Microscope
#StageXY=	Marzhauser
#StageZ=	Marzhauser
#X (µm)=	2206.3
#Y (µm)=	1249.2
#Z (µm)=	442.3
#Full time(mm:ss)=	3:18
#Project=	
#Sample=	
#Site=	
#Title=	Thy_10_08_18_2x_45s_532 nm_x100_100%_600 gr_mm
#Remark=	
#Date=	05.07.2022 15:28
#Acquired=	05.07.2022 15:28:11
#Base:Fit=	10.08.2022 09:46:25
#Base:Sub=	10.08.2022 09:46:49
#Filter:Polynom=	16.08.2022 10:24:56
#AxisType[0]=Intens
#AxisUnit[0]=Cnt
#AxisType[1]=Spectr
#AxisUnit[1]=1/cm
200.43	36.7852
202.244	34.3767
204.059	32.2097
205.873	30.2253
207.688	27.6785
209.501	24.9294
211.314	22.6179
213.127	20.1379
214.941	17.5423
216.753	16.4389
218.564	14.9663
220.375	14.8445
222.186	12.8591
223.999	11.4013
225.809	8.99059
227.618	8.23088
229.428	8.34117
231.236	6.87324
233.045	5.23344
234.855	4.79954
236.663	3.45573
238.471	2.74457
240.278	2.99896
242.085	2.73688
243.891	1.47975
245.698	1.17472
247.503	1.69606
249.309	2.84637
251.116	3.95712
252.921	4.48719
254.725	3.85782
256.529	2.876
258.333	3.81983
260.136	3.32079
261.939	3.83995
263.742	4.65594
265.544	5.26837
267.346	5.7188
269.148	5.66519
270.949	7.1881
272.75	6.82208
274.55	5.74688
276.351	6.73151
278.15	5.91686
279.95	6.55414
281.749	6.85841
283.548	6.16096
285.346	6.28501
287.144	6.95862
288.942	8.04082
290.739	8.20427
292.536	7.47331
294.333	7.73874
296.129	7.23195
297.925	7.23836
299.721	8.57587
301.514	8.46627
303.309	8.01479
305.104	8.72185
306.898	9.58823
308.692	9.23732
310.486	9.64816
312.279	8.48593
314.072	9.15858
315.862	8.45771
317.654	8.76791
319.446	9.31696
321.238	8.43196
323.029	8.86991
324.819	10.1929
326.608	10.3652
328.398	10.8307
330.188	11.7449
331.977	11.513
333.766	11.8732
335.553	13.0512
337.341	14.1768
339.129	14.263
340.917	14.0899
342.704	14.3944
344.489	14.2059
346.275	14.7356
348.062	13.8452
349.845	13.5901
351.631	13.5248
353.416	13.7145
355.201	13.9763
356.984	12.7051
358.768	11.3187
360.552	11.0571
362.333	10.0282
364.116	9.03764
365.899	7.65991
367.68	7.0345
369.462	7.16228
371.243	6.10684
373.023	6.05971
374.804	6.46404
376.585	7.10228
378.363	6.5706
380.143	7.00246
381.923	6.34165
383.7	5.11384
385.479	3.80829
387.256	3.4215
389.034	3.61582
390.812	2.35047
392.588	4.00184
394.365	4.33628
396.14	4.28814
397.916	4.7535
399.691	4.22378
401.467	3.60989
403.24	3.79507
405.015	3.44226
406.788	4.98663
408.563	6.0342
410.335	6.23018
412.109	6.65108
413.88	7.81312
415.654	7.79292
417.424	7.87907
419.197	8.56884
420.967	8.24156
422.739	7.56331
424.508	6.89816
426.279	8.10284
428.048	7.9337
429.819	8.38148
431.587	8.70635
433.356	8.18683
435.124	8.10626
436.891	7.86762
438.66	8.70793
440.426	8.66611
442.194	8.21313
443.96	7.37347
445.725	7.11549
447.492	7.15892
449.257	7.81674
451.021	8.19751
452.787	8.43267
454.551	9.01217
456.314	10.8146
458.079	10.8383
459.842	11.456
461.604	12.8881
463.368	12.6637
465.13	14.1453
466.891	13.7231
468.654	13.6157
470.415	13.0792
472.175	12.8085
473.935	14.6505
475.696	15.2512
477.456	16.6967
479.215	17.1849
480.973	18.5371
482.733	18.1314
484.491	18.313
486.249	19.2784
488.006	18.7197
489.765	20.7015
491.522	21.4857
493.278	22.2798
495.034	23.9589
496.789	23.3689
498.544	23.3321
500.301	23.7088
502.056	24.1262
503.81	23.4468
505.564	22.9414
507.317	22.9436
509.071	22.2527
510.825	21.9091
512.578	23.4722
514.33	24.9485
516.082	24.4676
517.833	23.3106
519.585	21.9939
521.335	21.1006
523.086	20.857
524.836	20.3854
526.586	20.9556
528.335	20.0527
530.085	20.7349
531.835	21.7179
533.584	21.9019
535.332	22.0346
537.08	22.3678
538.827	21.9701
540.574	20.8016
542.321	20.3225
544.068	19.5839
545.814	19.0774
547.56	19.0725
549.305	18.477
551.05	17.398
552.795	18.0957
554.54	16.0986
556.282	16.1573
558.025	16.6985
559.769	16.3188
561.512	17.3043
563.255	16.282
564.997	15.8258
566.739	15.7585
568.481	15.8262
570.223	15.1572
571.964	13.7955
573.705	13.019
575.443	12.4407
577.183	12.86
578.923	11.2686
580.663	11.6177
582.402	10.9182
584.141	10.1187
585.879	10.445
587.615	11.2161
589.353	10.5848
591.09	9.7525
592.828	9.37382
594.564	8.99
596.299	7.66392
598.035	7.15826
599.771	7.16813
601.506	6.61094
603.242	5.83937
604.974	4.51505
606.709	5.39663
608.443	6.37923
610.177	6.83562
611.908	7.55649
613.642	7.68313
615.374	7.64524
617.105	9.97484
618.837	9.63677
620.569	8.78427
622.3	8.64901
624.03	8.0409
625.761	7.18505
627.491	7.38154
629.219	8.23412
630.949	9.35775
632.677	10.7497
634.406	10.8606
636.135	11.3611
637.861	12.8115
639.59	13.5837
641.318	14.0255
643.043	15.6912
644.77	16.8288
646.495	17.2914
648.222	17.0578
649.948	17.9132
651.672	18.6763
653.398	18.7566
655.121	17.9928
656.846	18.4742
658.569	19.2428
660.293	20.4936
662.015	22.022
663.738	22.8892
665.46	23.2666
667.183	24.9109
668.903	25.6652
670.626	27.101
672.346	27.6854
674.067	27.7992
675.787	26.7447
677.508	25.9214
679.226	26.2293
680.947	25.6081
682.665	25.8015
684.385	26.597
686.102	27.7407
687.821	28.9569
689.538	28.5312
691.254	28.9958
692.972	29.5349
694.688	29.773
696.406	30.0596
698.121	29.8478
699.835	30.7177
701.552	31.5129
703.266	31.6428
704.98	30.5402
706.695	30.0176
708.409	31.113
710.121	31.4844
711.836	32.811
713.548	34.6287
715.26	37.1113
716.973	38.8175
718.685	40.4585
720.396	41.6135
722.108	43.5318
723.818	44.8812
725.528	46.0973
727.238	48.8179
728.949	51.0297
730.658	51.9832
732.367	52.1434
734.075	52.9908
735.785	54.1146
737.493	54.1338
739.2	55.3281
740.907	57.5217
742.614	59.8098
744.322	61.9127
746.028	63.6216
747.734	65.6923
749.439	67.4299
751.144	69.4146
752.849	70.7449
754.555	72.0272
756.26	73.1335
757.963	73.9925
759.667	74.6023
761.37	75.1684
763.073	76.1548
764.775	77.8519
766.477	78.5919
768.179	79.8789
769.883	79.7857
771.584	80.1643
773.285	80.1682
774.986	79.3092
776.686	80.0406
778.386	79.4843
780.085	80.6187
781.785	80.5587
783.484	80.6696
785.182	80.4292
786.881	80.5998
788.579	80.6187
790.276	80.7183
791.974	81.365
793.671	83.3662
795.367	84.2335
797.064	86.1328
798.76	86.823
800.456	88.5718
802.151	88.1776
803.846	88.7469
805.541	88.6437
807.234	89.9208
808.928	90.1193
810.622	90.4042
812.315	90.8971
814.008	90.3584
815.701	89.4795
817.394	89.3095
819.086	89.8489
820.778	90.5267
822.468	92.2545
824.159	93.7271
825.85	94.8076
827.541	96.4818
829.231	97.8992
830.921	98.853
832.609	99.9262
834.298	99.5824
835.987	98.3861
837.676	96.6241
839.364	97.0657
841.051	97.4121
842.738	96.3821
844.426	95.126
846.113	93.6703
847.798	91.4765
849.484	90.9426
851.171	88.5306
852.857	86.9836
854.54	84.8368
856.226	83.0047
857.911	79.8792
859.593	77.2977
861.278	75.0826
862.961	73.3672
864.645	71.8212
866.327	70.1875
868.01	68.7326
869.692	67.3231
871.373	67.0324
873.055	64.4357
874.735	62.9341
876.416	61.4979
878.097	60.007
879.776	59.1641
881.457	58.3852
883.135	57.4086
884.815	57.2349
886.495	55.6211
888.172	55.7499
889.851	55.4692
891.528	54.9033
893.206	54.001
894.882	54.2805
896.56	53.8537
898.237	53.4224
899.912	54.2637
901.589	54.0929
903.263	53.9148
904.94	55.103
906.614	56.048
908.289	57.0221
909.962	58.2541
911.635	59.4092
913.31	59.311
914.982	58.8628
916.656	57.8209
918.328	56.3605
920.001	55.7125
921.672	56.4857
923.345	56.979
925.015	57.6995
926.685	55.9094
928.357	55.9765
930.026	56.0591
931.698	55.9269
933.366	56.1323
935.035	54.9692
936.705	54.9513
938.373	53.8364
940.041	52.6641
941.71	51.5448
943.377	52.1753
945.044	51.6622
946.712	50.7421
948.378	50.0744
950.044	50.4766
951.709	50.3489
953.376	50.6096
955.041	49.9993
956.706	49.0347
958.372	48.6699
960.036	46.4386
961.699	45.3881
963.362	45.8467
965.027	46.4665
966.69	47.6065
968.352	48.5323
970.014	48.9376
971.676	50.9595
973.339	52.0825
975	52.9927
976.661	54.9489
978.322	55.9548
979.982	56.3713
981.642	57.4274
983.303	59.1774
984.962	58.2495
986.621	58.7449
988.28	59.4723
989.938	60.072
991.596	60.197
993.254	60.1116
994.911	59.6827
996.57	58.5997
998.227	58.5806
999.884	58.5355
1001.54	58.4111
1003.2	57.7729
1004.85	57.683
1006.51	57.073
1008.16	57.5782
1009.82	55.4791
1011.47	56.3678
1013.12	54.8007
1014.78	54.4034
1016.43	53.8608
1018.08	53.4669
1019.74	52.2709
1021.39	50.5094
1023.04	49.1438
1024.69	48.287
1026.34	47.1307
1028	45.3988
1029.65	44.3554
1031.3	43.691
1032.95	42.0484
1034.6	40.5799
1036.25	37.5889
1037.9	34.4971
1039.54	32.5979
1041.19	31.3585
1042.84	29.5273
1044.49	30.4767
1046.14	32.0447
1047.78	32.7413
1049.43	32.8627
1051.08	32.3459
1052.72	33.1991
1054.37	32.3775
1056.02	31.8134
1057.66	31.3557
1059.31	30.4038
1060.95	29.7165
1062.6	28.9003
1064.24	28.315
1065.88	27.614
1067.53	25.9576
1069.17	26.5407
1070.81	26.7293
1072.45	26.8842
1074.1	27.441
1075.74	26.5687
1077.38	26.9471
1079.02	27.8882
1080.66	27.7703
1082.3	27.601
1083.94	26.8637
1085.58	26.5162
1087.22	26.5183
1088.86	26.2258
1090.5	26.5365
1092.14	26.3712
1093.78	27.0986
1095.42	26.485
1097.05	27.6447
1098.69	28.2441
1100.33	27.774
1101.96	27.6367
1103.6	27.671
1105.24	28.0636
1106.87	28.2459
1108.51	27.1947
1110.14	26.7729
1111.78	25.4156
1113.41	24.0013
1115.05	23.2595
1116.68	22.7371
1118.31	21.055
1119.95	20.3453
1121.58	20.1189
1123.21	19.2977
1124.85	17.5098
1126.48	17.1087
1128.11	16.1756
1129.74	14.8119
1131.37	13.6186
1133	13.4392
1134.63	12.7896
1136.26	11.2046
1137.89	10.8997
1139.52	10.8225
1141.15	10.3151
1142.78	11.9441
1144.41	11.9645
1146.04	11.7625
1147.66	11.6491
1149.29	12.0796
1150.92	11.6229
1152.55	11.2192
1154.17	9.86498
1155.8	9.57001
1157.43	7.48204
1159.05	7.6863
1160.68	6.24176
1162.3	4.88631
1163.93	4.16504
1165.55	4.30257
1167.17	3.43443
1168.8	3.21662
1170.42	4.74393
1172.05	5.51198
1173.67	7.10562
1175.29	7.46504
1176.91	9.79194
1178.54	11.9066
1180.16	13.2608
1181.78	14.304
1183.4	16.6645
1185.02	17.8501
1186.64	19.3914
1188.26	20.5866
1189.88	21.2086
1191.5	22.0744
1193.12	23.5139
1194.74	24.9839
1196.36	27.3968
1197.97	29.0937
1199.59	31.0011
1201.21	33.338
1202.83	36.5973
1204.44	38.7883
1206.06	40.9141
1207.68	43.6119
1209.29	45.8216
1210.91	48.5666
1212.52	51.2311
1214.14	55.0163
1215.75	58.6224
1217.37	61.4802
1218.98	64.1464
1220.59	68.7305
1222.21	70.7473
1223.82	74.3637
1225.43	75.3838
1227.05	77.8573
1228.66	79.8396
1230.27	80.5263
1231.88	81.5958
1233.49	83.6123
1235.1	84.9793
1236.72	86.2585
1238.33	87.1068
1239.94	87.6827
1241.55	88.4495
1243.16	90.3228
1244.76	91.0604
1246.37	91.469
1247.98	92.2672
1249.59	94.6358
1251.2	96.3228
1252.8	95.9765
1254.41	97.2312
1256.02	95.8362
1257.62	96.3868
1259.23	95.4297
1260.84	94.8411
1262.44	94.8911
1264.05	94.9076
1265.66	93.4679
1267.26	93.7208
1268.86	92.4872
1270.47	92.5183
1272.07	92.6462
1273.67	93.8308
1275.28	93.3271
1276.88	93.8539
1278.48	94.4338
1280.09	93.9675
1281.69	95.2847
1283.29	95.4872
1284.89	95.8712
1286.49	96.3193
1288.09	98.258
1289.69	99.4325
1291.29	101.1
1292.89	102.795
1294.49	105.531
1296.09	106.997
1297.69	108.245
1299.29	110.697
1300.89	113.028
1302.49	114.4
1304.08	117.634
1305.68	118.479
1307.28	120.658
1308.88	123.043
1310.47	125.762
1312.07	128.19
1313.66	130.06
1315.26	131.298
1316.85	132.27
1318.45	133.088
1320.04	132.903
1321.64	134.636
1323.23	135.743
1324.83	137.027
1326.42	137.983
1328.01	139.709
1329.61	138.586
1331.2	136.835
1332.79	135.348
1334.38	134.441
1335.97	132.36
1337.56	131.853
1339.16	130.239
1340.75	129.131
1342.34	127.927
1343.93	126.822
1345.52	124.118
1347.11	122.214
1348.7	119.516
1350.29	116.696
1351.87	113.787
1353.46	110.739
1355.05	107.498
1356.64	105.426
1358.22	102.275
1359.81	99.2512
1361.4	97.0461
1362.98	92.2108
1364.57	89.776
1366.16	86.695
1367.74	85.7081
1369.33	83.138
1370.91	80.3398
1372.5	78.3002
1374.08	75.8595
1375.67	73.5529
1377.25	72.7699
1378.83	70.2766
1380.41	68.4981
1382	67.5869
1383.58	66.3375
1385.16	64.0834
1386.74	63.5612
1388.33	62.5192
1389.91	60.1686
1391.49	58.5268
1393.07	58.0844
1394.65	57.0019
1396.23	55.94
1397.81	54.9114
1399.39	54.6764
1400.97	56.7306
1402.55	56.6753
1404.13	57.0187
1405.7	57.3575
1407.28	57.6366
1408.86	58.185
1410.44	60.3055
1412.01	63.7067
1413.59	66.6091
1415.17	69.4436
1416.74	73.0665
1418.32	76.7242
1419.89	81.0184
1421.47	85.5247
1423.04	90.2751
1424.62	94.075
1426.19	99.5188
1427.77	104.376
1429.34	108.55
1430.91	114.698
1432.49	119.853
1434.06	124.775
1435.63	128.695
1437.2	131.994
1438.78	135.66
1440.35	137.594
1441.92	140.213
1443.49	142.785
1445.06	145.1
1446.63	146.616
1448.2	146.542
1449.77	144.984
1451.34	144.891
1452.91	142.411
1454.48	141.106
1456.05	139.021
1457.62	135.621
1459.18	133.073
1460.75	129.789
1462.32	125.109
1463.89	119.538
1465.45	115.188
1467.02	109.415
1468.59	103.89
1470.15	98.9962
1471.72	92.4071
1473.28	85.971
1474.85	81.2172
1476.41	76.097
1477.98	69.524
1479.54	64.412
1481.1	58.2002
1482.67	53.2365
1484.23	48.6811
1485.79	44.1171
1487.36	40.7544
1488.92	37.4456
1490.48	34.8823
1492.04	31.4869
1493.61	28.3207
1495.17	26.4865
1496.73	24.3596
1498.29	23.5923
1499.85	22.9264
1501.41	22.5393
1502.97	22.8783
1504.53	22.128
1506.09	21.7414
1507.65	22.3152
1509.2	23.1144
1510.76	22.714
1512.32	22.3231
1513.88	23.3199
1515.43	23.8674
1516.99	24.4448
1518.55	24.5388
1520.1	26.2907
1521.66	26.9425
1523.22	28.6239
1524.77	29.2043
1526.33	30.1179
1527.88	31.3129
1529.44	33.0968
1530.99	34.2605
1532.54	36.7005
1534.1	38.6007
1535.65	39.1836
1537.21	41.4194
1538.76	43.1288
1540.31	45.3969
1541.86	47.0659
1543.42	49.1429
1544.97	50.0623
1546.52	52.4008
1548.07	54.9385
1549.62	57.9806
1551.17	61.9038
1552.72	65.4908
1554.27	66.8588
1555.82	69.0627
1557.37	72.3636
1558.92	75.0471
1560.47	77.4426
1562.02	79.8692
1563.56	83.1555
1565.11	86.49
1566.66	89.5426
1568.21	92.5906
1569.75	94.7715
1571.3	97.8993
1572.85	100.753
1574.39	103.535
1575.94	106.822
1577.49	109.476
1579.03	112.38
1580.57	115.324
1582.12	116.504
1583.66	118.655
1585.21	121.894
1586.75	124.682
1588.3	126.092
1589.84	128.088
1591.38	129.686
1592.92	129.559
1594.47	130.197
1596.01	129.913
1597.55	130.944
1599.09	129.887
1600.63	128.9
1602.17	128.542
1603.71	126.988
1605.25	125.134
1606.79	123.48
1608.33	122.794
1609.87	121.662
1611.41	120.287
1612.95	118.918
1614.49	118.627
1616.03	117.318
1617.57	114.588
1619.1	112.105
1620.64	110.47
1622.18	109.627
1623.72	110.128
1625.25	110.011
1626.79	110.556
1628.32	110.099
1629.86	109.832
1631.39	109.577
1632.93	111.064
1634.46	111.43
1636	112.642
1637.53	113.734
1639.07	116.468
1640.6	118.98
1642.13	120.588
1643.67	121.958
1645.2	123.357
1646.73	125.742
1648.26	127.389
1649.8	128.723
1651.33	131.648
1652.86	133.601
1654.39	135.512
1655.92	136.859
1657.45	138.395
1658.98	138.85
1660.51	139.627
1662.04	141.384
1663.57	140.514
1665.1	139.402
1666.63	138.738
1668.16	136.992
1669.68	135.56
1671.21	133.613
1672.74	130.763
1674.27	127.702
1675.79	124.103
1677.32	120.174
1678.85	115.985
1680.37	111.247
1681.9	106.694
1683.42	102.639
1684.95	98.3315
1686.47	92.8498
1688	87.712
1689.52	81.8484
1691.05	75.6694
1692.57	69.4347
1694.09	63.4944
1695.62	58.7915
1697.14	53.9621
1698.66	49.7577
1700.18	44.6832
1701.71	40.7769
1703.23	36.9491
1704.75	32.9265
1706.27	29.0262
1707.79	26.6918
1709.31	24.3059
1710.83	21.5193
1712.35	18.9462
1713.87	17.762
1715.39	16.5754
1716.91	14.1419
1718.43	13.2433
1719.95	11.2962
1721.47	10.7081
1722.99	9.93428
1724.5	9.1355
1726.02	9.15798
1727.54	9.39961
1729.06	8.73798
1730.57	8.48947
1732.09	8.08444
1733.61	7.9601
1735.12	7.39097
1736.64	7.20168
1738.15	7.504
1739.67	7.18337
1741.18	7.78989
1742.7	7.10566
1744.21	6.29422
1745.72	6.42154
1747.24	5.04688
1748.75	4.16582
1750.26	3.61988
1751.77	3.27231
1753.29	2.68106
1754.8	2.58292
1756.31	2.63967
1757.82	2.05779
1759.33	2.06253
1760.84	2.18354
1762.36	1.15769
1763.87	0.67487
1765.38	0.0408627
1766.89	0.0201946
1768.4	-0.256331
1769.91	-0.0578619
1771.41	-0.321663
1772.92	-0.0699164
1774.43	0.893998
1775.94	0.427742
1777.45	1.31423
1778.95	0.824621
1780.46	0.608205
1781.97	1.07552
1783.48	1.87411
1784.98	2.07799
1786.49	2.49299
1787.99	2.70776
1789.5	3.60497
1791.01	3.3169
1792.51	2.97374
1794.01	2.9838
1795.52	2.04979
1797.02	2.62092
1798.53	2.8113
1800.03	2.65324
1801.53	2.30979
1803.04	1.9537
1804.54	1.44313
1806.04	1.50986
1807.54	1.60458
1809.05	1.42587
1810.55	1.06786
1812.05	0.977579
1813.55	1.13116
1815.05	0.581823
1816.55	0.366763
1818.05	-0.128111
1819.55	-0.391642
1821.05	-0.367808
1822.55	-0.686403
1824.05	0.329782
1825.55	0.920979
1827.05	0.985964
1828.55	1.80625
1830.04	1.92075
1831.54	1.84892
1833.04	1.92909
1834.54	2.25571
1836.03	1.94925
1837.53	1.60785
1839.03	1.93336
1840.52	2.23956
1842.02	2.40819
1843.51	2.4598
1845.01	2.68941
1846.5	2.76818
1848	2.89055
1849.49	3.05664
1850.99	2.26246
1852.48	2.63718
1853.97	2.23659
1855.47	2.87762
1856.96	2.87339
1858.45	3.46677
1859.94	4.29209
1861.44	4.22394
1862.93	3.56511
1864.42	3.88728
1865.91	4.08698
1867.4	4.6032
1868.89	5.36121
1870.38	5.68022
1871.87	6.12615
1873.36	6.35521
1874.85	6.28142
1876.34	7.12815
1877.83	6.90302
1879.32	7.48015
1880.81	7.78476
1882.3	7.18479
1882.57	7.11795
1884.07	6.9155
1885.56	7.28581
1887.06	7.12985
1888.55	7.12435
1890.04	7.34291
1891.54	7.45262
1893.03	7.8049
1894.52	8.34508
1896.02	9.01679
1897.51	9.39913
1899	9.45022
1900.49	9.82344
1901.98	9.92989
1903.47	9.73952
1904.96	10.0273
1906.45	10.3318
1907.94	10.4646
1909.43	9.6247
1910.92	9.55544
1912.41	9.67771
1913.9	9.99128
1915.39	10.3627
1916.88	10.7069
1918.37	11.1321
1919.85	11.5712
1921.34	11.7448
1922.83	11.8173
1924.32	11.6363
1925.8	11.798
1927.29	11.9595
1928.78	12.4549
1930.26	12.8973
1931.75	13.9085
1933.23	13.8302
1934.72	13.5151
1936.2	13.875
1937.69	14.673
1939.17	14.7855
1940.66	15.5723
1942.14	15.4461
1943.63	15.4727
1945.11	15.551
1946.59	15.6395
1948.07	15.6924
1949.56	15.3605
1951.04	14.6063
1952.52	14.8004
1954	14.4317
1955.48	13.9174
1956.96	14.529
1958.45	14.2141
1959.93	13.8545
1961.41	13.4527
1962.89	13.6035
1964.37	13.2658
1965.85	13.7444
1967.32	14.0853
1968.8	14.2169
1970.28	14.4758
1971.76	14.5595
1973.24	14.3199
1974.72	14.389
1976.19	13.8877
1977.67	14.1553
1979.15	14.0309
1980.63	13.6062
1982.1	13.4282
1983.58	12.8537
1985.05	13.5098
1986.53	13.741
1988	13.7249
1989.48	14.5149
1990.95	14.7625
1992.43	14.5819
1993.9	14.8732
1995.38	14.8003
1996.85	14.8151
1998.32	14.87
1999.8	14.6534
2001.27	14.3146
2002.74	14.985
2004.22	15.5952
2005.69	15.2922
2007.16	15.2001
2008.63	14.906
2010.1	15.3505
2011.57	15.3212
2013.04	15.5147
2014.51	15
2015.98	14.5065
2017.45	14.4361
2018.92	14.6594
2020.39	14.7279
2021.86	15.1253
2023.33	15.7342
2024.8	15.9536
2026.27	16.255
2027.74	16.8566
2029.2	17.1602
2030.67	18.0703
2032.14	18.2567
2033.61	18.615
2035.07	19.7282
2036.54	20.5819
2038.01	20.9628
2039.47	21.1172
2040.94	21.5279
2042.4	22.1381
2043.87	22.8443
2045.33	23.0324
2046.8	23.1134
2048.26	23.5415
2049.72	22.9495
2051.19	23.7887
2052.65	23.7331
2054.12	24.1179
2055.58	24.2914
2057.04	24.2269
2058.5	24.8542
2059.97	24.627
2061.43	25.0207
2062.89	25.9131
2064.35	26.1828
2065.81	26.1427
2067.27	26.3086
2068.73	25.9005
2070.19	25.2102
2071.65	24.971
2073.11	25.1491
2074.57	25.7931
2076.03	26.6105
2077.49	25.8149
2078.95	25.8827
2080.41	25.8062
2081.87	25.7548
2083.32	25.623
2084.78	25.6079
2086.24	25.5844
2087.7	25.6987
2089.15	26.6483
2090.61	27.7749
2092.07	28.5606
2093.52	28.2232
2094.98	28.5094
2096.43	28.8185
2097.89	28.9381
2099.34	29.4108
2100.8	30.2632
2102.25	30.9957
2103.71	31.9332
2105.16	32.603
2106.61	33.0297
2108.07	33.9601
2109.52	34.5247
2110.97	34.3258
2112.43	34.8009
2113.88	36.0319
2115.33	36.7196
2116.78	36.7371
2118.23	36.562
2119.68	36.9785
2121.13	37.3995
2122.59	38.2952
2124.04	39.4814
2125.49	39.2382
2126.94	39.747
2128.39	39.8097
2129.83	40.8295
2131.28	41.4252
2132.73	41.8491
2134.18	42.9758
