#Acq. time (s)=	45
#Accumulations=	2
#Range (cm-¹)=	200...3150
#Windows=	2
#Auto scanning=	Off
#Autofocus=	Off
#Macrospot=	Off
#AutoExposure=	Off
#Spike filter=	Multiple accum.
#Delay time (s)=	0
#Binning=	1
#Readout mode=	Signal
#DeNoise=	Off
#ICS correction=	On
#Dark correction=	Off
#Inst. Process=	Off
#Detector Gain=	Best Dynamic Range
#Detector ADC=	20 kHz       
#Detector temperature (°C)=	-69.85
#Instrument=	LabRAM HR Evol
#Detector=	Synapse
#Objective=	x100
#Grating=	600 gr/mm
#ND Filter=	100%
#Laser (nm)=	532 
#Hole=	100.021
#Range=	Auto
#Laser Pol.=	No
#Raman. Pol.=	No
#Laser Pol. (°)=	-0.0007625
#Raman Pol. (°)=	89.9995
#Collection=	Microscope
#StageXY=	Marzhauser
#StageZ=	Marzhauser
#X (µm)=	-5891.4
#Y (µm)=	2848.3
#Z (µm)=	-223.65
#Full time(mm:ss)=	3:18
#Project=	
#Sample=	
#Site=	
#Title=	Thy_20_09_12_2x_45s_532 nm_x100_100%_600 gr_mm
#Remark=	
#Date=	29.06.2022 11:33
#Acquired=	29.06.2022 11:33:17
#Base:Fit=	10.08.2022 09:52:02
#Base:Fit=	10.08.2022 09:52:12
#Base:Sub=	10.08.2022 09:54:21
#Filter:Polynom=	16.08.2022 10:24:04
#AxisType[0]=Intens
#AxisUnit[0]=Cnt
#AxisType[1]=Spectr
#AxisUnit[1]=1/cm
200.523	17.9526
202.339	18.3942
204.154	18.8363
205.967	18.2261
207.781	17.8649
209.596	17.1244
211.409	16.3437
213.222	15.5414
215.034	15.151
216.848	14.906
218.659	12.8011
220.47	10.8235
222.281	10.2333
224.091	9.07152
225.903	8.45134
227.713	8.29606
229.522	7.53843
231.331	8.39758
233.14	8.0541
234.948	7.42704
236.756	7.50641
238.566	7.5643
240.373	7.56449
242.18	7.13023
243.986	7.07366
245.792	6.93346
247.598	7.16465
249.403	7.14491
251.208	7.49797
253.013	7.1527
254.818	6.3697
256.624	5.0024
258.427	4.17666
260.231	5.08099
262.034	5.73931
263.836	6.43559
265.638	5.95825
267.44	5.54483
269.242	5.59474
271.043	5.37123
272.844	5.20779
274.645	5.38098
276.445	6.35837
278.245	7.29882
280.044	7.83467
281.843	7.40518
283.642	8.05247
285.44	7.26936
287.238	7.25091
289.036	7.67795
290.833	7.33781
292.63	6.85018
294.425	7.64055
296.221	7.68032
298.017	7.22268
299.813	7.34298
301.608	7.19911
303.403	7.42062
305.198	7.79715
306.992	6.63651
308.786	5.776
310.579	6.99917
312.371	6.406
314.163	5.48438
315.956	4.89612
317.748	5.18796
319.54	6.06972
321.331	7.37189
323.122	7.42495
324.911	8.00923
326.701	8.96537
328.491	8.46208
330.281	8.95203
332.071	8.93863
333.857	9.46273
335.646	10.3598
337.434	11.0851
339.222	10.3181
341.008	9.97871
342.795	9.27371
344.582	8.97089
346.369	8.58594
348.153	8.42239
349.939	9.54498
351.724	8.13374
353.51	7.79497
355.292	6.92689
357.077	7.62443
358.861	8.31334
360.643	8.1686
362.426	8.23622
364.21	8.82384
365.99	8.30377
367.773	7.50265
369.555	7.99734
371.335	7.42808
373.116	6.98516
374.897	6.43166
376.676	6.62285
378.456	6.20572
380.236	6.35308
382.014	5.31766
383.793	5.76207
385.57	4.83961
387.349	5.05263
389.127	5.01066
390.903	4.65837
392.681	5.00758
394.456	4.01726
396.233	2.60842
398.007	2.58143
399.784	2.65436
401.56	1.64901
403.333	2.0031
405.108	2.08595
406.881	3.71556
408.656	4.94218
410.428	5.45769
412.202	4.72359
413.973	4.7805
415.746	4.97605
417.517	4.54429
419.29	5.07696
421.06	5.27315
422.831	5.13237
424.601	5.90286
426.37	5.47761
428.141	5.71995
429.909	6.05719
431.679	6.22035
433.447	5.57514
435.216	4.72463
436.983	4.46762
438.75	4.65269
440.519	4.076
442.285	5.13417
444.052	5.94685
445.818	6.87225
447.583	7.03799
449.349	7.14599
451.114	7.283
452.878	7.11583
454.643	7.00138
456.407	8.29472
458.169	9.03934
459.934	9.51789
461.696	9.78571
463.458	10.9571
465.222	10.6036
466.983	11.4784
468.744	11.2174
470.507	11.1675
472.267	12.4501
474.027	12.6242
475.787	12.8692
477.548	12.9747
479.307	13.7733
481.065	13.0022
482.823	13.2461
484.583	13.4643
486.341	13.6581
488.098	14.9615
489.855	14.6873
491.612	14.3814
493.37	15.506
495.126	16.1256
496.881	17.0679
498.636	17.1142
500.391	16.6973
502.148	17.8718
503.902	18.3341
505.656	18.3873
507.409	19.0861
509.162	19.1763
510.915	19.515
512.668	20.172
514.42	19.6452
516.174	19.5623
517.925	18.0546
519.676	17.7345
521.427	16.8485
523.178	16.996
524.928	17.8201
526.678	17.8595
528.427	18.176
530.176	18.3493
531.925	18.5248
533.673	17.6154
535.422	18.0851
537.169	17.4859
538.917	17.599
540.664	18.3918
542.411	18.071
544.157	18.1982
545.903	17.2952
547.649	17.3285
549.395	16.1971
551.14	15.765
552.884	14.7904
554.629	14.522
556.373	13.4564
558.117	12.6638
559.86	11.9334
561.603	10.9202
563.346	11.265
565.089	10.2857
566.831	9.82276
568.573	8.95508
570.314	8.93093
572.053	7.98269
573.794	8.04954
575.534	7.95345
577.274	6.70176
579.014	6.23343
580.754	5.84153
582.493	4.91478
584.23	5.90662
585.968	5.05074
587.706	4.76652
589.444	3.68423
591.181	3.27636
592.919	2.43841
594.653	1.95775
596.39	1.56119
598.126	1.41992
599.862	0.168827
601.595	0.35926
603.33	0.67386
605.065	1.30183
606.8	1.50133
608.532	1.56922
610.266	2.06425
611.999	1.71473
613.732	1.54886
615.463	2.36773
617.196	1.94
618.928	1.66655
620.66	2.17553
622.389	2.3056
624.12	2.52063
625.851	3.59774
627.58	4.42781
629.31	4.87512
631.04	5.38355
632.767	5.66685
634.497	6.11127
636.223	6.54352
637.952	7.21628
639.68	7.75869
641.406	8.40287
643.134	9.31888
644.861	10.4272
646.586	11.4865
648.312	11.5154
650.037	12.6181
651.762	13.086
653.486	14.7396
655.211	15.4574
656.936	15.9745
658.659	16.8159
660.383	18.1507
662.105	19.3097
663.829	20.5809
665.55	21.6388
667.273	22.4109
668.994	23.5208
670.716	24.2775
672.436	24.2789
674.158	25.6852
675.877	26.4516
677.598	28.2337
679.317	28.583
681.035	29.5984
682.755	30.4199
684.473	31.141
686.192	32.9625
687.909	33.7469
689.628	34.0593
691.344	34.4678
693.06	33.844
694.778	34.6401
696.493	35.276
698.211	35.466
699.925	37.0735
701.64	37.6695
703.356	37.6658
705.07	38.4128
706.783	39.9444
708.498	40.7805
710.211	41.4926
711.924	42.2432
713.638	42.4276
715.35	42.4415
717.061	42.2176
718.774	43.2902
720.485	44.5299
722.196	45.4473
723.906	46.5169
725.618	46.5028
727.328	47.0634
729.037	46.9374
730.746	46.7981
732.456	47.0852
734.165	47.5963
735.873	49.1592
737.58	49.9329
739.289	50.8849
740.997	51.7322
742.703	52.2809
744.41	53.2063
746.116	54.0212
747.823	54.7176
749.529	54.6049
751.234	55.1945
752.938	55.6844
754.643	57.4259
756.347	58.1144
758.051	59.5404
759.756	60.5444
761.459	61.5517
763.162	62.3291
764.865	62.8657
766.567	64.5379
768.269	65.1947
769.97	66.2827
771.671	66.8117
773.372	67.6318
775.073	68.5367
776.773	69.8815
778.473	71.4411
780.174	73.3593
781.874	73.9274
783.573	75.3934
785.271	77.3294
786.97	77.5605
788.668	77.6755
790.365	78.226
792.063	79.3166
793.76	79.968
795.456	79.4421
797.153	80.5526
798.847	80.7292
800.543	82.0919
802.238	82.9976
803.933	83.6555
805.628	83.8386
807.322	83.1365
809.017	83.3934
810.71	82.0509
812.404	81.8335
814.097	81.1042
815.79	81.263
817.483	81.1114
819.173	80.8585
820.865	80.9306
822.556	80.6906
824.248	80.2055
825.939	78.8474
827.629	78.0044
829.318	76.7527
831.008	75.7859
832.697	74.8998
834.387	73.8405
836.076	73.7173
837.765	73.5308
839.451	72.4784
841.139	71.2581
842.827	70.1841
844.514	69.0455
846.2	68.1205
847.886	66.4103
849.573	64.8083
851.259	63.5762
852.943	62.0669
854.629	61.4801
856.314	60.9211
857.997	59.6992
859.682	58.0358
861.366	57.5419
863.05	56.6153
864.732	55.759
866.415	54.1402
868.098	53.8846
869.779	52.0391
871.461	51.1123
873.141	50.5627
874.823	50.2779
876.505	50.7727
878.184	50.615
879.865	50.1359
881.545	49.9924
883.223	49.4271
884.903	49.245
886.581	48.8435
888.26	48.3512
889.937	48.1373
891.616	48.3608
893.294	48.0954
894.97	47.2135
896.648	46.5831
898.323	45.9152
900	45.8357
901.675	45.6788
903.351	45.3706
905.026	45.8072
906.701	46.1966
908.375	45.5952
910.05	44.8891
911.723	44.9623
913.398	44.4711
915.07	45.3239
916.742	44.1082
918.415	44.2676
920.087	44.6788
921.76	43.4567
923.43	42.5706
925.103	42.8454
926.773	42.0589
928.443	41.1041
930.114	41.008
931.783	40.6806
933.454	40.7152
935.123	41.1161
936.791	40.8577
938.461	40.7144
940.128	40.6619
941.796	39.8172
943.464	40.004
945.131	39.2242
946.797	38.5404
948.465	38.052
950.131	37.56
951.797	36.9909
953.462	36.966
955.128	37.764
956.793	36.1005
958.457	35.2268
960.121	34.4248
961.786	34.1538
963.45	34.0103
965.113	33.9431
966.775	34.4708
968.44	35.8509
970.102	37.0888
971.763	37.1968
973.425	36.6875
975.086	36.1014
976.748	35.0795
978.409	34.9407
980.069	34.3695
981.729	34.7673
983.388	35.3289
985.048	35.3316
986.708	35.4077
988.367	34.8567
990.025	33.6517
991.683	32.1756
993.341	30.4931
994.998	31.2485
996.655	30.8822
998.312	30.0914
999.969	29.0574
1001.62	29.936
1003.28	29.4933
1004.94	28.6318
1006.59	28.6154
1008.25	27.9942
1009.9	26.9756
1011.56	25.4459
1013.21	24.7099
1014.86	23.6462
1016.52	22.4022
1018.17	21.0597
1019.82	20.6627
1021.48	20.4512
1023.13	19.8355
1024.78	18.5194
1026.43	18.2368
1028.08	17.1596
1029.73	16.8099
1031.38	16.3066
1033.03	15.6587
1034.68	14.9829
1036.33	15.0125
1037.98	14.1976
1039.63	13.0124
1041.28	13.3173
1042.93	13.7253
1044.57	15.1815
1046.22	14.9183
1047.87	15.6866
1049.52	16.1296
1051.16	16.4045
1052.81	16.1085
1054.45	15.2723
1056.1	14.8773
1057.75	15.4876
1059.39	16.1245
1061.04	16.2913
1062.68	15.5642
1064.32	14.9431
1065.97	14.3289
1067.61	14.2193
1069.25	14.2883
1070.9	14.5589
1072.54	15.153
1074.18	15.1619
1075.82	16.2111
1077.47	17.0797
1079.11	16.2678
1080.75	16.0371
1082.39	15.976
1084.03	15.2813
1085.67	14.9641
1087.31	14.6405
1088.95	14.3854
1090.59	14.295
1092.22	13.734
1093.86	13.0978
1095.5	13.4911
1097.14	14.246
1098.78	14.3881
1100.41	15.76
1102.05	17.6595
1103.69	17.9864
1105.32	18.7206
1106.96	18.6002
1108.59	18.902
1110.23	18.5216
1111.86	17.8605
1113.5	17.3071
1115.13	17.2346
1116.77	17.8515
1118.4	16.8057
1120.03	15.9156
1121.67	15.3924
1123.3	15.1999
1124.93	14.3496
1126.56	13.7913
1128.19	13.1471
1129.83	13.0423
1131.46	12.7476
1133.09	12.1156
1134.72	12.1426
1136.35	12.2734
1137.98	12.2922
1139.61	11.7087
1141.24	11.1312
1142.86	9.35743
1144.49	8.77067
1146.12	9.04484
1147.75	9.45859
1149.38	9.91907
1151	9.70415
1152.63	8.70427
1154.26	7.75126
1155.88	7.13144
1157.51	7.33776
1159.14	6.89251
1160.76	6.25948
1162.39	5.90104
1164.01	5.46936
1165.63	5.47402
1167.26	6.4252
1168.88	6.3549
1170.51	6.66374
1172.13	6.82344
1173.75	7.33228
1175.38	8.64396
1177	10.5471
1178.62	11.5733
1180.24	12.9884
1181.86	14.2672
1183.48	14.8808
1185.1	14.2031
1186.72	14.5236
1188.34	15.0492
1189.96	15.8867
1191.58	16.2601
1193.2	16.2412
1194.82	17.5389
1196.44	18.4216
1198.06	20.2934
1199.68	21.7755
1201.29	23.074
1202.91	24.6228
1204.53	25.6367
1206.14	26.7809
1207.76	29.0257
1209.38	30.8888
1210.99	32.8157
1212.61	35.1841
1214.22	36.5309
1215.84	38.6276
1217.45	40.4027
1219.07	41.2945
1220.68	43.0348
1222.29	44.4084
1223.91	45.9102
1225.52	49.2943
1227.13	50.4611
1228.74	52.1635
1230.36	54.241
1231.97	54.9912
1233.58	56.2421
1235.19	58.6727
1236.8	60.1587
1238.41	60.888
1240.02	61.9072
1241.63	62.2461
1243.24	63.1055
1244.85	65.6967
1246.46	66.745
1248.07	68.3749
1249.67	69.0562
1251.28	69.6555
1252.89	69.8105
1254.5	71.037
1256.1	71.3503
1257.71	71.734
1259.32	72.1414
1260.92	72.4541
1262.53	72.3626
1264.13	72.3646
1265.74	72.8478
1267.34	73.794
1268.95	74.0773
1270.55	73.8267
1272.15	74.283
1273.76	75.6266
1275.36	77.6392
1276.97	79.2598
1278.57	81.2736
1280.17	81.9696
1281.77	82.2932
1283.37	83.5374
1284.97	84.26
1286.58	85.5276
1288.18	85.5175
1289.78	86.5112
1291.38	87.7129
1292.98	88.6703
1294.58	90.0818
1296.18	91.7133
1297.78	92.6912
1299.37	94.6977
1300.97	96.302
1302.57	97.0872
1304.17	99.0197
1305.77	101.284
1307.36	102.539
1308.96	104.601
1310.55	106.699
1312.15	107.434
1313.75	109.323
1315.34	111.026
1316.94	111.884
1318.53	112.441
1320.13	114.408
1321.72	114.888
1323.32	115.847
1324.91	117.612
1326.5	116.722
1328.1	117.233
1329.69	116.683
1331.28	117.157
1332.87	117.319
1334.47	116.851
1336.06	116.192
1337.65	116.472
1339.24	117.342
1340.83	116.753
1342.42	115.691
1344.01	114.637
1345.6	113.442
1347.19	111.862
1348.78	110.982
1350.37	110.919
1351.96	110.1
1353.54	108.413
1355.13	106.99
1356.72	104.739
1358.31	102.696
1359.89	100.063
1361.48	97.5294
1363.07	94.5311
1364.65	91.8269
1366.24	89.8836
1367.82	87.7969
1369.41	85.2135
1370.99	83.7476
1372.58	81.8581
1374.16	80.7156
1375.75	79.0702
1377.33	77.2821
1378.91	76.0088
1380.5	73.6855
1382.08	72.4165
1383.66	72.8179
1385.25	71.9539
1386.83	70.3035
1388.41	68.7333
1389.99	67.6934
1391.57	65.9473
1393.15	65.559
1394.73	64.3771
1396.31	62.8572
1397.89	61.7875
1399.47	61.0056
1401.05	60.3229
1402.63	59.972
1404.21	60.2292
1405.78	60.0908
1407.36	60.4635
1408.94	60.6406
1410.52	60.9689
1412.1	61.2631
1413.67	62.1162
1415.25	64.7124
1416.82	65.8302
1418.4	67.7516
1419.98	68.3716
1421.55	69.1037
1423.13	70.9507
1424.7	72.5885
1426.28	74.2585
1427.85	75.8143
1429.42	77.7188
1431	78.4178
1432.57	79.6312
1434.14	81.1573
1435.71	81.0706
1437.29	82.4719
1438.86	82.1092
1440.43	82.3301
1442	83.7125
1443.57	84.9043
1445.14	85.9031
1446.71	85.9265
1448.28	85.9165
1449.85	86.7617
1451.42	85.915
1452.99	86.0322
1454.56	85.6964
1456.13	84.9873
1457.7	84.1184
1459.26	83.5951
1460.83	82.9295
1462.4	81.8624
1463.97	79.4323
1465.54	77.0557
1467.1	75.4052
1468.67	73.1592
1470.23	71.1824
1471.8	69.3538
1473.36	66.6705
1474.93	64.3602
1476.49	62.308
1478.06	60.0558
1479.62	58.4753
1481.19	56.1613
1482.75	55.1786
1484.31	53.4433
1485.88	50.8606
1487.44	48.8544
1489	47.0436
1490.56	45.2876
1492.13	44.1762
1493.69	42.5365
1495.25	40.0451
1496.81	39.8815
1498.37	39.2157
1499.93	37.9333
1501.49	37.5942
1503.05	36.7553
1504.61	36.4645
1506.17	36.1057
1507.73	36.4877
1509.28	35.5776
1510.84	34.9817
1512.4	34.7753
1513.96	34.2924
1515.52	34.8348
1517.07	34.9087
1518.63	36.6753
1520.19	38.1726
1521.74	39.3391
1523.3	39.7784
1524.85	40.638
1526.41	41.496
1527.96	41.334
1529.52	43.635
1531.07	45.5915
1532.63	47.5736
1534.18	48.8973
1535.73	50.2815
1537.29	52.9704
1538.84	54.8921
1540.39	55.9166
1541.94	57.5384
1543.5	59.3926
1545.05	61.5195
1546.6	64.3038
1548.15	67.2571
1549.7	69.4868
1551.25	72.1208
1552.8	74.1273
1554.35	77.4887
1555.9	80.5928
1557.45	82.5923
1559	84.9134
1560.55	86.7706
1562.1	88.9639
1563.65	90.9583
1565.19	92.9849
1566.74	94.4935
1568.29	96.7036
1569.83	99.361
1571.38	101.805
1572.93	104.448
1574.47	107.634
1576.02	109.409
1577.56	109.917
1579.11	111.582
1580.66	113.072
1582.2	114.417
1583.74	115.64
1585.29	116.232
1586.83	116.148
1588.38	117.214
1589.92	117.336
1591.46	117.336
1593.01	118.423
1594.55	118.771
1596.09	117.824
1597.63	116.564
1599.17	115.817
1600.71	113.795
1602.25	112.956
1603.79	111.52
1605.34	110.549
1606.88	109.804
1608.41	107.893
1609.95	106.098
1611.49	103.836
1613.03	102.099
1614.57	101.415
1616.11	99.4764
1617.65	97.5728
1619.18	96.8963
1620.72	95.4104
1622.26	94.5695
1623.79	94.2435
1625.33	93.0825
1626.87	91.5972
1628.4	91.1457
1629.94	90.2183
1631.48	90.3092
1633.01	89.6193
1634.55	88.7808
1636.08	87.6339
1637.61	87.2506
1639.15	87.7327
1640.68	87.3766
1642.21	86.5169
1643.75	86.6516
1645.28	87.0655
1646.81	87.3237
1648.34	87.6726
1649.88	86.942
1651.41	86.1713
1652.94	84.8168
1654.47	83.994
1656	83.6176
1657.53	82.8665
1659.06	82.6807
1660.59	81.5084
1662.12	79.3012
1663.65	78.0191
1665.18	77.4604
1666.71	76.051
1668.24	75.4165
1669.76	73.3186
1671.29	70.704
1672.82	68.914
1674.35	66.542
1675.87	64.9969
1677.4	62.9319
1678.93	61.4157
1680.45	58.9658
1681.98	56.7966
1683.5	53.4952
1685.03	51.0538
1686.55	48.5849
1688.08	46.6105
1689.6	44.7253
1691.13	43.4177
1692.65	40.9926
1694.17	38.461
1695.7	36.4548
1697.22	34.2447
1698.74	32.5612
1700.27	29.9298
1701.79	27.6567
1703.31	25.402
1704.83	24.3302
1706.35	23.0278
1707.87	21.5557
1709.39	20.1308
1710.91	18.7639
1712.43	16.9358
1713.95	16.6821
1715.47	16.1065
1716.99	15.3951
1718.51	13.9983
1720.03	13.4121
1721.55	12.7281
1723.07	12.3589
1724.58	11.934
1726.1	11.1428
1727.62	10.4634
1729.13	9.41509
1730.65	9.55268
1732.17	8.59228
1733.68	8.23101
1735.2	8.30355
1736.72	7.12902
1738.23	6.62168
1739.74	6.48574
1741.26	6.52989
1742.77	5.86937
1744.29	5.3774
1745.8	4.41514
1747.32	4.45749
1748.83	4.14934
1750.34	3.4107
1751.85	4.10688
1753.37	3.95672
1754.88	3.40922
1756.39	2.83931
1757.9	2.70241
1759.41	1.83324
1760.92	2.1736
1762.44	2.01603
1763.95	1.53812
1765.46	1.48734
1766.96	1.45964
1768.47	0.977085
1769.98	0.440235
1771.49	0.149874
1773	-0.173789
1774.51	-0.739891
1776.02	-0.93521
1777.53	-0.613595
1779.03	-0.470816
1780.54	-0.375225
1782.05	0.0930054
1783.55	0.014054
1785.06	0.299422
1786.57	0.675801
1788.07	0.482347
1789.58	0.772401
1791.08	1.23177
1792.59	0.718011
1794.09	0.345586
1795.6	0.587965
1797.1	1.05945
1798.61	1.29675
1800.11	1.3977
1801.61	1.4343
1803.12	1.46912
1804.62	1.24693
1806.12	1.42738
1807.62	1.22614
1809.12	1.30574
1810.63	1.62409
1812.13	1.47802
1813.63	1.17196
1815.13	1.38111
1816.63	1.56074
1818.13	1.34662
1819.63	1.68761
1821.13	1.66686
1822.63	1.94141
1824.13	2.15318
1825.63	2.34813
1827.13	2.54158
1828.62	2.30413
1830.12	2.22835
1831.62	2.19036
1833.12	2.58893
1834.61	2.67557
1836.11	2.60776
1837.61	2.19312
1839.1	2.01209
1840.6	1.91079
1842.09	1.8929
1843.59	2.2389
1845.09	2.96288
1846.58	3.59503
1848.08	3.85674
1849.57	3.70588
1851.06	4.35325
1852.56	4.30637
1854.05	4.37864
1855.54	4.8149
1857.04	5.41199
1858.53	5.92474
1860.02	5.49345
1861.51	5.46406
1863.01	5.19286
1864.5	5.99178
1865.99	6.12629
1867.48	6.63643
1868.97	7.0688
1870.46	7.58538
1871.95	7.95276
1873.44	8.07348
1874.93	8.28557
1876.42	8.91924
1877.91	9.34518
1879.4	9.52182
1880.89	10.4426
1882.37	10.6783
1882.46	9.97212
1883.95	9.64349
1885.45	9.50142
1886.94	9.71126
1888.43	10.014
1889.93	9.77069
1891.42	10.0879
1892.91	10.5852
1894.41	11.052
1895.9	11.1499
1897.39	11.6254
1898.88	11.3189
1900.37	10.8188
1901.86	10.392
1903.36	10.4212
1904.85	9.73174
1906.34	8.98694
1907.83	7.57811
1909.32	6.95889
1910.81	6.48079
1912.29	6.31715
1913.78	6.33368
1915.27	6.52907
1916.76	6.38898
1918.25	6.30842
1919.74	6.29189
1921.23	5.43426
1922.71	4.78575
1924.2	4.45145
1925.69	3.44872
1927.17	3.48127
1928.66	3.97918
1930.15	4.36564
1931.63	3.82761
1933.12	3.25742
1934.6	3.98659
1936.09	4.40064
1937.57	5.17212
1939.06	5.11289
1940.54	4.94106
1942.02	4.28532
1943.51	4.81908
1944.99	4.96288
1946.47	5.18561
1947.96	4.89972
1949.44	5.44112
1950.92	5.44519
1952.4	5.95902
1953.88	6.2254
1955.37	5.80034
1956.85	5.95314
1958.33	6.85874
1959.81	8.56539
1961.29	9.15403
1962.77	9.60414
1964.25	10.0443
1965.73	10.7813
1967.21	10.8355
1968.69	10.9318
1970.16	9.97288
1971.64	10.0662
1973.12	8.50758
1974.6	8.17027
1976.08	8.23191
1977.55	8.62518
1979.03	8.19624
1980.51	7.75265
1981.98	8.5811
1983.46	9.30434
1984.94	8.85234
1986.41	9.16346
1987.89	8.40537
1989.36	7.91448
1990.84	7.83383
1992.31	8.059
1993.79	7.70372
1995.26	7.6107
1996.73	7.73882
1998.21	8.13329
1999.68	8.66516
2001.15	9.24738
2002.63	9.4867
2004.1	9.22643
2005.57	8.78568
2007.04	8.85156
2008.51	8.79502
2009.99	8.59764
2011.46	8.14108
2012.93	7.71134
2014.4	7.4827
2015.87	7.81014
2017.34	8.3774
2018.81	7.9568
2020.28	7.86602
2021.75	8.11903
2023.21	8.87632
2024.68	9.38576
2026.15	9.83687
2027.62	9.91195
2029.09	10.5496
2030.56	11.4068
2032.02	12.0437
2033.49	12.2609
2034.96	11.8239
2036.42	12.0934
2037.89	11.8831
2039.36	11.7257
2040.82	12.0045
2042.29	12.6506
2043.75	12.6348
2045.22	13.7577
2046.68	13.9663
2048.14	14.8638
2049.61	15.7339
2051.07	16.4328
2052.54	16.4462
2054	16.6927
2055.46	16.7332
2056.93	16.4185
2058.39	16.9665
2059.85	17.5464
2061.31	17.0738
2062.77	17.4693
2064.23	18.1272
2065.7	18.3011
2067.16	18.3934
2068.62	19.3325
2070.08	19.1228
2071.54	19.1475
2073	19.0991
2074.46	19.4413
2075.92	19.3603
2077.38	19.3673
2078.83	19.359
2080.29	19.3392
2081.75	19.2864
2083.21	19.319
2084.67	19.4406
2086.12	19.4164
2087.58	19.8803
2089.04	20.2189
2090.49	19.8599
2091.95	20.1385
2093.41	20.2758
2094.86	20.8873
2096.32	20.9033
2097.77	21.3048
2099.23	21.3036
2100.68	21.3135
2102.14	21.4289
2103.59	21.781
2105.05	21.697
2106.5	21.4681
2107.95	21.5275
2109.41	22.1142
2110.86	22.0764
2112.31	22.5543
2113.76	23.3809
2115.21	23.694
2116.67	23.9183
2118.12	24.3699
2119.57	24.5738
2121.02	25.1592
2122.47	25.4116
2123.92	25.004
2125.37	24.8599
2126.82	25.2553
2128.27	25.758
2129.72	27.2832
2131.17	28.4127
