#Acq. time (s)=	45
#Accumulations=	2
#Range (cm-¹)=	200...3150
#Windows=	2
#Auto scanning=	Off
#Autofocus=	Off
#Macrospot=	Off
#AutoExposure=	Off
#Spike filter=	Multiple accum.
#Delay time (s)=	0
#Binning=	1
#Readout mode=	Signal
#DeNoise=	Off
#ICS correction=	On
#Dark correction=	Off
#Inst. Process=	Off
#Detector Gain=	Best Dynamic Range
#Detector ADC=	20 kHz       
#Detector temperature (°C)=	-69.85
#Instrument=	LabRAM HR Evol
#Detector=	Synapse
#Objective=	x100
#Grating=	600 gr/mm
#ND Filter=	100%
#Laser (nm)=	532 
#Hole=	100.021
#Range=	Auto
#Laser Pol.=	No
#Raman. Pol.=	No
#Laser Pol. (°)=	-0.0007625
#Raman Pol. (°)=	89.9995
#Collection=	Microscope
#StageXY=	Marzhauser
#StageZ=	Marzhauser
#X (µm)=	4721.1
#Y (µm)=	-7700.7
#Z (µm)=	584.45
#Full time(mm:ss)=	3:18
#Project=	
#Sample=	
#Site=	
#Title=	Thy_30_10_47_2x_45s_532 nm_x100_100%_600 gr_mm
#Remark=	
#Date=	30.06.2022 14:46
#Acquired=	30.06.2022 14:46:41
#Base:Fit=	10.08.2022 09:58:11
#Base:Sub=	10.08.2022 09:58:44
#Filter:Polynom=	16.08.2022 10:22:53
#AxisType[0]=Intens
#AxisUnit[0]=Cnt
#AxisType[1]=Spectr
#AxisUnit[1]=1/cm
200.533	-5.37044
202.348	0.267607
204.162	3.59509
205.976	6.37074
207.792	8.39051
209.605	9.82854
211.418	11.6572
213.23	12.0606
215.044	13.2638
216.856	15.1933
218.667	15.1888
220.478	15.6222
222.289	16.8399
224.102	18.246
225.912	19.7612
227.721	22.0466
229.531	23.5115
231.34	24.1988
233.148	25.9981
234.956	27.3411
236.766	29.3426
238.574	30.0779
240.381	30.287
242.188	31.0386
243.994	32.928
245.801	33.8792
247.606	34.9387
249.412	35.9703
251.217	36.6489
253.024	38.0381
254.828	40.2712
256.632	41.2202
258.436	41.4812
260.239	42.3065
262.042	43.8245
263.845	45.3616
265.647	46.279
267.449	48.5459
269.25	50.1702
271.052	51.0372
272.852	52.2281
274.653	52.8605
276.453	52.4763
278.253	52.7335
280.052	53.1964
281.852	54.2475
283.65	53.9452
285.449	52.5658
287.247	50.5205
289.044	50.4449
290.842	50.1475
292.639	48.835
294.436	48.5095
296.232	46.6072
298.028	45.8675
299.821	45.2774
301.617	44.4409
303.412	42.7612
305.206	42.2925
307	41.3794
308.794	39.7257
310.588	39.609
312.381	38.8214
314.172	37.8374
315.964	37.154
317.756	36.7163
319.548	34.3999
321.34	33.3349
323.131	31.9787
324.921	30.4168
326.71	28.6919
328.5	27.0964
330.29	26.4972
332.079	26.3368
333.868	25.7283
335.654	24.3631
337.443	24.4968
339.231	23.2292
341.018	21.4593
342.804	20.236
344.591	20.5767
346.377	18.832
348.163	17.7579
349.947	16.8252
351.733	17.4819
353.518	17.4138
355.303	15.6766
357.085	14.6429
358.869	13.8552
360.653	12.7888
362.435	12.976
364.218	11.879
366.001	11.354
367.781	10.8481
369.563	9.07446
371.345	7.72046
373.124	7.15891
374.905	7.12901
376.686	6.40152
378.464	6.27012
380.244	5.00512
382.022	5.0913
383.801	4.19647
385.58	4.05996
387.357	4.83738
389.135	4.374
390.911	4.14972
392.689	4.9657
394.466	4.21078
396.241	5.79137
398.018	5.88555
399.792	5.02343
401.568	3.00091
403.341	3.27061
405.117	2.55991
406.889	1.53597
408.664	1.16943
410.436	2.48787
412.21	2.96364
413.981	2.90595
415.755	2.31915
417.525	3.40484
419.298	3.21462
421.068	2.69045
422.84	3.24396
424.609	3.55031
426.38	3.80714
428.149	3.24005
429.919	3.7795
431.688	4.81278
433.455	5.95761
435.225	4.44753
436.992	4.84774
438.76	4.33858
440.527	4.48478
442.293	2.61835
444.06	1.34545
445.826	0.888682
447.593	1.50651
449.357	1.65893
451.122	1.91217
452.888	2.24454
454.651	2.46953
456.415	1.98486
458.18	2.44483
459.942	3.58424
461.705	4.17334
463.469	4.86863
465.23	5.01887
466.991	6.25556
468.752	8.15062
470.515	8.39427
472.275	9.16341
474.035	10.8363
475.797	10.9904
477.556	11.9225
479.315	13.1232
481.073	13.7444
482.834	15.3633
484.592	16.4298
486.349	16.2782
488.106	16.0258
489.863	17.2951
491.622	19.1014
493.378	19.6757
495.134	20.3138
496.889	21.7592
498.645	21.0087
500.401	20.9047
502.156	20.3872
503.91	20.809
505.664	22.0067
507.417	21.5579
509.171	21.6491
510.923	21.7605
512.678	21.7212
514.43	22.2223
516.182	22.7085
517.933	23.2555
519.684	22.4261
521.435	21.2388
523.186	19.8948
524.936	20.1606
526.686	19.3553
528.435	18.5905
530.184	17.2572
531.933	18.4051
533.682	19.0567
535.43	18.3676
537.18	18.2132
538.927	18.3614
540.674	19.1452
542.421	19.7097
544.167	20.3287
545.913	20.8372
547.659	21.0513
549.403	20.3855
551.148	20.3636
552.893	19.9887
554.637	20.604
556.381	21.03
558.125	20.3311
559.868	22.097
561.611	21.9369
563.354	21.4733
565.097	21.6872
566.839	21.2588
568.581	21.0296
570.322	21.6128
572.063	20.1792
573.802	19.0529
575.542	17.97
577.283	16.7922
579.022	15.418
580.762	14.8417
582.501	14.2602
584.24	13.1229
585.976	12.2474
587.714	12.5483
589.452	11.5782
591.19	11.344
592.927	11.6825
594.663	11.3004
596.398	11.5089
598.134	11.1983
599.87	11.9083
601.605	11.7693
603.338	12.4715
605.073	11.9313
606.808	11.1334
608.542	12.3519
610.274	12.9699
612.007	13.2846
613.74	13.0726
615.473	13.7767
617.204	14.5069
618.936	16.9037
620.668	16.7467
622.397	16.202
624.128	17.39
625.859	18.9687
627.588	19.335
629.318	19.1925
631.048	18.5627
632.775	17.9661
634.505	17.5827
636.233	17.4819
637.96	18.473
639.688	19.0254
641.416	20.3721
643.142	19.394
644.869	19.6616
646.594	20.7476
648.32	20.0613
650.045	20.383
651.771	20.5498
653.496	20.9527
655.219	19.9426
656.944	21.3777
658.667	21.4486
660.391	21.1288
662.113	21.8256
663.837	21.2992
665.558	22.087
667.281	22.4358
669.002	22.6884
670.724	21.9896
672.444	23.0943
674.166	22.7507
675.885	23.7147
677.606	24.6647
679.325	24.7509
681.045	24.7056
682.763	25.8037
684.483	25.9668
686.2	27.0892
687.917	28.3278
689.636	28.4169
691.352	28.7152
693.07	29.6616
694.786	31.0166
696.501	30.7731
698.219	32.0486
699.933	31.7381
701.65	32.6325
703.364	33.7733
705.078	34.9803
706.793	32.9588
708.506	33.7906
710.219	33.4198
711.934	34.2916
713.646	33.1443
715.358	33.0038
717.071	32.6966
718.782	32.8105
720.493	33.817
722.204	34.4091
723.916	35.5396
725.626	36.4399
727.336	37.6521
729.045	37.4356
730.756	38.9815
732.464	39.4153
734.173	39.0549
735.881	39.217
737.59	39.5968
739.297	40.6732
741.004	41.7686
742.711	44.509
744.417	44.2268
746.125	44.8675
747.831	45.9779
749.537	46.5285
751.242	48.9045
752.946	51.0835
754.651	51.8342
756.357	52.9223
758.061	54.6598
759.764	55.8168
761.467	57.9607
763.17	58.5705
764.872	60.0409
766.575	62.3866
768.276	64.381
769.978	65.8574
771.679	67.2932
773.382	69.4416
775.083	70.4283
776.783	72.9398
778.483	73.8012
780.182	75.5682
781.882	76.2523
783.581	77.9543
785.279	79.7392
786.978	80.7553
788.676	82.7293
790.373	83.5572
792.071	83.9515
793.768	86.0998
795.464	87.5291
797.161	89.4006
798.857	89.3251
800.552	90.2917
802.248	91.106
803.941	92.5942
805.636	93.8713
807.33	94.1841
809.024	94.8401
810.718	94.5564
812.412	93.313
814.105	93.0323
815.798	93.644
817.49	94.6221
819.183	95.9002
820.873	96.9027
822.564	96.5814
824.256	97.9953
825.947	98.5076
827.637	97.8074
829.328	96.7422
831.016	97.4606
832.705	97.2732
834.395	96.9645
836.084	97.9532
837.772	96.7091
839.459	94.3409
841.147	95.146
842.835	95.213
844.522	95.1301
846.209	94.2898
847.894	92.4757
849.581	92.8773
851.267	92.0213
852.953	91.1434
854.637	89.9782
856.322	88.7069
858.007	87.9126
859.689	86.4027
861.374	85.3204
863.058	83.195
864.739	82.6978
866.423	81.0555
868.106	80.5978
869.787	79.2674
871.469	76.6931
873.151	76.8001
874.831	75.3525
876.512	73.8797
878.193	72.3533
879.872	70.8607
881.553	68.4204
883.231	67.1377
884.911	66.1317
886.591	65.4012
888.268	64.3659
889.947	63.5998
891.623	61.9454
893.302	60.6098
894.978	60.4063
896.656	59.8098
898.331	60.1776
900.008	60.2977
901.683	60.5887
903.359	59.2293
905.033	57.9185
906.709	57.2744
908.383	58.6898
910.058	57.642
911.731	56.4114
913.405	55.5906
915.078	56.6125
916.752	55.4597
918.423	54.746
920.096	54.6703
921.768	53.5728
923.438	53.3914
925.111	54.1034
926.781	52.2192
928.452	51.2209
930.122	49.7743
931.791	47.0224
933.462	47.1734
935.13	46.7106
936.799	46.0572
938.468	44.5696
940.136	43.5156
941.803	41.9853
943.472	39.7357
945.139	37.1633
946.805	35.6099
948.473	34.0721
950.139	33.0197
951.804	31.728
953.471	30.6234
955.136	30.2593
956.801	28.6733
958.465	27.3288
960.131	26.5312
961.794	25.0804
963.458	24.7165
965.12	24.8416
966.785	24.4875
968.447	25.0012
970.109	23.5534
971.771	22.5114
973.432	21.8336
975.095	21.278
976.756	21.2837
978.417	21.7393
980.077	21.0501
981.737	21.0618
983.396	20.9803
985.057	20.4812
986.716	18.8153
988.375	18.3837
990.033	17.8897
991.691	18.196
993.349	17.1364
995.006	17.0864
996.663	16.658
998.32	16.0524
999.976	14.6634
1001.63	14.2196
1003.29	14.0892
1004.95	12.7288
1006.6	11.5821
1008.26	11.4658
1009.91	10.9315
1011.56	11.3178
1013.22	11.5337
1014.87	10.2618
1016.53	11.2939
1018.18	9.56726
1019.83	8.04144
1021.48	7.75017
1023.14	7.25739
1024.79	6.95234
1026.44	5.85804
1028.09	7.30049
1029.74	8.51724
1031.39	9.14523
1033.04	10.9594
1034.69	11.3239
1036.34	11.9335
1037.99	11.2937
1039.64	12.0322
1041.29	13.1513
1042.94	13.1161
1044.58	13.1829
1046.23	13.5612
1047.88	13.3326
1049.52	13.866
1051.17	14.2866
1052.82	13.6443
1054.46	14.2939
1056.11	14.563
1057.75	15.5261
1059.4	15.6877
1061.04	16.0506
1062.69	14.7341
1064.33	14.1334
1065.98	13.4081
1067.62	12.772
1069.26	12.6759
1070.9	12.6072
1072.55	12.9407
1074.19	13.4461
1075.83	12.1642
1077.47	11.0423
1079.11	10.3307
1080.76	10.5939
1082.4	11.7078
1084.04	11.9825
1085.68	11.9938
1087.32	11.3685
1088.95	13.0836
1090.59	13.0653
1092.23	12.9985
1093.87	13.0389
1095.51	13.076
1097.15	11.0838
1098.78	11.2994
1100.42	11.3844
1102.06	13.1229
1103.69	12.9931
1105.33	14.0067
1106.97	13.2291
1108.6	12.8734
1110.24	14.5498
1111.87	13.9058
1113.51	14.9794
1115.14	13.6293
1116.77	13.2645
1118.41	12.5232
1120.04	12.2472
1121.67	13.925
1123.31	12.4914
1124.94	11.7922
1126.57	11.4848
1128.2	11.5047
1129.83	11.843
1131.47	11.5759
1133.1	10.8096
1134.72	10.2901
1136.36	9.07008
1137.98	8.86145
1139.62	7.89119
1141.24	7.42173
1142.87	5.6328
1144.5	4.55491
1146.13	3.61733
1147.76	3.25407
1149.38	2.8872
1151.01	3.01527
1152.64	2.47051
1154.27	1.30544
1155.89	-0.0261965
1157.52	-1.42511
1159.14	-1.49302
1160.77	0.0584386
1162.39	0.209391
1164.02	-0.627386
1165.64	-1.42985
1167.27	-1.02462
1168.89	-0.879634
1170.51	0.598051
1172.14	0.420331
1173.76	1.54501
1175.38	1.72546
1177	1.93928
1178.63	1.62647
1180.25	3.25936
1181.87	3.81598
1183.49	4.25381
1185.11	4.0118
1186.73	4.87865
1188.35	4.63479
1189.97	6.2806
1191.59	8.79521
1193.21	10.9466
1194.83	12.6522
1196.45	13.7633
1198.07	15.616
1199.68	16.0764
1201.3	17.4898
1202.92	19.1413
1204.53	19.2975
1206.15	20.2123
1207.77	21.5053
1209.38	23.2338
1211	24.6211
1212.62	25.7135
1214.23	27.3162
1215.84	29.1808
1217.46	30.8801
1219.07	31.8908
1220.69	32.7063
1222.3	34.9554
1223.91	36.0415
1225.53	37.7165
1227.14	38.8799
1228.75	40.8839
1230.36	41.7457
1231.97	43.3323
1233.59	44.836
1235.2	45.6899
1236.81	47.9179
1238.42	49.3524
1240.03	51.8202
1241.64	53.4281
1243.25	54.3542
1244.85	55.9715
1246.46	57.4286
1248.07	57.8704
1249.68	58.2803
1251.29	59.6426
1252.9	59.9422
1254.5	59.3294
1256.11	59.1612
1257.72	59.9304
1259.32	61.2444
1260.93	62.5584
1262.54	63.3235
1264.14	62.7306
1265.75	63.4789
1267.35	64.9779
1268.96	66.4178
1270.56	67.0961
1272.16	68.9041
1273.77	69.4218
1275.37	67.4999
1276.97	67.9508
1278.57	68.0648
1280.18	68.1697
1281.78	69.1016
1283.38	69.9581
1284.98	69.8304
1286.58	71.6742
1288.18	71.9734
1289.78	72.4588
1291.38	73.9189
1292.99	73.7818
1294.58	74.7843
1296.18	75.6898
1297.78	76.2726
1299.38	76.9955
1300.98	77.9176
1302.58	79.7229
1304.17	81.993
1305.77	83.3378
1307.37	83.7593
1308.97	84.0284
1310.56	85.4085
1312.16	87.2907
1313.76	86.8814
1315.35	88.4509
1316.95	89.5055
1318.54	89.5159
1320.14	90.5164
1321.73	90.107
1323.32	88.8954
1324.92	88.1639
1326.51	87.2531
1328.1	85.9839
1329.7	86.3878
1331.29	85.936
1332.88	85.103
1334.47	84.3785
1336.07	84.4054
1337.66	84.5445
1339.25	83.9776
1340.84	83.5545
1342.43	83.1272
1344.02	82.4904
1345.61	83.6898
1347.2	84.016
1348.79	83.5231
1350.37	82.4837
1351.96	81.6518
1353.55	79.9675
1355.14	77.1158
1356.73	76.2148
1358.31	75.6043
1359.9	73.8954
1361.49	73.4357
1363.07	72.3163
1364.66	71.3072
1366.25	71.7649
1367.83	69.1793
1369.42	68.3145
1371	68.3794
1372.59	66.4762
1374.17	65.4799
1375.75	64.4563
1377.34	65.0305
1378.92	64.6055
1380.5	64.2832
1382.09	64.5095
1383.67	63.8601
1385.25	63.4171
1386.83	62.4466
1388.42	63.0101
1390	63.1863
1391.58	62.3814
1393.16	61.3259
1394.74	62.1732
1396.32	60.7374
1397.9	60.4677
1399.48	59.6667
1401.06	58.6526
1402.64	57.483
1404.21	58.029
1405.79	56.6815
1407.37	55.9297
1408.95	57.0194
1410.53	57.827
1412.1	58.4782
1413.68	60.959
1415.26	62.8887
1416.83	64.8372
1418.41	66.7718
1419.98	70.1303
1421.56	72.4359
1423.13	74.7679
1424.71	77.614
1426.28	81.1014
1427.86	83.5064
1429.43	85.8416
1431	89.3221
1432.58	91.8262
1434.15	94.5043
1435.72	98.9915
1437.29	101.939
1438.87	104.196
1440.44	107.187
1442.01	109.062
1443.58	111.155
1445.15	113.703
1446.72	114.534
1448.29	115.701
1449.86	116.632
1451.43	116.298
1453	116.789
1454.57	118.013
1456.14	118.924
1457.71	117.897
1459.27	117.555
1460.84	116.692
1462.41	116.092
1463.98	114.753
1465.54	112.464
1467.11	110.881
1468.67	107.655
1470.24	104.829
1471.81	101.889
1473.37	99.7157
1474.94	97.3801
1476.5	95.4879
1478.07	92.0955
1479.63	88.4384
1481.19	85.4471
1482.76	82.4391
1484.32	79.5023
1485.88	78.0829
1487.45	76.4095
1489.01	74.3493
1490.57	72.3848
1492.13	71.9268
1493.69	70.2389
1495.26	69.1025
1496.82	68.7347
1498.38	69.8608
1499.94	69.8913
1501.5	69.364
1503.06	69.5478
1504.62	69.8686
1506.17	69.1356
1507.73	69.7549
1509.29	69.6714
1510.85	69.9946
1512.41	70.6906
1513.97	72.0673
1515.52	72.0496
1517.08	74.1694
1518.64	75.4161
1520.19	75.6224
1521.75	76.6763
1523.31	78.2716
1524.86	78.1454
1526.42	78.1058
1527.97	78.8236
1529.52	80.249
1531.08	81.5236
1532.63	82.1769
1534.19	83.7558
1535.74	84.1734
1537.29	85.8768
1538.85	86.1896
1540.4	86.2544
1541.95	88.0441
1543.5	89.9742
1545.06	91.1963
1546.61	91.8046
1548.16	93.5737
1549.71	95.7684
1551.26	98.3475
1552.81	99.8116
1554.36	100.546
1555.91	100.751
1557.46	101.739
1559.01	103.19
1560.56	104.751
1562.11	105.812
1563.65	107.751
1565.2	110.364
1566.75	111.945
1568.29	113.103
1569.84	115.639
1571.39	117.384
1572.94	118.695
1574.48	120.405
1576.03	122.171
1577.57	121.298
1579.12	121.498
1580.66	123.419
1582.21	125.069
1583.75	126.937
1585.3	128.566
1586.84	129.348
1588.38	130.921
1589.93	131.691
1591.47	132.339
1593.01	132.897
1594.55	133.822
1596.1	134.733
1597.64	136.548
1599.18	137.443
1600.72	138.339
1602.26	138.307
1603.8	138.27
1605.34	138.594
1606.88	138.847
1608.42	137.732
1609.96	138.336
1611.5	140.133
1613.04	140.303
1614.58	139.02
1616.12	138.257
1617.65	138.614
1619.19	139.509
1620.73	139.223
1622.27	139.713
1623.8	140.852
1625.34	142.256
1626.87	143.606
1628.41	144.287
1629.95	143.687
1631.48	144.81
1633.02	146.62
1634.55	149.313
1636.09	150.098
1637.62	151.654
1639.15	152.642
1640.69	155.226
1642.22	156.666
1643.76	157.211
1645.29	158.48
1646.82	160.101
1648.35	161.045
1649.88	161.081
1651.42	162.46
1652.95	163.616
1654.48	164.442
1656.01	167.079
1657.54	168.18
1659.07	168.509
1660.6	168.621
1662.13	168.643
1663.66	167.742
1665.19	167.109
1666.72	167.427
1668.24	167.664
1669.77	168.646
1671.3	168.61
1672.83	168.474
1674.35	167.722
1675.88	165.882
1677.41	164.33
1678.93	161.445
1680.46	158.041
1681.99	156.359
1683.51	154.078
1685.04	151.722
1686.56	150.816
1688.09	148.311
1689.61	145.35
1691.13	141.529
1692.66	139.863
1694.18	138.314
1695.71	136.108
1697.23	135.295
1698.75	133.866
1700.27	133.083
1701.8	131.643
1703.32	129.793
1704.84	129.09
1706.36	126.618
1707.88	125.911
1709.4	124.821
1710.92	123.955
1712.44	122.761
1713.96	121.729
1715.48	121.644
1717	121.365
1718.52	121.028
1720.04	119.737
1721.56	119.488
1723.07	118.412
1724.59	118.37
1726.11	117.146
1727.63	118.07
1729.14	117.435
1730.66	116.949
1732.18	116.307
1733.69	115.13
1735.21	113.756
1736.72	112.544
1738.24	112.33
1739.75	110.907
1741.27	111.3
1742.78	110.838
1744.3	109.699
1745.81	108.602
1747.32	106.899
1748.84	105.133
1750.35	103.771
1751.86	101.966
1753.37	100.426
1754.89	98.4344
1756.4	97.6837
1757.91	98.1728
1759.42	97.3126
1760.93	96.468
1762.44	95.6111
1763.95	94.5078
1765.46	92.6752
1766.97	90.9696
1768.48	89.9487
1769.99	89.2932
1771.5	88.0202
1773.01	87.2562
1774.52	86.1045
1776.03	86.1315
1777.53	84.9191
1779.04	83.8706
1780.55	83.0496
1782.06	80.86
1783.56	80.1728
1785.07	78.6592
1786.57	77.6089
1788.08	76.7519
1789.59	75.1315
1791.09	74.4971
1792.6	72.4434
1794.1	70.788
1795.6	69.1911
1797.11	68.5754
1798.61	66.4668
1800.12	65.6563
1801.62	64.6145
1803.12	64.4355
1804.63	62.9066
1806.13	61.8747
1807.63	60.864
1809.13	58.9714
1810.63	57.4403
1812.14	56.3739
1813.64	55.095
1815.14	53.3954
1816.64	52.9805
1818.14	51.6217
1819.64	50.6772
1821.14	50.0145
1822.64	49.0127
1824.14	48.1783
1825.63	47.3437
1827.13	46.8456
1828.63	45.864
1830.13	44.315
1831.63	44.3747
1833.12	42.7717
1834.62	41.1832
1836.12	39.9317
1837.62	39.7491
1839.11	38.1432
1840.61	37.6033
1842.1	36.4756
1843.6	35.8009
1845.09	34.6367
1846.59	33.4498
1848.08	31.9922
1849.58	30.7351
1851.07	29.5464
1852.57	28.0188
1854.06	26.5514
1855.55	25.1942
1857.04	23.8394
1858.54	21.9472
1860.03	20.1492
1861.52	20.1819
1863.01	18.1415
1864.5	16.7277
1866	14.8748
1867.49	14.2811
1868.98	13.8885
1870.47	13.0633
1871.96	12.5272
1873.45	12.2606
1874.94	12.3009
1876.43	12.7234
1877.92	11.9679
1879.41	10.9334
1880.89	11.0851
1882.38	10.859
1882.48	11.0767
1883.97	11.3701
1885.47	11.7906
1886.96	11.6492
1888.46	12.1386
1889.95	11.7155
1891.44	11.2413
1892.94	10.9878
1894.43	11.0474
1895.92	11.0737
1897.41	10.4247
1898.9	10.239
1900.4	10.0689
1901.89	9.47736
1903.38	9.12135
1904.87	10.0194
1906.36	8.96504
1907.85	9.60646
1909.34	9.51915
1910.83	9.7962
1912.32	8.93179
1913.81	8.91738
1915.29	8.05722
1916.78	7.26518
1918.27	6.46983
1919.76	5.99585
1921.25	5.32007
1922.74	5.12622
1924.22	5.63792
1925.71	5.86408
1927.2	5.20439
1928.68	6.28288
1930.17	5.82005
1931.65	5.62017
1933.14	5.61209
1934.63	4.47147
1936.11	3.6444
1937.59	4.47264
1939.08	4.87347
1940.56	5.63076
1942.05	5.57237
1943.53	5.5177
1945.01	6.95089
1946.5	6.62059
1947.98	5.89478
1949.46	6.00285
1950.94	4.99497
1952.43	5.83545
1953.91	6.16035
1955.39	6.13214
1956.87	6.50803
1958.35	5.89493
1959.83	6.31668
1961.31	5.4017
1962.79	4.39724
1964.27	3.10698
1965.75	3.31589
1967.23	3.96256
1968.71	3.03074
1970.19	2.5214
1971.67	2.10832
1973.14	2.59499
1974.62	2.39839
1976.1	1.67578
1977.58	2.0187
1979.05	2.00631
1980.53	-0.0312154
1982.01	0.00355266
1983.48	-0.0997845
1984.96	-0.0344803
1986.43	-0.870376
1987.91	-1.025
1989.38	-1.4717
1990.86	-1.39397
1992.33	-0.267332
1993.81	0.0243723
1995.28	0.700106
1996.76	1.22645
1998.23	2.31898
1999.7	3.84091
2001.18	4.10462
2002.65	5.91411
2004.12	5.19107
2005.59	5.56818
2007.06	6.4722
2008.54	6.83709
2010.01	8.49
2011.48	9.13586
2012.95	10.3654
2014.42	11.4448
2015.89	12.0164
2017.36	13.0689
2018.83	14.4127
2020.3	14.7198
2021.77	15.7758
2023.24	17.3839
2024.71	17.6124
2026.17	18.6433
2027.64	18.2932
2029.11	18.2143
2030.58	18.9358
2032.04	19.8487
2033.51	21.0266
2034.98	19.9934
2036.45	19.9829
2037.91	21.1846
2039.38	22.0565
2040.84	22.3593
2042.31	21.6588
2043.77	21.7379
2045.24	21.8017
2046.7	22.147
2048.17	21.8484
2049.63	20.8988
2051.1	20.8109
2052.56	19.2309
2054.02	18.9284
2055.48	19.4395
2056.95	19.4346
2058.41	18.5363
2059.87	17.9789
2061.33	19.0384
2062.8	18.705
2064.26	19.1657
2065.72	19.6987
2067.18	20.0356
2068.64	19.9311
2070.1	19.9343
2071.56	20.9991
2073.02	21.369
2074.48	21.2865
2075.94	22.833
2077.4	23.1212
2078.86	24.1518
2080.31	25.3288
2081.77	25.3805
2083.23	25.7829
2084.69	27.3271
2086.14	28.8072
2087.6	28.7392
2089.06	29.3852
2090.52	30.6408
2091.97	30.7096
2093.43	30.9758
2094.88	31.2787
2096.34	31.3376
2097.79	30.6879
2099.25	31.4107
2100.7	32.15
2102.16	33.1749
2103.61	34.5512
2105.07	35.4479
2106.52	36.011
2107.97	36.2934
2109.43	37.3911
2110.88	38.1551
2112.33	38.9595
2113.78	39.362
2115.24	40.3581
2116.69	41.2212
2118.14	42.6425
2119.59	44.3691
2121.04	45.6489
2122.49	45.5952
2123.94	47.3964
2125.39	48.1232
2126.84	49.9445
2128.29	51.2091
2129.74	53.1528
2131.19	54.5232
