#Acq. time (s)=	45
#Accumulations=	2
#Range (cm-¹)=	200...3150
#Windows=	2
#Auto scanning=	Off
#Autofocus=	Off
#Macrospot=	Off
#AutoExposure=	Off
#Spike filter=	Multiple accum.
#Delay time (s)=	0
#Binning=	1
#Readout mode=	Signal
#DeNoise=	Off
#ICS correction=	On
#Dark correction=	Off
#Inst. Process=	Off
#Detector Gain=	Best Dynamic Range
#Detector ADC=	20 kHz       
#Detector temperature (°C)=	-69.85
#Instrument=	LabRAM HR Evol
#Detector=	Synapse
#Objective=	x100
#Grating=	600 gr/mm
#ND Filter=	100%
#Laser (nm)=	532 
#Hole=	100.021
#Range=	Auto
#Laser Pol.=	No
#Raman. Pol.=	No
#Laser Pol. (°)=	-0.0007625
#Raman Pol. (°)=	89.9995
#Collection=	Microscope
#StageXY=	Marzhauser
#StageZ=	Marzhauser
#X (µm)=	9020.2
#Y (µm)=	-3078.4
#Z (µm)=	-54.75
#Full time(mm:ss)=	3:19
#Project=	
#Sample=	
#Site=	
#Title=	Thy_00_07_18_2x_45s_532 nm_x100_100%_600 gr_mm
#Remark=	
#Date=	28.06.2022 11:22
#Acquired=	28.06.2022 11:22:50
#Base:Fit=	10.08.2022 10:07:56
#Base:Sub=	10.08.2022 10:08:40
#Filter:Polynom=	16.08.2022 10:26:06
#AxisType[0]=Intens
#AxisUnit[0]=Cnt
#AxisType[1]=Spectr
#AxisUnit[1]=1/cm
200.407	8.49677
202.221	8.43128
204.035	8.19154
205.849	7.74778
207.665	7.90213
209.478	7.95925
211.291	7.86863
213.104	8.06587
214.916	8.63513
216.73	9.56345
218.541	10.0998
220.352	10.3534
222.163	9.98802
223.973	9.74718
225.785	8.80829
227.595	8.80448
229.404	9.56067
231.213	9.64492
233.022	9.40888
234.83	9.63964
236.638	10.9881
238.448	10.7042
240.255	10.425
242.062	10.7317
243.868	9.90255
245.675	9.25851
247.48	8.98267
249.286	8.49391
251.091	8.41616
252.896	7.84468
254.702	7.89061
256.506	7.97603
258.31	7.60332
260.113	7.38653
261.916	7.63678
263.719	7.71423
265.521	7.74921
267.323	6.99905
269.125	6.89646
270.926	6.99563
272.727	7.2347
274.527	6.4334
276.328	6.70461
278.127	4.38044
279.927	4.16017
281.726	2.4005
283.525	2.68412
285.323	2.62859
287.121	1.98451
288.919	0.837504
290.716	0.011719
292.513	-0.246478
294.31	0.109422
296.104	-0.439174
297.9	-0.576635
299.696	-0.412767
301.491	1.27323
303.286	2.52266
305.081	3.23072
306.875	3.36171
308.669	3.71922
310.463	4.22777
312.256	4.54688
314.047	5.44188
315.839	6.3784
317.631	7.74077
319.423	8.30273
321.215	8.87465
323.006	9.86623
324.794	10.7917
326.585	10.868
328.375	10.2697
330.165	11.1565
331.954	11.3498
333.741	11.0254
335.53	13.1341
337.318	14.2405
339.106	14.7639
340.894	15.1908
342.679	14.5666
344.466	13.9485
346.253	13.9625
348.039	13.3018
349.823	13.5006
351.608	14.1131
353.393	14.6724
355.176	14.7444
356.961	14.8772
358.745	15.0693
360.529	15.0721
362.31	15.6617
364.093	16.2371
365.876	16.5771
367.657	15.6568
369.439	16.391
371.221	16.0977
373	16.1356
374.781	15.2324
376.56	14.84
378.34	15.1536
380.12	14.8285
381.898	14.2752
383.677	15.1731
385.456	14.5808
387.233	16.0838
389.011	15.836
390.787	15.6386
392.565	15.4166
394.34	15.137
396.117	15.1604
397.894	14.5731
399.668	13.7396
401.444	13.686
403.217	13.1927
404.993	12.4832
406.766	11.8014
408.54	11.4089
410.312	11.439
412.086	10.6063
413.858	10.1521
415.631	9.53434
417.402	9.58815
419.174	8.79088
420.944	7.92955
422.716	7.25825
424.486	7.30954
426.257	5.86185
428.025	5.03805
429.794	3.90406
431.564	3.02492
433.332	1.97158
435.101	2.50568
436.868	2.30954
438.637	2.58352
440.403	2.81306
442.169	3.21452
443.937	2.58413
445.703	2.35455
447.468	3.85792
449.234	4.90044
450.999	5.85375
452.765	6.70149
454.528	7.24082
456.292	8.37146
458.057	9.04298
459.819	10.0414
461.582	10.6627
463.344	12.2068
465.107	12.9779
466.868	13.8301
468.629	13.2306
470.392	13.7378
472.152	14.9229
473.912	15.305
475.672	16.219
477.433	16.1183
479.192	16.82
480.951	17.3455
482.709	17.8906
484.469	18.5279
486.226	18.8663
487.984	18.9529
489.74	19.4928
491.499	19.3865
493.255	19.8877
495.011	20.6256
496.767	20.5736
498.522	20.3957
500.277	20.7003
502.033	20.6066
503.788	19.4833
505.541	19.1638
507.295	18.8263
509.048	18.2418
510.801	17.8198
512.553	18.4807
514.308	17.9824
516.06	16.2709
517.811	15.5722
519.562	14.4305
521.313	13.5975
523.063	12.6471
524.814	11.3685
526.563	11.1655
528.313	10.7726
530.062	10.5916
531.811	9.89291
533.559	10.1974
535.308	10.0822
537.055	9.68154
538.803	9.94786
540.55	10.0997
542.297	9.48359
544.043	9.6973
545.789	9.24337
547.535	8.21073
549.281	8.06817
551.026	6.72586
552.771	6.24257
554.515	5.65851
556.259	5.12816
558.003	5.48497
559.747	4.21463
561.49	3.42055
563.233	3.30909
564.975	2.96732
566.717	2.58051
568.459	2.76592
570.2	2.95969
571.942	1.48363
573.68	0.954795
575.421	-0.215909
577.161	0.245555
578.901	0.467213
580.64	0.182164
582.379	0.20664
584.118	-0.341543
585.855	-0.337639
587.593	0.0451882
589.331	-0.196429
591.068	0.698406
592.805	1.34209
594.54	1.00018
596.277	0.698427
598.013	1.89961
599.749	2.3623
601.484	1.93102
603.217	1.6121
604.952	2.57761
606.687	2.77418
608.421	3.1054
610.153	3.4755
611.886	4.56378
613.619	5.31017
615.35	5.37243
617.083	5.43897
618.815	6.28089
620.547	6.56701
622.276	6.86475
624.008	7.57035
625.738	7.97119
627.467	7.76333
629.197	8.46298
630.927	9.14822
632.655	8.36948
634.384	7.60822
636.113	8.49028
637.839	8.08567
639.568	8.524
641.293	7.92105
643.021	7.48785
644.748	6.62526
646.473	6.36534
648.2	6.74664
649.924	6.90226
651.65	6.92429
653.376	6.47196
655.099	6.89408
656.824	6.4002
658.546	6.21091
660.271	7.07906
661.993	6.31558
663.716	7.10375
665.438	6.69793
667.161	7.35046
668.881	8.08574
670.604	8.34442
672.324	9.03432
674.045	10.4328
675.765	11.6263
677.486	12.8464
679.204	12.1551
680.925	13.7174
682.643	14.7309
684.361	16.4479
686.08	16.9927
687.797	18.0437
689.516	19.5953
691.232	21.609
692.95	22.7481
694.666	23.9915
696.382	25.32
698.099	26.2536
699.813	26.5851
701.528	28.4579
703.244	29.4236
704.958	30.8396
706.673	30.7503
708.387	31.6055
710.099	31.8767
711.814	33.3902
713.526	33.3135
715.238	34.6068
716.949	35.0725
718.663	36.798
720.374	38.2614
722.084	39.4141
723.796	38.8067
725.506	39.768
727.216	40.152
728.925	41.2183
730.636	42.1165
732.345	44.0915
734.053	45.3288
735.761	46.8249
737.471	48.1982
739.178	49.4156
740.885	51.6744
742.592	52.2935
744.298	53.1896
746.006	54.3045
747.712	56.0861
749.417	57.9694
751.122	58.917
752.827	60.3842
754.532	61.825
756.236	63.8432
757.942	66.4753
759.645	68.3499
761.348	70.0001
763.051	70.8862
764.753	71.7571
766.456	73.6283
768.158	74.0925
769.859	75.2388
771.56	76.2569
773.261	77.079
774.964	77.515
776.664	77.0073
778.364	76.9889
780.064	77.885
781.763	76.7254
783.462	76.3657
785.16	75.2468
786.859	76.2815
788.557	75.0253
790.255	74.4872
791.952	73.9335
793.649	74.7243
795.346	74.6568
797.042	76.2801
798.738	75.6308
800.434	76.1807
802.127	76.13
803.823	75.5542
805.517	73.7168
807.212	72.3914
808.906	70.6284
810.6	71.3074
812.293	70.9089
813.987	70.8209
815.68	70.6516
817.372	71.1791
819.064	70.2705
820.754	70.2326
822.446	69.9836
824.137	69.7485
825.828	69.7497
827.519	69.4234
829.209	69.7779
830.897	70.3603
832.587	69.5791
834.276	68.0114
835.966	67.5098
837.654	66.9753
839.341	66.6989
841.029	65.9832
842.717	64.623
844.404	62.3135
846.091	61.1412
847.776	59.5226
849.463	59.115
851.149	57.7437
852.833	56.384
854.519	55.0932
856.204	53.6658
857.889	51.5088
859.572	50.3277
861.256	48.9441
862.94	47.6331
864.622	46.0325
866.305	43.4708
867.988	43.1255
869.669	42.3563
871.351	42.3957
873.033	40.5356
874.713	40.3395
876.395	40.7403
878.074	40.6272
879.755	40.4198
881.435	39.7897
883.114	38.9768
884.794	38.8922
886.471	37.9555
888.15	37.009
889.829	37.0448
891.506	36.4086
893.184	36.5027
894.861	37.4164
896.538	38.0483
898.214	37.819
899.891	38.1109
901.566	37.447
903.242	37.8122
904.916	38.4156
906.592	38.261
908.266	39.2668
909.941	39.8605
911.614	40.1805
913.288	39.9995
914.961	39.471
916.635	38.4999
918.306	38.4802
919.979	38.1841
921.651	37.6798
923.321	37.5595
924.994	37.6874
926.664	37.8232
928.336	37.3425
930.005	37.9402
931.674	37.8168
933.345	38.1864
935.014	37.512
936.682	37.6013
938.352	37.5284
940.019	36.672
941.687	35.501
943.356	34.6882
945.022	33.547
946.689	32.4746
948.357	32.7195
950.022	31.6518
951.688	31.4651
953.355	32.2103
955.02	32.8229
956.684	32.4442
958.348	32.1161
960.014	31.4368
961.678	30.486
963.341	30.4463
965.004	29.8972
966.669	31.1161
968.331	30.9045
969.993	30.3331
971.655	31.5869
973.316	31.1215
974.979	30.7634
976.64	31.8737
978.3	31.5181
979.961	31.1202
981.62	29.3143
983.28	27.9088
984.941	27.834
986.6	27.9479
988.259	27.9117
989.917	27.2841
991.575	27.5931
993.233	26.9997
994.89	27.4454
996.547	27.2695
998.204	27.6116
999.86	27.2027
1001.52	27.0866
1003.17	27.4517
1004.83	27.3695
1006.49	27.4841
1008.14	27.8849
1009.79	28.1703
1011.45	29.2059
1013.1	30.767
1014.76	30.9052
1016.41	31.6874
1018.06	31.022
1019.72	31.0981
1021.37	30.3545
1023.02	29.6419
1024.67	28.8385
1026.32	28.7634
1027.97	28.5733
1029.62	28.3739
1031.27	28.9289
1032.92	28.2787
1034.57	29.1621
1036.22	29.6023
1037.87	28.6071
1039.52	27.2731
1041.17	26.8713
1042.82	26.5821
1044.47	26.5327
1046.11	27.4398
1047.76	27.3129
1049.41	27.7002
1051.06	26.7804
1052.7	25.8515
1054.35	25.2265
1055.99	23.7065
1057.64	23.9024
1059.28	22.6203
1060.93	20.8964
1062.57	20.3029
1064.22	20.0414
1065.86	19.7955
1067.5	20.2698
1069.15	19.8756
1070.79	20.2148
1072.43	19.4822
1074.08	20.2708
1075.72	20.5624
1077.36	20.9689
1079	20.6472
1080.64	20.614
1082.28	20.2989
1083.92	20.164
1085.56	20.139
1087.2	19.4107
1088.84	20.8942
1090.48	22.1016
1092.12	22.7501
1093.76	23.5966
1095.39	23.4012
1097.03	22.5878
1098.67	22.7562
1100.31	22.4608
1101.94	22.8369
1103.58	22.0967
1105.22	21.6774
1106.85	21.552
1108.49	21.5151
1110.12	22.0128
1111.76	22.0567
1113.39	22.0273
1115.03	20.5456
1116.66	20.0826
1118.29	19.9226
1119.93	18.9252
1121.56	17.6496
1123.19	16.2949
1124.82	15.6334
1126.46	14.933
1128.09	14.6062
1129.72	12.742
1131.35	12.2062
1132.98	11.5645
1134.61	10.9579
1136.24	10.2007
1137.87	10.4549
1139.5	9.64305
1141.13	9.29214
1142.76	9.66335
1144.39	9.69138
1146.01	9.25172
1147.64	9.12537
1149.27	8.77621
1150.9	8.87652
1152.53	9.18276
1154.15	9.40587
1155.78	9.65574
1157.4	8.44783
1159.03	7.9242
1160.65	7.23556
1162.28	7.23268
1163.9	7.04416
1165.53	6.97369
1167.15	7.86936
1168.78	8.22789
1170.4	9.13137
1172.02	9.2179
1173.65	8.88117
1175.27	8.46461
1176.89	9.0051
1178.51	9.33692
1180.14	9.44024
1181.76	10.3029
1183.38	10.6812
1185	11.082
1186.62	12.1539
1188.24	12.6556
1189.86	12.828
1191.48	13.7739
1193.1	13.9966
1194.71	14.6778
1196.33	14.8497
1197.95	16.0983
1199.57	17.3697
1201.19	17.3834
1202.8	17.4266
1204.42	18.8496
1206.04	20.1087
1207.65	20.6735
1209.27	21.6587
1210.88	22.0114
1212.5	23.9999
1214.12	25.3124
1215.73	26.6242
1217.35	27.6681
1218.96	29.5544
1220.57	30.4684
1222.19	32.5722
1223.8	34.1237
1225.41	36.3188
1227.03	38.4562
1228.64	40.7727
1230.25	41.5737
1231.86	43.0768
1233.47	44.2548
1235.08	45.4546
1236.69	45.8839
1238.31	45.8939
1239.92	47.827
1241.52	48.7849
1243.13	49.1783
1244.74	48.7353
1246.35	48.7352
1247.96	47.4831
1249.57	47.0716
1251.18	46.432
1252.78	45.8466
1254.39	45.2366
1256	45.8843
1257.6	45.9059
1259.21	45.4582
1260.82	44.7768
1262.42	44.3879
1264.03	44.169
1265.63	43.4253
1267.24	42.2524
1268.84	40.929
1270.45	40.5314
1272.05	40.9425
1273.65	40.8174
1275.26	40.8099
1276.86	40.2252
1278.46	40.7018
1280.06	40.4797
1281.67	40.1319
1283.27	40.3683
1284.87	41.261
1286.47	41.7559
1288.07	43.0784
1289.67	43.79
1291.27	46.0145
1292.87	47.7802
1294.47	48.5543
1296.07	50.5978
1297.67	51.0236
1299.27	53.7349
1300.87	55.7051
1302.47	57.9565
1304.06	59.2813
1305.66	61.5905
1307.26	62.7905
1308.85	64.8819
1310.45	66.3434
1312.05	68.1689
1313.64	70.0955
1315.24	71.1564
1316.83	71.7377
1318.43	71.814
1320.02	73.2967
1321.62	72.4838
1323.21	71.5536
1324.8	71.6111
1326.4	71.5987
1327.99	70.3346
1329.59	70.9209
1331.18	69.7565
1332.77	69.5009
1334.36	68.7566
1335.95	68.4491
1337.54	67.3166
1339.14	66.6942
1340.73	65.0008
1342.32	63.4606
1343.91	63.1514
1345.5	61.0819
1347.09	59.6749
1348.67	59.0914
1350.26	58.4969
1351.85	58.5163
1353.44	57.6065
1355.03	56.4736
1356.62	55.906
1358.2	55.9239
1359.79	54.2548
1361.38	54.25
1362.96	54.1426
1364.55	53.8335
1366.14	54.3253
1367.72	54.956
1369.31	55.0426
1370.89	55.005
1372.48	54.4294
1374.06	54.4001
1375.64	54.9736
1377.23	54.6945
1378.81	55.2986
1380.39	54.6393
1381.98	54.5411
1383.56	55.3619
1385.14	55.6444
1386.72	54.978
1388.3	54.8163
1389.89	54.035
1391.47	53.1962
1393.05	52.3318
1394.63	50.8588
1396.21	49.5961
1397.79	48.3833
1399.37	48.0249
1400.95	47.0761
1402.52	46.5382
1404.1	46.6701
1405.68	46.1339
1407.26	45.0437
1408.84	45.4432
1410.42	44.7149
1411.99	44.8651
1413.57	45.5856
1415.15	46.3606
1416.72	46.4172
1418.3	47.5134
1419.87	47.4364
1421.45	50.193
1423.02	51.7144
1424.6	52.8439
1426.17	55.3254
1427.75	56.5645
1429.32	58.341
1430.89	60.4264
1432.47	61.9985
1434.04	63.0118
1435.61	64.1264
1437.18	65.5538
1438.76	66.6243
1440.33	69.0328
1441.9	70.3925
1443.47	71.8208
1445.04	73.4547
1446.61	74.9769
1448.18	75.7274
1449.75	76.1913
1451.32	76.9987
1452.89	77.3262
1454.46	77.0615
1456.03	77.0947
1457.6	75.9012
1459.16	75.432
1460.73	74.7822
1462.3	73.3956
1463.87	70.6666
1465.43	69.3878
1467	67.6635
1468.56	66.2762
1470.13	64.0257
1471.7	61.614
1473.26	59.0203
1474.83	56.0681
1476.39	53.7123
1477.96	52.5929
1479.52	51.4864
1481.08	49.1166
1482.65	46.1052
1484.21	43.1372
1485.77	41.0184
1487.34	39.883
1488.9	37.9846
1490.46	36.9225
1492.02	35.029
1493.58	32.5734
1495.15	31.7114
1496.71	31.1883
1498.27	29.3859
1499.83	28.8919
1501.39	26.7476
1502.95	26.036
1504.51	24.6667
1506.07	23.0168
1507.63	23.0683
1509.18	22.2417
1510.74	20.8496
1512.3	19.4636
1513.86	19.0693
1515.41	19.543
1516.97	18.9377
1518.53	18.9705
1520.08	18.2103
1521.64	18.79
1523.2	19.1248
1524.75	19.1133
1526.31	19.2899
1527.86	20.3843
1529.42	21.8615
1530.97	23.1381
1532.52	23.9509
1534.08	24.9176
1535.63	26.0272
1537.19	27.3181
1538.74	28.0927
1540.29	29.9727
1541.84	31.5529
1543.4	33.0522
1544.95	34.1956
1546.5	35.846
1548.05	37.4647
1549.6	39.4336
1551.15	41.0754
1552.7	43.0564
1554.25	45.9104
1555.8	48.9413
1557.35	49.5007
1558.9	50.5701
1560.45	52.3292
1562	54.8679
1563.54	56.296
1565.09	57.3454
1566.64	58.35
1568.19	59.3
1569.73	60.0074
1571.28	61.2492
1572.83	62.593
1574.37	63.4485
1575.92	63.6974
1577.47	63.7614
1579.01	64.5102
1580.56	65.8416
1582.1	65.8463
1583.64	66.3568
1585.19	66.7693
1586.73	66.6638
1588.28	66.5398
1589.82	66.3482
1591.36	66.3104
1592.9	66.3666
1594.45	65.7204
1595.99	65.0176
1597.53	63.7955
1599.07	63.0023
1600.61	61.7938
1602.15	60.9156
1603.69	60.3251
1605.23	59.9639
1606.77	58.988
1608.31	58.4506
1609.85	57.4413
1611.39	56.5215
1612.93	55.9112
1614.47	54.893
1616.01	54.8324
1617.55	55.3986
1619.08	54.1039
1620.62	54.4958
1622.16	55.2343
1623.7	56.0051
1625.23	56.8856
1626.77	56.5498
1628.3	56.7238
1629.84	57.2619
1631.37	57.0193
1632.91	57.6124
1634.44	58.1308
1635.98	59.6282
1637.51	59.7475
1639.05	59.5147
1640.58	60.1323
1642.11	61.9882
1643.65	63.3795
1645.18	64.1815
1646.71	64.7973
1648.24	65.6134
1649.78	65.9324
1651.31	66.3201
1652.84	66.0657
1654.37	66.762
1655.9	67.5449
1657.43	67.6204
1658.96	67.1778
1660.49	67.3489
1662.02	67.1288
1663.55	66.2054
1665.08	65.7363
1666.61	64.3542
1668.14	63.5753
1669.66	62.3768
1671.19	61.0228
1672.72	59.2741
1674.25	57.4224
1675.77	55.9954
1677.3	54.8644
1678.83	53.7127
1680.35	52.4634
1681.88	51.6939
1683.4	50.8004
1684.93	50.0569
1686.45	48.3777
1687.98	47.2325
1689.5	45.4067
1691.03	44.3746
1692.55	42.8106
1694.07	41.4644
1695.6	39.3596
1697.12	38.375
1698.64	36.5355
1700.17	34.1315
1701.69	32.5639
1703.21	30.3483
1704.73	29.5622
1706.25	28.7185
1707.77	27.2785
1709.29	26.8444
1710.81	25.9146
1712.33	24.6642
1713.85	23.2212
1715.37	22.9225
1716.89	22.1395
1718.41	21.4081
1719.93	19.4275
1721.45	17.8127
1722.97	16.953
1724.49	16.3421
1726	15.1908
1727.52	14.3011
1729.04	13.1037
1730.55	12.6965
1732.07	11.8174
1733.59	11.2543
1735.1	11.303
1736.62	10.9226
1738.13	10.1077
1739.65	9.84346
1741.16	9.84647
1742.68	8.81398
1744.19	9.5795
1745.7	9.57157
1747.22	9.23083
1748.73	9.02032
1750.24	9.2838
1751.76	10.109
1753.27	10.5621
1754.78	11.3232
1756.29	11.8978
1757.8	12.343
1759.31	12.6068
1760.83	12.9299
1762.34	12.5163
1763.85	12.1267
1765.36	11.7434
1766.87	12.2296
1768.38	12.2743
1769.89	12.366
1771.39	11.5984
1772.9	11.1771
1774.41	11.1603
1775.92	10.9604
1777.43	11.5837
1778.94	11.8082
1780.44	12.3338
1781.95	12.5033
1783.46	11.9669
1784.96	12.5259
1786.47	12.3096
1787.97	11.6898
1789.48	11.4368
1790.99	11.2829
1792.49	10.2735
1794	9.89982
1795.5	9.41187
1797	8.93264
1798.51	9.20097
1800.01	8.36801
1801.51	7.81181
1803.02	7.20167
1804.52	7.36844
1806.02	7.66418
1807.53	7.16113
1809.03	7.15226
1810.53	7.18838
1812.03	6.53499
1813.53	5.93891
1815.03	6.25874
1816.53	6.28302
1818.03	6.49936
1819.53	7.16466
1821.03	6.57795
1822.53	7.45612
1824.03	8.38999
1825.53	8.31103
1827.03	8.32329
1828.53	8.56814
1830.02	8.75767
1831.52	8.85378
1833.02	8.63032
1834.52	8.80191
1836.01	8.82466
1837.51	8.81461
1839.01	8.81636
1840.5	9.37052
1842	9.65882
1843.49	9.49608
1844.99	9.15843
1846.48	8.98206
1847.98	8.87663
1849.47	9.44122
1850.97	9.24357
1852.46	9.27512
1853.95	9.10777
1855.45	8.76185
1856.94	7.92616
1858.43	7.32308
1859.93	6.94045
1861.42	5.97752
1862.91	5.72727
1864.4	5.35897
1865.89	4.52531
1867.38	4.22843
1868.87	4.29076
1870.36	4.67104
1871.85	4.62751
1873.34	5.15366
1874.83	4.87232
1876.32	5.35549
1877.81	5.97058
1879.3	6.60893
1880.79	5.76631
1882.28	6.22452
1882.52	6.61056
1884.02	7.30086
1885.51	7.26048
1887.01	8.20628
1888.5	8.51272
1889.99	8.3458
1891.49	8.74121
1892.98	8.6598
1894.47	8.614
1895.97	9.00869
1897.46	8.1624
1898.95	7.94359
1900.44	8.51136
1901.93	8.51186
1903.42	8.97047
1904.91	8.68269
1906.4	8.37774
1907.89	8.68369
1909.38	8.92087
1910.87	9.03141
1912.36	8.84148
1913.85	9.1367
1915.34	8.60071
1916.83	8.85844
1918.32	9.13796
1919.8	8.73525
1921.29	8.57233
1922.78	7.81532
1924.27	6.86804
1925.75	5.88058
1927.24	4.67023
1928.73	4.57154
1930.21	3.84467
1931.7	3.92165
1933.18	4.33113
1934.67	4.10783
1936.15	4.10923
1937.64	3.9182
1939.12	3.50129
1940.61	3.60937
1942.09	3.69053
1943.57	3.77112
1945.06	3.54469
1946.54	2.92527
1948.02	3.30685
1949.51	3.25914
1950.99	2.48759
1952.47	1.86114
1953.95	1.36085
1955.43	1.47189
1956.91	0.9051
1958.4	1.40645
1959.88	0.854682
1961.36	0.939608
1962.84	0.143934
1964.32	-0.0063815
1965.8	-0.117109
1967.27	0.000490915
1968.75	0.358733
1970.23	0.152192
1971.71	0.743794
1973.19	1.09789
1974.67	1.11565
1976.14	1.28316
1977.62	1.92219
1979.1	1.76277
1980.58	2.22651
1982.05	2.96441
1983.53	3.57309
1985	3.70027
1986.48	3.74023
1987.95	4.54443
1989.43	5.24696
1990.9	5.90702
1992.38	6.16785
1993.85	5.87286
1995.33	5.71776
1996.8	5.24753
1998.27	5.50853
1999.75	5.74136
2001.22	6.37337
2002.69	7.02357
2004.16	6.65156
2005.64	7.03592
2007.11	7.1466
2008.58	6.82928
2010.05	6.99978
2011.52	7.28986
2012.99	7.27887
2014.46	7.33487
2015.93	7.53124
2017.4	7.48403
2018.87	7.35019
2020.34	7.30916
2021.81	7.49992
2023.28	6.80083
2024.75	6.69385
2026.22	7.24016
2027.69	7.68197
2029.15	7.80504
2030.62	8.04039
2032.09	8.61663
2033.56	8.02611
2035.02	7.68432
2036.49	7.92985
2037.96	8.21154
2039.42	8.22786
2040.89	7.94513
2042.35	7.75873
2043.82	7.1155
2045.28	7.01412
2046.75	6.37104
2048.21	6.37711
2049.67	6.10339
2051.14	6.07673
2052.6	5.91754
2054.07	5.7424
2055.53	5.68618
2056.99	5.60029
2058.45	4.92601
2059.92	4.92213
2061.38	5.5877
2062.84	5.12447
2064.3	4.90745
2065.76	5.41004
2067.22	4.96769
2068.68	4.76462
2070.14	4.69016
2071.6	5.00551
2073.06	5.00783
2074.52	4.61351
2075.98	4.57339
2077.44	4.05314
2078.9	4.55229
2080.36	4.60809
2081.82	5.02309
2083.27	5.46318
2084.73	5.99224
2086.19	5.73981
2087.65	5.7513
2089.1	6.34469
2090.56	6.3304
2092.02	5.90782
2093.47	5.94809
2094.93	5.61998
2096.38	5.95198
2097.84	6.09144
2099.29	6.50642
2100.75	6.45754
2102.2	6.09829
2103.66	5.88487
2105.11	5.91142
2106.56	5.64465
2108.02	5.90459
2109.47	6.11079
2110.92	5.68604
2112.38	5.12301
2113.83	4.8187
2115.28	4.71262
2116.73	4.25304
2118.18	4.44493
2119.63	4.67173
2121.09	4.24465
2122.54	3.72886
2123.99	3.99844
2125.44	2.86825
2126.89	2.83525
2128.34	3.06363
2129.79	2.98789
2131.23	2.94432
2132.68	3.01229
