#Acq. time (s)=	45
#Accumulations=	2
#Range (cm-¹)=	200...3150
#Windows=	2
#Auto scanning=	Off
#Autofocus=	Off
#Macrospot=	Off
#AutoExposure=	Off
#Spike filter=	Multiple accum.
#Delay time (s)=	0
#Binning=	1
#Readout mode=	Signal
#DeNoise=	Off
#ICS correction=	On
#Dark correction=	Off
#Inst. Process=	Off
#Detector Gain=	Best Dynamic Range
#Detector ADC=	20 kHz       
#Detector temperature (°C)=	-69.85
#Instrument=	LabRAM HR Evol
#Detector=	Synapse
#Objective=	x100
#Grating=	600 gr/mm
#ND Filter=	100%
#Laser (nm)=	532 
#Hole=	100.021
#Range=	Auto
#Laser Pol.=	No
#Raman. Pol.=	No
#Laser Pol. (°)=	-0.0007625
#Raman Pol. (°)=	89.9995
#Collection=	Microscope
#StageXY=	Marzhauser
#StageZ=	Marzhauser
#X (µm)=	-5103.2
#Y (µm)=	1488.1
#Z (µm)=	63.05
#Full time(mm:ss)=	3:18
#Project=	
#Sample=	
#Site=	
#Title=	Thy_50_12_22_2x_45s_532 nm_x100_100%_600 gr_mm
#Remark=	
#Date=	07.07.2022 10:50
#Acquired=	07.07.2022 10:50:40
#Base:Fit=	10.08.2022 10:04:29
#Base:Sub=	10.08.2022 10:04:45
#Filter:Polynom=	16.08.2022 10:20:24
#AxisType[0]=Intens
#AxisUnit[0]=Cnt
#AxisType[1]=Spectr
#AxisUnit[1]=1/cm
200.43	57.8533
202.246	55.8723
204.061	50.9584
205.875	46.8577
207.688	42.8272
209.501	39.2829
211.316	36.3935
213.129	33.5262
214.941	31.1664
216.753	28.8417
218.566	26.6889
220.377	23.4855
222.188	21.1173
223.999	19.8888
225.809	17.3712
227.618	15.5286
229.43	15.8811
231.239	14.3644
233.047	14.6879
234.855	12.9997
236.663	11.8368
238.471	11.4552
240.278	10.5257
242.087	10.1039
243.894	9.08051
245.7	8.22937
247.506	9.00544
249.311	9.60441
251.116	9.61654
252.921	9.61508
254.725	10.2492
256.529	9.9218
258.333	8.87424
260.136	8.48171
261.939	8.94188
263.744	9.37752
265.546	10.6266
267.348	11.211
269.15	11.8666
270.951	13.0355
272.752	13.7132
274.552	14.7213
276.353	14.4835
278.152	14.4807
279.952	13.6024
281.751	11.992
283.55	11.9914
285.348	12.4298
287.146	12.707
288.942	12.9424
290.739	12.3803
292.536	12.6728
294.333	13.6711
296.129	14.5075
297.925	15.3545
299.721	15.5632
301.516	16.8914
303.311	16.2968
305.106	16.1145
306.9	15.7389
308.694	15.5778
310.486	15.4306
312.279	16.4147
314.072	15.9766
315.864	15.3427
317.656	16.0034
319.448	16.4865
321.24	15.5582
323.029	15.7464
324.819	14.9207
326.61	14.969
328.4	15.3237
330.19	15.1366
331.977	15.4551
333.766	15.3111
335.555	15.9187
337.343	16.6219
339.131	15.7326
340.917	15.4631
342.704	15.2555
344.491	15.7274
346.277	16.3336
348.062	15.6205
349.848	15.9399
351.633	16.3302
353.416	14.9634
355.201	14.8441
356.986	13.1784
358.77	12.7254
360.552	12.4734
362.335	12.4594
364.118	11.8768
365.899	10.4505
367.682	9.8444
369.464	10.3232
371.243	10.532
373.025	11.1177
374.806	10.9206
376.585	11.3858
378.365	9.78833
380.143	9.1871
381.923	9.43357
383.702	10.0722
385.479	9.9876
387.258	9.55672
389.034	10.291
390.812	10.0361
392.59	8.69853
394.365	8.38166
396.142	7.64997
397.916	7.24931
399.693	6.76778
401.467	5.75468
403.242	4.32311
405.015	4.33076
406.79	4.4898
408.565	4.80056
410.337	4.16152
412.111	4.98631
413.882	5.56938
415.656	4.97088
417.426	5.70221
419.197	5.21227
420.969	5.43911
422.739	5.29325
424.51	5.74498
426.279	5.79304
428.05	5.46006
429.819	5.69585
431.589	5.46769
433.356	5.52256
435.124	5.19864
436.893	4.43257
438.66	4.95763
440.428	5.08644
442.194	4.64317
443.96	5.16243
445.727	4.74152
447.492	6.57244
449.259	7.02618
451.023	7.51138
452.787	6.91412
454.553	7.25622
456.316	7.3295
458.079	8.31372
459.844	7.64233
461.606	8.97465
463.368	9.04165
465.132	9.67699
466.893	9.25716
468.654	9.65591
470.415	11.2173
472.177	11.6909
473.937	12.4393
475.696	13.8508
477.456	13.7758
479.217	13.3047
480.975	14.7216
482.733	15.2756
484.491	16.1024
486.251	15.7736
488.008	15.8928
489.765	16.2141
491.522	16.9016
493.278	17.7483
495.036	18.5703
496.791	18.605
498.546	17.9479
500.301	18.8924
502.056	19.1967
503.81	18.7439
505.566	19.7099
507.319	19.5595
509.073	20.2955
510.825	20.299
512.578	18.5587
514.33	18.5546
516.082	18.0185
517.833	18.3861
519.587	17.7701
521.337	16.8128
523.088	16.8071
524.838	16.3621
526.588	16.5205
528.337	15.3042
530.087	13.951
531.835	13.0462
533.584	12.0844
535.332	11.8833
537.08	10.9611
538.827	11.0506
540.574	9.77283
542.321	9.08949
544.068	7.75024
545.814	7.82931
547.56	6.11918
549.305	6.22852
551.05	4.64734
552.795	4.85932
554.54	3.85772
556.284	3.52944
558.027	3.9489
559.771	3.13385
561.514	3.82412
563.257	2.94564
564.999	2.10354
566.742	2.99172
568.481	2.42211
570.223	1.26298
571.964	0.870057
573.705	0.523089
575.445	1.12599
577.185	1.66633
578.925	2.26901
580.665	2.16394
582.402	2.70477
584.141	2.0404
585.879	3.09959
587.617	3.75396
589.355	4.10199
591.092	3.73411
592.828	4.22357
594.564	4.60303
596.301	4.43609
598.037	4.17333
599.773	3.60837
601.506	6.29089
603.242	5.61335
604.976	6.41452
606.711	6.31694
608.443	6.42725
610.177	6.69546
611.91	7.38268
613.644	6.96485
615.374	6.23529
617.107	6.80533
618.839	7.03448
620.569	7.49822
622.3	7.8684
624.032	7.48784
625.761	7.54664
627.491	6.49189
629.221	7.13854
630.949	6.16984
632.679	5.55648
634.408	5.84353
636.135	6.9343
637.863	6.65116
639.592	7.01753
641.318	6.91487
643.045	7.04826
644.77	6.18397
646.497	5.97043
648.224	6.56776
649.948	6.34326
651.674	7.81759
653.398	9.22109
655.123	9.57654
656.846	10.2423
658.57	10.8739
660.293	12.0124
662.017	12.2383
663.738	12.9664
665.462	13.0014
667.185	13.7044
668.905	14.5873
670.628	14.6068
672.348	15.1196
674.067	15.399
675.789	16.5298
677.508	17.2358
679.228	18.4278
680.947	19.8392
682.667	20.6596
684.385	22.3575
686.104	24.1181
687.821	25.8654
689.538	26.6269
691.256	28.6702
692.972	29.0616
694.69	30.1693
696.406	31.3242
698.121	32.6651
699.837	34.7845
701.552	37.1809
703.268	38.944
704.982	39.5181
706.695	40.6645
708.41	40.6264
710.123	41.4735
711.836	41.7808
713.55	42.3664
715.262	44.7492
716.973	44.6349
718.685	46.448
720.398	48.2647
722.108	48.7137
723.818	48.2535
725.53	48.6428
727.24	50.3855
728.949	49.9403
730.658	50.7043
732.369	52.0298
734.077	53.5752
735.785	54.0246
737.493	54.453
739.2	52.9216
740.909	52.7634
742.616	52.7448
744.322	53.6796
746.028	54.5265
747.734	55.0759
749.441	55.7366
751.146	56.7652
752.851	58.0711
754.555	58.2188
756.26	59.113
757.963	59.2292
759.667	61.2389
761.372	61.3063
763.075	60.8067
764.777	62.0828
766.479	62.8959
768.181	63.3387
769.883	64.3168
771.584	65.1825
773.285	66.3032
774.986	67.5078
776.686	68.6935
778.386	69.8307
780.085	71.6247
781.785	72.5686
783.484	74.3088
785.182	76.6506
786.881	77.8597
788.579	78.4849
790.276	78.46
791.974	79.1691
793.671	79.7762
795.367	81.3148
797.064	82.5189
798.76	83.7357
800.456	83.6817
802.151	82.5438
803.846	83.6499
805.541	83.5052
807.236	84.1359
808.93	83.6227
810.624	83.966
812.317	83.537
814.01	82.329
815.703	82.7489
817.394	81.6059
819.086	81.6033
820.778	81.2006
822.47	81.5088
824.161	81.5082
825.852	81.712
827.543	80.9294
829.231	80.7044
830.921	80.3361
832.611	79.9082
834.3	79.3586
835.989	77.8165
837.676	76.9415
839.364	75.528
841.053	73.6751
842.74	71.1245
844.426	69.8211
846.113	66.3653
847.8	64.4266
849.486	63.4998
851.171	62.8511
852.857	61.5698
854.542	61.2132
856.227	60.074
857.911	59.7987
859.595	58.5638
861.279	57.4398
862.961	56.975
864.645	56.4196
866.329	56.1183
868.01	56.5591
869.692	56.2876
871.375	55.3725
873.055	54.7397
874.737	53.7114
876.418	52.7962
878.097	52.2096
879.778	52.1759
881.457	50.9427
883.137	50.0019
884.817	49.1882
886.495	49.044
888.174	49.4034
889.851	48.4768
891.53	47.76
893.206	46.708
894.884	46.1857
896.562	46.0969
898.237	46.1496
899.914	45.5695
901.589	44.5603
903.265	45.3197
904.94	44.9012
906.615	43.9034
908.289	42.318
909.964	42.0867
911.637	41.5818
913.31	41.3849
914.984	40.7523
916.656	40.5259
918.33	40.8862
920.001	39.5869
921.674	38.9024
923.345	37.853
925.015	37.647
926.687	36.8351
928.357	35.5702
930.028	35.2185
931.698	35.8245
933.366	36.4224
935.037	36.8416
936.705	37.1176
938.373	37.8567
940.043	37.9602
941.71	37.1712
943.379	36.7164
945.046	36.2937
946.712	37.5698
948.378	38.5085
950.046	39.2067
951.711	40.2271
953.376	40.5067
955.043	39.6063
956.708	40.3801
958.372	39.8578
960.036	38.8273
961.701	39.1966
963.364	38.426
965.027	38.6282
966.69	38.6405
968.354	38.0384
970.016	36.9372
971.678	36.462
973.339	35.0957
975	34.1132
976.661	33.2056
978.324	32.0769
979.984	32.4372
981.644	31.2756
983.303	31.4972
984.962	30.6062
986.621	30.7339
988.282	28.7932
989.94	28.4981
991.598	28.7817
993.256	29.0807
994.913	27.6687
996.57	28.0606
998.227	27.9353
999.884	28.207
1001.54	28.1566
1003.2	28.0454
1004.85	28.1533
1006.51	29.1578
1008.16	30.199
1009.82	30.0322
1011.47	30.965
1013.12	32.7245
1014.78	32.9677
1016.43	33.8783
1018.08	34.7819
1019.74	35.7815
1021.39	35.4268
1023.04	35.6217
1024.69	36.6073
1026.34	38.6916
1028	40.3483
1029.65	42.4782
1031.3	42.5171
1032.95	42.7532
1034.6	42.2412
1036.25	40.3576
1037.9	38.6039
1039.55	39.268
1041.19	37.6237
1042.84	36.2862
1044.49	36.0614
1046.14	34.657
1047.79	34.6599
1049.43	33.0513
1051.08	31.2778
1052.73	29.3052
1054.37	28.3083
1056.02	27.2693
1057.66	25.7507
1059.31	25.1092
1060.95	24.3465
1062.6	23.36
1064.24	22.0084
1065.88	20.1571
1067.53	18.8391
1069.17	18.323
1070.81	16.1569
1072.46	16.0659
1074.1	16.245
1075.74	15.3894
1077.38	14.082
1079.02	14.4166
1080.66	13.4622
1082.3	12.5543
1083.94	12.641
1085.58	11.2731
1087.22	10.2442
1088.86	9.91429
1090.5	9.5762
1092.14	8.39202
1093.78	9.20178
1095.42	10.0917
1097.05	10.8639
1098.69	11.4434
1100.33	12.5157
1101.97	12.055
1103.6	12.5834
1105.24	13.9461
1106.87	14.3017
1108.51	14.3749
1110.15	14.3857
1111.78	14.1075
1113.41	13.3056
1115.05	13.297
1116.68	12.8663
1118.31	13.4492
1119.95	14.6158
1121.58	14.5435
1123.21	14.3107
1124.85	14.1551
1126.48	14.6753
1128.11	14.2505
1129.74	14.547
1131.37	13.0848
1133	12.6364
1134.63	12.6862
1136.26	12.9357
1137.89	13.3785
1139.52	12.674
1141.15	13.389
1142.78	12.4019
1144.41	12.2513
1146.04	11.8169
1147.66	11.9851
1149.29	12.842
1150.92	12.2786
1152.55	11.86
1154.17	12.6163
1155.8	12.4521
1157.43	10.9568
1159.05	9.95852
1160.68	9.02171
1162.3	7.50323
1163.93	6.91329
1165.55	7.18877
1167.17	5.73632
1168.8	6.36497
1170.42	6.02285
1172.05	6.26106
1173.67	6.27294
1175.29	7.65664
1176.91	7.24803
1178.54	6.51736
1180.16	5.63477
1181.78	4.95494
1183.4	4.66028
1185.02	5.62041
1186.64	5.96747
1188.26	6.00647
1189.88	6.56195
1191.5	5.98705
1193.12	6.0247
1194.74	5.70617
1196.36	6.41074
1197.97	6.93043
1199.59	7.73562
1201.21	7.20985
1202.83	6.60726
1204.44	8.11604
1206.06	8.36788
1207.68	9.74121
1209.29	10.2484
1210.91	10.2175
1212.52	10.9204
1214.14	12.7354
1215.75	14.8714
1217.37	15.9354
1218.98	17.6094
1220.6	18.4411
1222.21	20.0426
1223.82	21.6916
1225.44	23.1738
1227.05	24.0741
1228.66	26.2686
1230.27	27.3568
1231.88	28.3813
1233.49	29.6259
1235.1	31.6907
1236.72	33.0942
1238.33	34.136
1239.94	35.5628
1241.55	36.5611
1243.16	37.9362
1244.76	38.7588
1246.37	40.8402
1247.98	41.138
1249.59	42.518
1251.2	43.9357
1252.8	45.6136
1254.41	47.1661
1256.02	48.7372
1257.63	49.0378
1259.23	50.4488
1260.84	51.7858
1262.44	52.5506
1264.05	53.7549
1265.66	54.3506
1267.26	55.4913
1268.87	55.7862
1270.47	56.1159
1272.07	57.1371
1273.68	58.7834
1275.28	59.4572
1276.88	61.1192
1278.48	62.3626
1280.09	62.9536
1281.69	64.1426
1283.29	65.6976
1284.89	67.1069
1286.49	67.7642
1288.09	69.2114
1289.69	70.0353
1291.3	70.0873
1292.9	71.0349
1294.49	71.6777
1296.09	73.1045
1297.69	72.6874
1299.29	72.8833
1300.89	72.5023
1302.49	72.8273
1304.09	73.1268
1305.68	71.4831
1307.28	71.6727
1308.88	71.6086
1310.47	71.5963
1312.07	71.6612
1313.66	72.388
1315.26	72.6321
1316.86	72.2678
1318.45	71.3522
1320.05	70.8374
1321.64	69.5637
1323.23	68.7794
1324.83	68.4977
1326.42	68.55
1328.01	67.041
1329.61	66.3251
1331.2	65.6415
1332.79	64.8746
1334.38	64.8987
1335.98	62.5558
1337.57	62.0052
1339.16	61.0613
1340.75	59.519
1342.34	57.2964
1343.93	55.9895
1345.52	55.888
1347.11	54.8652
1348.7	52.6244
1350.29	51.7411
1351.87	50.9184
1353.46	49.2442
1355.05	47.952
1356.64	47.7855
1358.23	46.1806
1359.81	44.9557
1361.4	45.4592
1362.99	44.3942
1364.57	43.2949
1366.16	42.6411
1367.74	41.7129
1369.33	40.1912
1370.91	38.8922
1372.5	37.4119
1374.08	37.5173
1375.67	37.8642
1377.25	36.5701
1378.83	35.7892
1380.42	36.5133
1382	36.3776
1383.58	36.5373
1385.16	36.2693
1386.75	37.2834
1388.33	37.6249
1389.91	38.1136
1391.49	38.002
1393.07	38.6211
1394.65	37.2569
1396.23	37.2615
1397.81	36.6452
1399.39	37.2584
1400.97	37.3984
1402.55	37.9481
1404.13	38.6987
1405.7	39.8185
1407.28	40.96
1408.86	42.0742
1410.44	43.7007
1412.01	45.3811
1413.59	46.1832
1415.17	46.8703
1416.74	49.7396
1418.32	51.2553
1419.89	53.5078
1421.47	55.0085
1423.05	57.9753
1424.62	60.193
1426.19	61.7252
1427.77	63.013
1429.34	65.4617
1430.92	68.1745
1432.49	70.0816
1434.06	72.448
1435.63	73.9615
1437.2	75.5384
1438.78	76.9735
1440.35	78.6322
1441.92	79.3323
1443.49	79.2644
1445.06	80.6993
1446.63	81.6944
1448.2	81.9754
1449.77	82.6262
1451.34	82.7358
1452.91	83.5029
1454.48	82.8689
1456.05	81.8574
1457.62	80.7769
1459.18	80.6948
1460.75	78.364
1462.32	76.38
1463.89	74.1631
1465.45	71.3136
1467.02	69.2692
1468.59	66.066
1470.15	63.0632
1471.72	59.8293
1473.28	55.2059
1474.85	52.9067
1476.41	49.1848
1477.98	46.3707
1479.54	42.8124
1481.11	39.8231
1482.67	36.9502
1484.23	33.6797
1485.8	30.8242
1487.36	27.9814
1488.92	25.3226
1490.48	22.7799
1492.05	20.1451
1493.61	19.8578
1495.17	18.0279
1496.73	16.4646
1498.29	15.6277
1499.85	14.5991
1501.41	14.3921
1502.97	13.2187
1504.53	12.3911
1506.09	12.0414
1507.65	12.7188
1509.2	13.4605
1510.76	12.9432
1512.32	13.6258
1513.88	13.6445
1515.44	14.0811
1516.99	15.7136
1518.55	17.3466
1520.1	18.4474
1521.66	19.7056
1523.22	22.715
1524.77	23.9433
1526.33	24.8522
1527.88	26.059
1529.44	26.7511
1530.99	28.8776
1532.55	30.0704
1534.1	31.6938
1535.65	33.8108
1537.21	36.3176
1538.76	38.1287
1540.31	40.8831
1541.86	42.4983
1543.42	44.6061
1544.97	47.3227
1546.52	48.1506
1548.07	49.9872
1549.62	50.808
1551.17	53.1527
1552.72	54.8149
1554.27	56.834
1555.82	58.4932
1557.37	59.6953
1558.92	60.9368
1560.47	63.13
1562.02	64.4465
1563.57	65.5172
1565.11	66.4949
1566.66	67.4834
1568.21	68.7424
1569.75	70.6214
1571.3	72.4064
1572.85	73.3493
1574.39	74.4318
1575.94	75.6144
1577.49	75.63
1579.03	76.4553
1580.58	76.7398
1582.12	76.4254
1583.67	77.5596
1585.21	77.7865
1586.75	77.3407
1588.3	77.6909
1589.84	77.7493
1591.38	77.1291
1592.93	76.469
1594.47	76.288
1596.01	74.2475
1597.55	74.4575
1599.09	74.1179
1600.63	73.2392
1602.18	71.2134
1603.72	70.2379
1605.26	68.7252
1606.8	67.6471
1608.34	67.595
1609.87	66.6169
1611.41	66.3999
1612.95	66.7027
1614.49	65.8888
1616.03	66.0408
1617.57	65.871
1619.11	64.6419
1620.64	65.6109
1622.18	65.384
1623.72	64.8881
1625.25	65.4086
1626.79	65.5143
1628.32	66.4495
1629.86	65.712
1631.4	66.4417
1632.93	66.0299
1634.47	67.9807
1636	68.6725
1637.53	69.9799
1639.07	69.3009
1640.6	70.0315
1642.14	71.5107
1643.67	72.1217
1645.2	73.6251
1646.73	74.0193
1648.27	75.5435
1649.8	76.9425
1651.33	76.334
1652.86	76.9368
1654.39	77.8765
1655.92	79.1184
1657.45	79.0009
1658.98	78.9975
1660.51	79.6115
1662.04	78.6243
1663.57	78.3516
1665.1	77.5615
1666.63	75.6908
1668.16	74.5194
1669.69	73.4933
1671.21	72.8893
1672.74	72.0696
1674.27	72.1287
1675.79	69.535
1677.32	66.8591
1678.85	64.073
1680.37	62.1718
1681.9	58.59
1683.42	56.4098
1684.95	54.2617
1686.47	51.3695
1688	48.5357
1689.52	45.8021
1691.05	42.8014
1692.57	40.4667
1694.1	37.3518
1695.62	34.1035
1697.14	32.3587
1698.66	29.8823
1700.19	26.9897
1701.71	24.6851
1703.23	21.4586
1704.75	19.2582
1706.27	17.6653
1707.79	15.8992
1709.32	14.3776
1710.83	13.3378
1712.35	10.5501
1713.88	9.52687
1715.39	8.19074
1716.91	7.16981
1718.43	6.66532
1719.95	5.68835
1721.47	6.01668
1722.99	5.41388
1724.5	5.59337
1726.02	4.63885
1727.54	3.49029
1729.06	3.77189
1730.57	4.25624
1732.09	4.23967
1733.61	3.48128
1735.12	3.27241
1736.64	3.31723
1738.15	2.78235
1739.67	2.87272
1741.18	2.33652
1742.7	2.66429
1744.21	3.34762
1745.72	3.41667
1747.24	3.45724
1748.75	3.47421
1750.26	3.49271
1751.78	2.1622
1753.29	1.97334
1754.8	1.51218
1756.31	1.41286
1757.82	0.298899
1759.34	0.675833
1760.85	0.378518
1762.36	0.0614646
1763.87	0.274417
1765.38	0.210534
1766.89	-0.188472
1768.4	-0.240043
1769.91	-0.381533
1771.41	-0.495692
1772.92	0.0783814
1774.43	-0.746967
1775.94	-1.17845
1777.45	-0.606759
1778.96	-0.58909
1780.46	0.286465
1781.97	0.425498
1783.48	0.109844
1784.98	0.225861
1786.49	0.223613
1788	0.0939509
1789.5	0.635037
1791.01	1.09714
1792.51	1.13029
1794.01	0.799852
1795.52	0.992525
1797.02	1.5295
1798.53	0.977255
1800.03	0.828379
1801.54	1.23021
1803.04	1.04289
1804.54	1.20553
1806.04	1.59486
1807.54	1.61756
1809.05	1.50299
1810.55	1.40257
1812.05	1.05583
1813.55	0.592793
1815.05	0.730808
1816.55	0.949949
1818.05	1.0149
1819.55	1.07729
1821.05	0.78678
1822.55	0.786089
1824.05	0.799979
1825.55	0.619753
1827.05	1.03578
1828.55	1.63225
1830.04	1.2254
1831.54	1.39885
1833.04	1.54373
1834.54	1.9406
1836.03	2.39824
1837.53	2.44349
1839.03	2.7391
1840.52	2.99293
1842.02	2.5323
1843.51	3.24997
1845.01	3.71062
1846.5	3.80476
1848	4.06753
1849.49	3.76702
1850.99	4.04531
1852.48	3.99893
1853.97	3.77227
1855.47	3.6485
1856.96	4.0161
1858.45	3.60441
1859.94	3.76669
1861.44	3.3366
1862.93	3.23552
1864.42	3.30598
1865.91	3.72317
1867.4	2.56535
1868.89	2.43135
1870.38	3.06307
1871.87	2.78209
1873.36	2.48586
1874.85	3.29614
1876.34	3.69892
1877.83	4.41356
1879.32	4.29954
1880.81	4.37223
1882.3	4.3853
1882.56	4.35236
1884.06	4.10644
1885.55	4.15082
1887.04	4.2101
1888.54	4.87472
1890.03	4.54651
1891.52	4.66064
1893.02	4.66133
1894.51	4.2735
1896	4.23054
1897.49	5.14824
1898.99	5.56806
1900.48	6.53065
1901.97	6.03858
1903.46	5.9223
1904.95	6.11513
1906.44	6.4336
1907.93	6.71988
1909.42	6.62777
1910.91	7.09095
1912.4	7.73774
1913.89	7.71063
1915.38	7.63545
1916.86	8.40423
1918.35	8.22723
1919.84	7.91914
1921.33	7.28327
1922.82	6.94154
1924.3	6.51625
1925.79	6.32498
1927.28	6.16185
1928.76	5.97936
1930.25	5.93116
1931.74	5.32512
1933.22	4.88107
1934.71	3.93298
1936.19	4.53176
1937.67	3.60124
1939.16	3.68694
1940.64	2.93634
1942.13	3.29895
1943.61	3.03847
1945.09	3.34621
1946.58	3.18068
1948.06	3.68085
1949.54	3.30705
1951.03	3.32034
1952.51	1.86309
1953.99	1.70163
1955.47	1.51609
1956.95	1.60012
1958.43	1.34503
1959.91	0.994965
1961.39	0.906387
1962.87	1.46825
1964.35	0.472156
1965.83	0.623892
1967.31	0.570454
1968.79	0.0380932
1970.27	0.329476
1971.75	1.04753
1973.22	0.325009
1974.7	0.377897
1976.18	0.148707
1977.66	0.656291
1979.13	0.526909
1980.61	1.00542
1982.09	1.42565
1983.56	1.3869
1985.04	2.66707
1986.52	3.09002
1987.99	2.73334
1989.47	2.88719
1990.94	3.28402
1992.41	3.4185
1993.89	3.98427
1995.36	4.1047
1996.84	4.16777
1998.31	4.41776
1999.78	4.15259
2001.26	3.81701
2002.73	3.59929
2004.2	3.11851
2005.67	3.02775
2007.15	3.24277
2008.62	3.33121
2010.09	3.52386
2011.56	2.92083
2013.03	3.70786
2014.5	3.74975
2015.97	3.9857
2017.44	4.35179
2018.91	4.66863
2020.38	5.36009
2021.85	5.69797
2023.32	6.12454
2024.79	6.81659
2026.25	6.77432
2027.72	7.1076
2029.19	6.62898
2030.66	7.84233
2032.13	7.48295
2033.59	7.61073
2035.06	7.8391
2036.53	8.2262
2037.99	8.35872
2039.46	8.85267
2040.92	9.33979
2042.39	8.89653
2043.85	9.69816
2045.32	10.7564
2046.78	10.9208
2048.25	11.2577
2049.71	11.2885
2051.18	11.6393
2052.64	11.4514
2054.1	12.3913
2055.56	12.7719
2057.03	12.5511
2058.49	13.0362
2059.95	13.4543
2061.42	13.2139
2062.88	13.9711
2064.34	14.9902
2065.8	15.0803
2067.26	15.6157
2068.72	15.7078
2070.18	15.881
2071.64	16.6869
2073.1	16.7847
2074.56	17.7963
2076.02	18.568
2077.48	19.5353
2078.94	20.6994
2080.39	22.2189
2081.85	22.4027
2083.31	24.0322
2084.77	25.2632
2086.22	26.2486
2087.68	27.7406
2089.14	28.7211
2090.6	29.9348
2092.05	30.9304
2093.51	31.7911
2094.96	32.5382
2096.42	33.9968
2097.87	34.9285
2099.33	35.8831
2100.78	37.0532
2102.24	38.8105
2103.69	40.733
2105.15	41.7632
2106.6	43.847
2108.05	45.3109
2109.51	47.2086
2110.96	49.0233
2112.41	50.7434
2113.86	53.0041
2115.32	54.3319
2116.77	56.2261
2118.22	57.4808
2119.67	58.5002
2121.12	59.9269
2122.57	62.3009
2124.02	64.1559
2125.47	65.4018
2126.92	67.7403
2128.37	69.7153
2129.82	71.5627
2131.27	73.3083
