#Acq. time (s)=	45
#Accumulations=	2
#Range (cm-¹)=	200...3150
#Windows=	2
#Auto scanning=	Off
#Autofocus=	Off
#Macrospot=	Off
#AutoExposure=	Off
#Spike filter=	Multiple accum.
#Delay time (s)=	0
#Binning=	1
#Readout mode=	Signal
#DeNoise=	Off
#ICS correction=	On
#Dark correction=	Off
#Inst. Process=	Off
#Detector Gain=	Best Dynamic Range
#Detector ADC=	20 kHz       
#Detector temperature (°C)=	-69.85
#Instrument=	LabRAM HR Evol
#Detector=	Synapse
#Objective=	x100
#Grating=	600 gr/mm
#ND Filter=	100%
#Laser (nm)=	532 
#Hole=	100.021
#Range=	Auto
#Laser Pol.=	No
#Raman. Pol.=	No
#Laser Pol. (°)=	-0.0007625
#Raman Pol. (°)=	89.9995
#Collection=	Microscope
#StageXY=	Marzhauser
#StageZ=	Marzhauser
#X (µm)=	1973.1
#Y (µm)=	-91.6
#Z (µm)=	425.4
#Full time(mm:ss)=	3:18
#Project=	
#Sample=	
#Site=	
#Title=	Thy_40_11_03_2x_45s_532 nm_x100_100%_600 gr_mm
#Remark=	
#Date=	05.07.2022 10:04
#Acquired=	05.07.2022 10:04:45
#Base:Fit=	10.08.2022 10:00:48
#Base:Fit=	10.08.2022 10:01:07
#Base:Fit=	10.08.2022 10:01:15
#Base:Fit=	10.08.2022 10:01:35
#Base:Sub=	10.08.2022 10:01:52
#Filter:Polynom=	16.08.2022 10:21:53
#AxisType[0]=Intens
#AxisUnit[0]=Cnt
#AxisType[1]=Spectr
#AxisUnit[1]=1/cm
200.43	15.7363
202.244	15.1117
204.059	12.0202
205.873	10.7482
207.688	10.8391
209.501	10.7436
211.314	10.4664
213.127	9.85816
214.941	10.1277
216.753	9.85176
218.564	9.3536
220.375	9.3154
222.186	8.8412
223.999	7.24632
225.809	6.62763
227.618	5.37921
229.428	5.15717
231.236	5.00966
233.045	5.48684
234.855	5.60139
236.663	5.99384
238.471	5.81804
240.278	4.45236
242.085	3.87803
243.891	4.38179
245.698	4.20403
247.503	3.7917
249.309	3.66965
251.116	3.84348
252.921	4.63669
254.725	4.57743
256.529	4.40508
258.333	4.61467
260.136	4.28499
261.939	5.22427
263.742	4.90003
265.544	3.93622
267.346	2.80566
269.148	4.15293
270.949	3.87558
272.75	3.45449
274.55	3.99075
276.351	3.85058
278.15	3.99482
279.95	4.88784
281.749	4.19011
283.548	4.10888
285.346	3.44519
287.144	3.72871
288.942	2.80746
290.739	2.87152
292.536	3.9528
294.333	5.68201
296.129	5.49593
297.925	5.02012
299.721	5.50888
301.514	6.09637
303.309	6.05829
305.104	6.30604
306.898	5.84515
308.692	5.54587
310.486	5.74404
312.279	5.29953
314.072	5.03663
315.862	6.27913
317.654	7.06872
319.446	7.03314
321.238	7.90692
323.029	8.69448
324.819	8.81434
326.608	9.18467
328.398	8.82492
330.188	9.48869
331.977	11.3668
333.766	12.0206
335.553	12.1926
337.341	12.207
339.129	12.7055
340.917	13.3798
342.704	14.1499
344.489	13.0004
346.275	13.2048
348.062	12.664
349.845	12.6208
351.631	12.6941
353.416	11.5134
355.201	10.621
356.984	11.8217
358.768	13.3074
360.552	12.1824
362.333	11.2034
364.116	10.4036
365.899	8.98335
367.68	8.23898
369.462	6.30757
371.243	4.98549
373.023	5.72216
374.804	4.8643
376.585	5.07612
378.363	6.60152
380.143	7.14417
381.923	7.68039
383.7	7.07565
385.479	6.77382
387.256	6.97842
389.034	6.81568
390.812	6.86363
392.588	4.74667
394.365	5.01197
396.14	4.6779
397.916	5.2709
399.691	6.20909
401.467	5.72876
403.24	6.66195
405.015	7.06144
406.788	7.26031
408.563	7.43262
410.335	9.28567
412.109	10.4688
413.88	10.2611
415.654	10.6519
417.424	11.7713
419.197	12.0752
420.967	11.9875
422.739	12.2339
424.508	12.3262
426.279	12.483
428.048	12.8053
429.819	13.0135
431.587	12.5435
433.356	11.2223
435.124	11.0542
436.891	10.4176
438.66	10.989
440.426	11.4456
442.194	10.3589
443.96	10.0121
445.725	9.82554
447.492	9.86437
449.257	9.04779
451.021	9.29957
452.787	8.69441
454.551	9.41697
456.314	9.19023
458.079	9.78817
459.842	11.0217
461.604	12.4365
463.368	12.6662
465.13	13.2068
466.891	12.5829
468.654	11.7904
470.415	12.1725
472.175	13.6439
473.935	14.8969
475.696	15.6326
477.456	16.2072
479.215	17.3292
480.973	17.8762
482.733	19.781
484.491	20.8251
486.249	22.7575
488.006	23.0927
489.765	24.129
491.522	25.1483
493.278	25.6776
495.034	27.2545
496.789	29.0646
498.544	30.4884
500.301	31.5603
502.056	31.6881
503.81	32.5594
505.564	33.8797
507.317	33.492
509.071	34.8488
510.825	34.1546
512.578	33.6744
514.33	33.8128
516.082	33.2407
517.833	32.4887
519.585	31.6262
521.335	31.1968
523.086	29.5535
524.836	29.5637
526.586	29.0246
528.335	28.689
530.085	27.2856
531.835	26.9861
533.584	26.7642
535.332	26.7348
537.08	25.4621
538.827	24.9004
540.574	24.1788
542.321	23.7992
544.068	22.0253
545.814	22.4774
547.56	20.1225
549.305	18.5046
551.05	16.9296
552.795	15.0093
554.54	14.9775
556.282	15.8522
558.025	15.5171
559.769	14.6541
561.512	13.0375
563.255	12.1835
564.997	11.105
566.739	9.8322
568.481	9.18126
570.223	8.52973
571.964	7.84645
573.705	8.17026
575.443	7.05903
577.183	7.63408
578.923	5.98907
580.663	5.75317
582.402	6.24961
584.141	6.46522
585.879	4.65419
587.615	4.53017
589.353	3.11171
591.09	2.68939
592.828	3.08329
594.564	1.98669
596.299	1.74373
598.035	0.501544
599.771	1.64728
601.506	1.05644
603.242	1.38012
604.974	1.15821
606.709	1.78143
608.443	2.08351
610.177	2.72049
611.908	4.44737
613.642	5.0775
615.374	6.79109
617.105	7.27424
618.837	8.37553
620.569	9.58804
622.3	11.062
624.03	11.7
625.761	12.351
627.491	13.4762
629.219	13.055
630.949	14.4114
632.677	15.6451
634.406	15.9707
636.135	17.4386
637.861	19.2244
639.59	20.4917
641.318	21.8782
643.043	22.5127
644.77	22.8476
646.495	23.3042
648.222	24.3925
649.948	24.8183
651.672	25.0123
653.398	25.3727
655.121	26.173
656.846	25.434
658.569	26.1345
660.293	27.2224
662.015	27.082
663.738	28.6486
665.46	27.7497
667.183	29.095
668.903	30.1606
670.626	30.5721
672.346	30.5819
674.067	32.4668
675.787	32.3811
677.508	33.2817
679.226	33.134
680.947	33.3138
682.665	33.251
684.385	33.9968
686.102	33.8266
687.821	34.0964
689.538	36.2397
691.254	37.3084
692.972	38.1898
694.688	38.8491
696.406	40.0192
698.121	40.5826
699.835	40.6454
701.552	41.7453
703.266	42.9184
704.98	45.0228
706.695	46.1851
708.409	45.9381
710.121	45.7137
711.836	46.4451
713.548	47.6263
715.26	48.1721
716.973	49.1632
718.685	48.3719
720.396	48.718
722.108	49.6897
723.818	50.1743
725.528	50.7769
727.238	50.847
728.949	51.9172
730.658	51.675
732.367	50.8711
734.075	49.9522
735.785	50.0954
737.493	50.3916
739.2	51.6349
740.907	53.0959
742.614	54.0489
744.322	55.9755
746.028	57.3745
747.734	59.5726
749.439	61.2952
751.144	61.1102
752.849	63.838
754.555	65.7382
756.26	67.3871
757.963	68.6752
759.667	69.9516
761.37	69.5207
763.073	70.4255
764.775	72.1746
766.477	74.2199
768.179	74.8992
769.883	77.3979
771.584	78.7718
773.285	80.9665
774.986	82.0528
776.686	82.617
778.386	84.2006
780.085	84.7648
781.785	85.8518
783.484	86.9092
785.182	88.1084
786.881	90.6155
788.579	91.7325
790.276	91.6494
791.974	90.6598
793.671	90.6412
795.367	90.7112
797.064	92.1224
798.76	92.5446
800.456	92.7617
802.151	91.9173
803.846	91.6252
805.541	91.7387
807.234	92.0653
808.928	92.3976
810.622	93.0757
812.315	93.8333
814.008	93.2022
815.701	93.1132
817.394	94.0046
819.086	93.8433
820.778	95.2704
822.468	95.6598
824.159	95.9474
825.85	95.5176
827.541	94.9415
829.231	95.3841
830.921	95.506
832.609	95.2549
834.298	94.8352
835.987	94.5725
837.676	95.309
839.364	94.7685
841.051	93.8951
842.738	93.2532
844.426	92.3659
846.113	91.4103
847.798	91.7495
849.484	91.55
851.171	90.5154
852.857	89.8729
854.54	89.1601
856.226	88.2332
857.911	87.1177
859.593	86.0915
861.278	86.7494
862.961	85.8483
864.645	84.0497
866.327	83.7093
868.01	83.0081
869.692	83.3165
871.373	82.0726
873.055	80.732
874.735	80.1574
876.416	79.2953
878.097	79.5766
879.776	78.9352
881.457	77.8308
883.135	75.794
884.815	75.0683
886.495	73.9427
888.172	74.6705
889.851	75.8335
891.528	76.5578
893.206	76.7409
894.882	77.3372
896.56	77.5811
898.237	75.5938
899.912	74.9793
901.589	72.8555
903.263	70.3214
904.94	70.2507
906.614	68.9973
908.289	67.6513
909.962	66.1998
911.635	65.6671
913.31	65.9617
914.982	64.9807
916.656	64.8136
918.328	65.0201
920.001	65.1546
921.672	64.7614
923.345	65.3638
925.015	65.1987
926.685	63.6248
928.357	62.5
930.026	62.7401
931.698	62.1644
933.366	61.6997
935.035	60.7822
936.705	60.3989
938.373	59.7744
940.041	60.2885
941.71	58.6065
943.377	57.7102
945.044	57.33
946.712	54.9734
948.378	55.2293
950.044	55.617
951.709	55.9505
953.376	55.9606
955.041	55.9912
956.706	56.5758
958.372	56.0005
960.036	55.0515
961.699	54.9237
963.362	54.8549
965.027	54.0747
966.69	55.7306
968.352	56.8735
970.014	57.4242
971.676	58.3376
973.339	57.6432
975	56.7088
976.661	55.3445
978.322	54.7601
979.982	51.8835
981.642	49.5296
983.303	49.6038
984.962	48.9793
986.621	48.633
988.28	48.2618
989.938	48.8708
991.596	48.6947
993.254	49.0926
994.911	51.1181
996.57	52.0938
998.227	51.4439
999.884	51.7655
1001.54	51.8887
1003.2	53.0036
1004.85	52.471
1006.51	52.365
1008.16	50.9164
1009.82	50.059
1011.47	50.7268
1013.12	50.8755
1014.78	50.3819
1016.43	50.6605
1018.08	51.4741
1019.74	52.0429
1021.39	51.3179
1023.04	51.4138
1024.69	49.9753
1026.34	50.5894
1028	51.1859
1029.65	51.5267
1031.3	52.819
1032.95	52.9609
1034.6	52.8625
1036.25	53.7087
1037.9	53.6931
1039.54	52.8181
1041.19	52.0951
1042.84	52.7596
1044.49	52.2939
1046.14	51.7998
1047.78	51.1907
1049.43	50.8451
1051.08	50.1556
1052.72	48.6242
1054.37	46.6586
1056.02	44.1625
1057.66	42.1864
1059.31	40.1943
1060.95	39.6164
1062.6	38.283
1064.24	37.9675
1065.88	37.0468
1067.53	35.0637
1069.17	35.0326
1070.81	34.7767
1072.45	35.7944
1074.1	34.4899
1075.74	34.7231
1077.38	33.8377
1079.02	32.5383
1080.66	30.005
1082.3	28.5285
1083.94	28.1524
1085.58	29.1512
1087.22	27.9307
1088.86	27.6314
1090.5	27.6177
1092.14	27.2957
1093.78	27.1698
1095.42	26.8634
1097.05	27.4162
1098.69	27.9556
1100.33	27.2071
1101.96	27.26
1103.6	26.5337
1105.24	27.8174
1106.87	26.542
1108.51	26.9415
1110.14	27.6507
1111.78	27.5781
1113.41	27.7933
1115.05	28.4976
1116.68	28.578
1118.31	28.7384
1119.95	27.4343
1121.58	26.8514
1123.21	26.0325
1124.85	24.7259
1126.48	23.3144
1128.11	21.8901
1129.74	20.5761
1131.37	19.5299
1133	19.2852
1134.63	17.524
1136.26	17.0768
1137.89	16.6532
1139.52	16.2435
1141.15	16.4215
1142.78	16.8613
1144.41	15.9622
1146.04	15.7458
1147.66	16.2291
1149.29	16.4534
1150.92	15.3659
1152.55	14.7632
1154.17	14.0467
1155.8	13.8829
1157.43	12.8106
1159.05	10.8142
1160.68	10.8618
1162.3	9.79881
1163.93	11.5333
1165.55	12.829
1167.17	13.2926
1168.8	13.5403
1170.42	13.8927
1172.05	13.4629
1173.67	14.2197
1175.29	15.2651
1176.91	16.9073
1178.54	16.5742
1180.16	16.3967
1181.78	16.7838
1183.4	18.5709
1185.02	18.4306
1186.64	18.8943
1188.26	18.4245
1189.88	20.1782
1191.5	20.6859
1193.12	20.4637
1194.74	21.4728
1196.36	21.8861
1197.97	22.1484
1199.59	22.2032
1201.21	22.3749
1202.83	22.8187
1204.44	23.711
1206.06	25.2574
1207.68	26.1083
1209.29	26.0413
1210.91	27.8974
1212.52	30.3577
1214.14	32.1612
1215.75	33.7573
1217.37	36.0683
1218.98	37.8762
1220.59	39.2391
1222.21	41.2496
1223.82	42.412
1225.43	43.1055
1227.05	44.7544
1228.66	45.987
1230.27	46.7021
1231.88	47.1865
1233.49	49.5692
1235.1	50.1521
1236.72	50.8781
1238.33	51.9631
1239.94	54.2157
1241.55	56.5621
1243.16	58.177
1244.76	60.5789
1246.37	61.5865
1247.98	62.6517
1249.59	64.6646
1251.2	65.4895
1252.8	66.5123
1254.41	68.1176
1256.02	68.3243
1257.62	69.3097
1259.23	68.9226
1260.84	70.9421
1262.44	72.7115
1264.05	73.8383
1265.66	75.6635
1267.26	77.4371
1268.86	78.096
1270.47	79.6043
1272.07	80.395
1273.67	82.8116
1275.28	84.4523
1276.88	84.7596
1278.48	85.973
1280.09	88.137
1281.69	89.2005
1283.29	90.047
1284.89	91.3933
1286.49	92.8254
1288.09	92.3551
1289.69	93.2842
1291.29	94.625
1292.89	95.2105
1294.49	96.3253
1296.09	97.3391
1297.69	98.5091
1299.29	99.2165
1300.89	98.7523
1302.49	99.7389
1304.08	100.883
1305.68	100.697
1307.28	101.251
1308.88	102.334
1310.47	103.363
1312.07	103.717
1313.66	103.62
1315.26	104.69
1316.85	105.602
1318.45	106.362
1320.04	105.129
1321.64	104.04
1323.23	103.197
1324.83	102.647
1326.42	101.515
1328.01	100.639
1329.61	100.955
1331.2	100.227
1332.79	98.9778
1334.38	98.1395
1335.97	98.4242
1337.56	97.4805
1339.16	95.9421
1340.75	93.9824
1342.34	92.2638
1343.93	90.7321
1345.52	88.713
1347.11	86.0839
1348.7	83.097
1350.29	81.5128
1351.87	78.5498
1353.46	76.806
1355.05	74.1041
1356.64	70.9945
1358.22	69.6378
1359.81	67.6784
1361.4	63.727
1362.98	62.4661
1364.57	60.6391
1366.16	57.9095
1367.74	56.1779
1369.33	55.0836
1370.91	54.6328
1372.5	53.5811
1374.08	53.2324
1375.67	51.6836
1377.25	50.4084
1378.83	49.2586
1380.41	48.7782
1382	48.6101
1383.58	47.3351
1385.16	46.4326
1386.74	47.0793
1388.33	47.4988
1389.91	46.7171
1391.49	45.4722
1393.07	44.7517
1394.65	45.4087
1396.23	43.8271
1397.81	42.2298
1399.39	42.6024
1400.97	42.5016
1402.55	42.7012
1404.13	43.6285
1405.7	43.0346
1407.28	43.7066
1408.86	44.4573
1410.44	44.2897
1412.01	45.2558
1413.59	45.9004
1415.17	46.7969
1416.74	46.8999
1418.32	47.086
1419.89	47.5225
1421.47	48.612
1423.04	49.6201
1424.62	51.5165
1426.19	52.7985
1427.77	54.0203
1429.34	55.0451
1430.91	56.8402
1432.49	60.7672
1434.06	63.6162
1435.63	65.1939
1437.2	69.4519
1438.78	71.2485
1440.35	74.3722
1441.92	77.9274
1443.49	78.1023
1445.06	80.041
1446.63	81.6245
1448.2	82.2451
1449.77	82.6377
1451.34	81.6565
1452.91	82.345
1454.48	81.8752
1456.05	81.5613
1457.62	80.8787
1459.18	78.9982
1460.75	77.4777
1462.32	75.788
1463.89	74.0244
1465.45	70.6311
1467.02	68.0838
1468.59	65.3594
1470.15	63.2038
1471.72	60.5793
1473.28	57.3482
1474.85	54.4641
1476.41	51.1978
1477.98	48.6978
1479.54	44.916
1481.1	42.1623
1482.67	37.4564
1484.23	33.3966
1485.79	30.3068
1487.36	27.8262
1488.92	24.9208
1490.48	23.3235
1492.04	20.4864
1493.61	18.7561
1495.17	16.812
1496.73	14.8749
1498.29	13.6551
1499.85	12.8995
1501.41	12.6964
1502.97	12.2247
1504.53	11.5894
1506.09	12.0561
1507.65	12.8064
1509.2	14.261
1510.76	14.5512
1512.32	15.0154
1513.88	15.064
1515.43	15.8869
1516.99	15.5179
1518.55	16.1862
1520.1	15.5559
1521.66	14.5289
1523.22	15.4917
1524.77	15.2062
1526.33	16.2463
1527.88	17.2148
1529.44	18.5426
1530.99	19.7858
1532.54	20.3182
1534.1	21.6687
1535.65	22.8314
1537.21	23.8917
1538.76	25.1669
1540.31	25.423
1541.86	25.6464
1543.42	27.0739
1544.97	29.1241
1546.52	30.3869
1548.07	32.0688
1549.62	33.356
1551.17	34.3283
1552.72	36.6964
1554.27	37.0524
1555.82	39.0073
1557.37	39.3611
1558.92	40.8945
1560.47	41.3859
1562.02	42.8304
1563.56	45.0362
1565.11	47.3062
1566.66	49.0918
1568.21	51.599
1569.75	53.2782
1571.3	55.3602
1572.85	57.445
1574.39	58.7603
1575.94	60.5229
1577.49	62.2686
1579.03	63.0766
1580.57	64.1202
1582.12	65.6175
1583.66	67.367
1585.21	68.791
1586.75	69.7447
1588.3	69.8652
1589.84	71.795
1591.38	72.5293
1592.92	72.0978
1594.47	72.7349
1596.01	73.2266
1597.55	73.9352
1599.09	74.7979
1600.63	75.5603
1602.17	76.8902
1603.71	77.439
1605.25	76.5053
1606.79	77.7223
1608.33	76.8405
1609.87	77.5414
1611.41	77.6495
1612.95	77.1657
1614.49	78.1613
1616.03	76.9725
1617.57	78.283
1619.1	79.1254
1620.64	80.0513
1622.18	80.7614
1623.72	81.8008
1625.25	84.2134
1626.79	85.4592
1628.32	86.4661
1629.86	89.0399
1631.39	89.6129
1632.93	91.1352
1634.46	91.7971
1636	93.8541
1637.53	94.9953
1639.07	96.5187
1640.6	99.6745
1642.13	100.891
1643.67	103.315
1645.2	104.5
1646.73	105.303
1648.26	105.998
1649.8	107.893
1651.33	107.97
1652.86	108.559
1654.39	108.436
1655.92	108.05
1657.45	108.34
1658.98	108.42
1660.51	107.923
1662.04	106.877
1663.57	105.742
1665.1	105.1
1666.63	104.493
1668.16	102.758
1669.68	100.028
1671.21	98.6463
1672.74	95.7991
1674.27	92.3538
1675.79	87.8121
1677.32	84.1909
1678.85	80.6906
1680.37	76.3398
1681.9	71.9661
1683.42	69.1181
1684.95	64.4696
1686.47	61.5999
1688	58.4987
1689.52	54.9362
1691.05	52.4064
1692.57	47.7816
1694.09	45.517
1695.62	41.2464
1697.14	37.8448
1698.66	35.4411
1700.18	33.0349
1701.71	31.0337
1703.23	27.5328
1704.75	25.9561
1706.27	23.5322
1707.79	21.2523
1709.31	19.7127
1710.83	18.8546
1712.35	17.703
1713.87	16.8089
1715.39	15.4574
1716.91	14.0514
1718.43	12.4852
1719.95	12.0178
1721.47	10.1263
1722.99	10.0877
1724.5	9.55448
1726.02	9.86768
1727.54	9.14874
1729.06	8.48393
1730.57	7.89932
1732.09	7.65142
1733.61	8.27013
1735.12	8.59686
1736.64	8.35392
1738.15	8.22565
1739.67	8.53742
1741.18	8.84539
1742.7	7.8168
1744.21	7.21326
1745.72	6.90558
1747.24	6.74577
1748.75	5.67385
1750.26	5.3883
1751.77	4.82768
1753.29	5.394
1754.8	5.68456
1756.31	5.44018
1757.82	4.94401
1759.33	5.49322
1760.84	5.61626
1762.36	5.56463
1763.87	5.68773
1765.38	4.58832
1766.89	4.38671
1768.4	3.5734
1769.91	3.21193
1771.41	2.58132
1772.92	2.84067
1774.43	3.12019
1775.94	2.90565
1777.45	2.6451
1778.95	2.52269
1780.46	3.54635
1781.97	3.26325
1783.48	4.04969
1784.98	4.15747
1786.49	4.61358
1787.99	4.41074
1789.5	4.18925
1791.01	4.05463
1792.51	4.61704
1794.01	5.1168
1795.52	5.36951
1797.02	4.91987
1798.53	4.92948
1800.03	4.363
1801.53	4.48827
1803.04	3.80193
1804.54	3.00141
1806.04	3.27099
1807.54	3.85409
1809.05	3.8847
1810.55	2.6664
1812.05	2.16655
1813.55	2.03758
1815.05	2.38175
1816.55	2.19036
1818.05	2.57909
1819.55	2.89528
1821.05	3.02053
1822.55	2.50251
1824.05	2.28594
1825.55	2.01822
1827.05	2.032
1828.55	2.73694
1830.04	3.17408
1831.54	2.37112
1833.04	2.37035
1834.54	2.46261
1836.03	2.3252
1837.53	2.39234
1839.03	2.21338
1840.52	2.2224
1842.02	2.39641
1843.51	2.43191
1845.01	2.53476
1846.5	2.84233
1848	2.94883
1849.49	2.75044
1850.99	2.7272
1852.48	3.03804
1853.97	3.31806
1855.47	3.96531
1856.96	4.44526
1858.45	4.87376
1859.94	4.28806
1861.44	4.60064
1862.93	4.56811
1864.42	4.56243
1865.91	4.9434
1867.4	5.57234
1868.89	4.85292
1870.38	4.82561
1871.87	4.20436
1873.36	4.11757
1874.85	5.2443
1876.34	4.68849
1877.83	4.78627
1879.32	4.55271
1880.81	5.36333
1882.3	4.78577
1882.57	4.00001
1884.07	3.52238
1885.56	3.9755
1887.06	3.81066
1888.55	3.81203
1890.04	3.39769
1891.54	3.25357
1893.03	2.52284
1894.52	2.55954
1896.02	2.30778
1897.51	2.24088
1899	1.92739
1900.49	1.95504
1901.98	1.67456
1903.47	1.67356
1904.96	1.36484
1906.45	1.62591
1907.94	1.11619
1909.43	1.12236
1910.92	1.22637
1912.41	0.802657
1913.9	0.854008
1915.39	0.308068
1916.88	-0.0302615
1918.37	0.0578573
1919.85	-0.432125
1921.34	-1.29223
1922.83	-1.6064
1924.32	-1.37388
1925.8	-1.3583
1927.29	-1.09207
1928.78	-0.494038
1930.26	-0.654038
1931.75	-0.922852
1933.23	-1.04501
1934.72	-0.0646731
1936.2	-0.355491
1937.69	-0.280365
1939.17	-0.660952
1940.66	-0.713562
1942.14	-0.249702
1943.63	-0.439543
1945.11	-0.396658
1946.59	0.331848
1948.07	0.445683
1949.56	0.078969
1951.04	0.895657
1952.52	1.11971
1954	1.83048
1955.48	0.837881
1956.96	0.773058
1958.45	1.00013
1959.93	1.27392
1961.41	1.14943
1962.89	1.32113
1964.37	0.999508
1965.85	1.75081
1967.32	1.94877
1968.8	2.3158
1970.28	2.26225
1971.76	2.58896
1973.24	3.03497
1974.72	3.11912
1976.19	3.38632
1977.67	3.47564
1979.15	3.23387
1980.63	3.93188
1982.1	3.71758
1983.58	4.06044
1985.05	4.0171
1986.53	3.58551
1988	3.82938
1989.48	3.37741
1990.95	3.2363
1992.43	3.54297
1993.9	3.39693
1995.38	3.17401
1996.85	2.83425
1998.32	3.45081
1999.8	3.15238
2001.27	2.88802
2002.74	3.20358
2004.22	3.23029
2005.69	2.68064
2007.16	2.36722
2008.63	2.43037
2010.1	2.16223
2011.57	2.21002
2013.04	1.92946
2014.51	2.21726
2015.98	2.50605
2017.45	1.85763
2018.92	2.48415
2020.39	3.16326
2021.86	3.30359
2023.33	3.8925
2024.8	3.62175
2026.27	3.55745
2027.74	3.39717
2029.2	3.46782
2030.67	3.00646
2032.14	3.41376
2033.61	3.75524
2035.07	3.89869
2036.54	4.15677
2038.01	4.34049
2039.47	5.50207
2040.94	4.61749
2042.4	5.19135
2043.87	5.56253
2045.33	5.77832
2046.8	6.53602
2048.26	6.65583
2049.72	7.21388
2051.19	7.60551
2052.65	7.67881
2054.12	8.26211
2055.58	7.71796
2057.04	8.24407
2058.5	7.97302
2059.97	8.48155
2061.43	9.80174
2062.89	10.0657
2064.35	10.8563
2065.81	11.2026
2067.27	10.8689
2068.73	11.2302
2070.19	11.4928
2071.65	13.0973
2073.11	13.0536
2074.57	14.3597
2076.03	15.2097
2077.49	15.7313
2078.95	15.9225
2080.41	17.4138
2081.87	18.7602
2083.32	19.3075
2084.78	19.7718
2086.24	21.0798
2087.7	22.3992
2089.15	23.7253
2090.61	24.7557
2092.07	25.9715
2093.52	27.1404
2094.98	28.1439
2096.43	29.1552
2097.89	29.3836
2099.34	30.6239
2100.8	31.8938
2102.25	33.3807
2103.71	34.469
2105.16	36.7329
2106.61	37.7414
2108.07	39.3958
2109.52	41.9512
2110.97	42.7909
2112.43	44.58
2113.88	45.805
2115.33	48.6488
2116.78	50.8887
2118.23	53.0226
2119.68	55.5436
2121.13	56.7998
2122.59	58.454
2124.04	60.239
