#Acq. time (s)=	45
#Accumulations=	2
#Range (cm-¹)=	200...3150
#Windows=	2
#Auto scanning=	Off
#Autofocus=	Off
#Macrospot=	Off
#AutoExposure=	Off
#Spike filter=	Multiple accum.
#Delay time (s)=	0
#Binning=	1
#Readout mode=	Signal
#DeNoise=	Off
#ICS correction=	On
#Dark correction=	Off
#Inst. Process=	Off
#Detector Gain=	Best Dynamic Range
#Detector ADC=	20 kHz       
#Detector temperature (°C)=	-69.85
#Instrument=	LabRAM HR Evol
#Detector=	Synapse
#Objective=	x100
#Grating=	600 gr/mm
#ND Filter=	100%
#Laser (nm)=	532 
#Hole=	100.021
#Range=	Auto
#Laser Pol.=	No
#Raman. Pol.=	No
#Laser Pol. (°)=	-0.0007625
#Raman Pol. (°)=	89.9995
#Collection=	Microscope
#StageXY=	Marzhauser
#StageZ=	Marzhauser
#X (µm)=	245.2
#Y (µm)=	1672.5
#Z (µm)=	426.85
#Full time(mm:ss)=	3:18
#Project=	
#Sample=	
#Site=	
#Title=	Thy_40_11_34_2x_45s_532 nm_x100_100%_600 gr_mm
#Remark=	
#Date=	05.07.2022 12:26
#Acquired=	05.07.2022 12:26:12
#Base:Fit=	10.08.2022 10:01:35
#Base:Sub=	10.08.2022 10:01:52
#Filter:Polynom=	16.08.2022 10:21:53
#AxisType[0]=Intens
#AxisUnit[0]=Cnt
#AxisType[1]=Spectr
#AxisUnit[1]=1/cm
200.43	11.8753
202.244	8.97922
204.059	8.63775
205.873	8.29865
207.688	8.6452
209.501	8.63859
211.314	8.81528
213.127	8.34296
214.941	8.10541
216.753	7.5853
218.564	8.10104
220.375	7.49696
222.186	6.62086
223.999	6.54417
225.809	6.93661
227.618	6.83164
229.428	7.12696
231.236	6.72625
233.045	6.72108
234.855	6.62144
236.663	6.22462
238.471	6.25861
240.278	5.61042
242.085	5.39571
243.891	4.51636
245.698	4.21611
247.503	4.17086
249.309	4.39981
251.116	4.11089
252.921	3.80804
254.725	3.91333
256.529	3.83315
258.333	4.35662
260.136	4.07627
261.939	4.72778
263.742	4.34593
265.544	3.0981
267.346	2.6123
269.148	2.11308
270.949	0.698056
272.75	-0.0789609
274.55	-0.651328
276.351	-0.0198098
278.15	1.11004
279.95	1.83265
281.749	2.59895
283.548	2.64133
285.346	3.08671
287.144	3.82744
288.942	3.89396
290.739	4.98038
292.536	5.42283
294.333	6.21416
296.129	6.71538
297.925	6.25192
299.721	7.1411
301.514	7.55454
303.309	7.86869
305.104	9.14476
306.898	9.77728
308.692	10.445
310.486	10.8722
312.279	12.1438
314.072	13.1581
315.862	14.0698
317.654	14.0507
319.446	14.7641
321.238	14.6086
323.029	14.5317
324.819	15.2249
326.608	15.5097
328.398	14.4848
330.188	14.0947
331.977	13.6755
333.766	13.0445
335.553	13.2054
337.341	12.795
339.129	12.4752
340.917	12.92
342.704	13.0217
344.489	12.528
346.275	11.8333
348.062	10.5148
349.845	9.53484
351.631	9.80889
353.416	8.38218
355.201	7.70318
356.984	7.35566
358.768	6.79914
360.552	6.92796
362.333	6.64307
364.116	7.34844
365.899	7.6928
367.68	6.95225
369.462	5.97299
371.243	5.44778
373.023	5.81158
374.804	6.25935
376.585	6.67491
378.363	5.70314
380.143	5.91307
381.923	6.18643
383.7	6.8392
385.479	6.69514
387.256	6.79278
389.034	7.22724
390.812	7.64556
392.588	8.34968
394.365	9.0009
396.14	8.6023
397.916	9.04317
399.691	9.7712
401.467	9.77936
403.24	9.26011
405.015	9.50613
406.788	9.80212
408.563	10.6676
410.335	10.9881
412.109	11.0409
413.88	11.5866
415.654	11.0776
417.424	10.4532
419.197	11.743
420.967	11.3191
422.739	11.5021
424.508	12.2673
426.279	12.2954
428.048	12.9675
429.819	12.9257
431.587	11.9599
433.356	12.1435
435.124	11.7348
436.891	11.7266
438.66	12.5925
440.426	12.4711
442.194	12.2024
443.96	11.9316
445.725	12.1099
447.492	12.251
449.257	12.0412
451.021	11.4731
452.787	11.2631
454.551	10.9616
456.314	9.90291
458.079	10.585
459.842	10.6847
461.604	10.2928
463.368	10.0852
465.13	10.2175
466.891	9.30382
468.654	10.3872
470.415	10.5113
472.175	10.762
473.935	11.3664
475.696	11.6383
477.456	11.7837
479.215	12.6012
480.973	12.9496
482.733	12.9943
484.491	12.7741
486.249	13.9546
488.006	13.6753
489.765	14.2695
491.522	14.9942
493.278	16.1482
495.034	16.9051
496.789	17.1354
498.544	17.5481
500.301	17.1265
502.056	18.2017
503.81	18.7921
505.564	18.8622
507.317	19.5172
509.071	19.7545
510.825	20.8667
512.578	21.1704
514.33	20.1499
516.082	20.353
517.833	19.6053
519.585	19.5979
521.335	19.138
523.086	18.6107
524.836	19.1213
526.586	19.5436
528.335	18.863
530.085	18.3266
531.835	17.3686
533.584	16.5157
535.332	16.761
537.08	15.722
538.827	14.7558
540.574	13.2559
542.321	13.5785
544.068	12.3671
545.814	12.0105
547.56	10.9502
549.305	9.96591
551.05	10.099
552.795	9.14801
554.54	8.11704
556.282	7.70435
558.025	6.56241
559.769	6.19239
561.512	5.99833
563.255	5.37041
564.997	4.8704
566.739	4.09616
568.481	2.91018
570.223	2.47715
571.964	1.97165
573.705	1.42031
575.443	0.82204
577.183	1.22041
578.923	0.745569
580.663	0.604776
582.402	0.327385
584.141	0.273187
585.879	0.419111
587.615	-0.00493526
589.353	0.0305217
591.09	-0.674614
592.828	-0.713012
594.564	-0.227962
596.299	0.413776
598.035	0.417286
599.771	0.631644
601.506	1.02668
603.242	2.22363
604.974	2.93953
606.709	3.09204
608.443	3.60666
610.177	4.52842
611.908	5.07892
613.642	4.96648
615.374	5.03049
617.105	5.06657
618.837	5.92557
620.569	6.9504
622.3	7.99442
624.03	8.01756
625.761	9.4385
627.491	10.2253
629.219	12.0214
630.949	12.117
632.677	13.1422
634.406	14.1498
636.135	14.5719
637.861	14.6668
639.59	15.0474
641.318	15.5169
643.043	15.8385
644.77	16.8493
646.495	17.957
648.222	18.1291
649.948	18.1432
651.672	18.6459
653.398	19.2025
655.121	20.0685
656.846	20.6766
658.569	21.0087
660.293	21.4043
662.015	21.5636
663.738	21.3623
665.46	21.6821
667.183	22.2195
668.903	21.9272
670.626	21.2702
672.346	21.0112
674.067	21.0909
675.787	21.1654
677.508	21.5081
679.226	22.2275
680.947	22.8967
682.665	23.284
684.385	23.6642
686.102	23.6229
687.821	23.9206
689.538	24.0292
691.254	24.5847
692.972	25.1806
694.688	26.1448
696.406	26.5853
698.121	27.2805
699.835	27.4158
701.552	28.2577
703.266	28.837
704.98	29.8966
706.695	30.7878
708.409	32.7052
710.121	34.6865
711.836	35.9056
713.548	36.6549
715.26	37.8
716.973	38.1068
718.685	38.3864
720.396	38.6882
722.108	39.0554
723.818	39.803
725.528	41.2506
727.238	41.3496
728.949	42.0629
730.658	42.4531
732.367	42.419
734.075	43.0084
735.785	43.6271
737.493	44.2527
739.2	45.21
740.907	45.3618
742.614	46.9292
744.322	47.3553
746.028	48.7529
747.734	49.5112
749.439	50.4666
751.144	51.3438
752.849	52.189
754.555	52.7846
756.26	53.9199
757.963	55.7001
759.667	57.2626
761.37	57.8082
763.073	58.9545
764.775	59.5157
766.477	60.3576
768.179	60.6989
769.883	61.8903
771.584	62.3642
773.285	63.5508
774.986	65.0719
776.686	65.9486
778.386	66.801
780.085	66.962
781.785	67.6103
783.484	68.8892
785.182	69.412
786.881	71.4336
788.579	72.5133
790.276	73.6886
791.974	74.1902
793.671	76.3914
795.367	76.5802
797.064	76.9347
798.76	77.4887
800.456	78.5817
802.151	78.9858
803.846	78.736
805.541	79.0222
807.234	79.8116
808.928	80.5182
810.622	80.8724
812.315	80.2028
814.008	79.8395
815.701	78.9794
817.394	79.9579
819.086	80.4227
820.778	79.734
822.468	80.0109
824.159	80.5828
825.85	81.4316
827.541	81.0393
829.231	79.8072
830.921	80.8057
832.609	79.8024
834.298	79.4537
835.987	79.131
837.676	78.7517
839.364	78.2324
841.051	76.872
842.738	75.3004
844.426	73.9938
846.113	72.5565
847.798	71.2597
849.484	69.9925
851.171	68.9002
852.857	67.0183
854.54	65.8261
856.226	63.8277
857.911	62.8675
859.593	62.4881
861.278	61.3144
862.961	61.2756
864.645	60.4778
866.327	59.4723
868.01	58.7654
869.692	57.9599
871.373	57.4925
873.055	56.4545
874.735	55.3716
876.416	54.189
878.097	54.8834
879.776	53.7848
881.457	54.2402
883.135	53.8388
884.815	53.072
886.495	51.164
888.172	49.8908
889.851	49.8969
891.528	49.4983
893.206	48.8256
894.882	47.2131
896.56	46.4039
898.237	45.859
899.912	46.1115
901.589	46.5727
903.263	45.3438
904.94	45.0687
906.614	44.7772
908.289	44.5564
909.962	43.6568
911.635	42.6937
913.31	42.3621
914.982	42.8301
916.656	42.2863
918.328	41.8905
920.001	40.6997
921.672	40.1103
923.345	40.489
925.015	39.1295
926.685	39.3775
928.357	39.9379
930.026	39.9251
931.698	38.4616
933.366	37.9614
935.035	36.7841
936.705	36.0202
938.373	36.1264
940.041	36.5465
941.71	36.8635
943.377	36.3493
945.044	35.5515
946.712	34.5685
948.378	34.0667
950.044	33.1663
951.709	33.6486
953.376	33.0365
955.041	33.0142
956.706	32.0879
958.372	30.8363
960.036	30.5314
961.699	30.2099
963.362	30.1997
965.027	30.4354
966.69	29.1189
968.352	28.3513
970.014	27.777
971.676	27.8983
973.339	28.0219
975	28.4714
976.661	28.3751
978.322	28.4969
979.982	29.3894
981.642	29.1871
983.303	29.4869
984.962	29.1894
986.621	29.0255
988.28	28.6095
989.938	28.7351
991.596	29.1786
993.254	29.5708
994.911	30.4608
996.57	30.3168
998.227	31.3272
999.884	30.8699
1001.54	30.4879
1003.2	30.8518
1004.85	30.8019
1006.51	30.9081
1008.16	30.8596
1009.82	31.2846
1011.47	31.8152
1013.12	31.6567
1014.78	30.5766
1016.43	30.6965
1018.08	30.2581
1019.74	30.1409
1021.39	30.2664
1023.04	29.7495
1024.69	28.5911
1026.34	28.1804
1028	28.3074
1029.65	29.2137
1031.3	29.1781
1032.95	28.8867
1034.6	28.667
1036.25	27.6286
1037.9	27.9635
1039.54	26.5323
1041.19	26.4007
1042.84	25.9017
1044.49	25.7803
1046.14	26.0595
1047.78	25.7309
1049.43	25.0484
1051.08	25.1496
1052.72	24.6697
1054.37	24.4775
1056.02	23.3965
1057.66	23.0667
1059.31	21.6666
1060.95	21.7201
1062.6	20.812
1064.24	19.8626
1065.88	19.5642
1067.53	18.5075
1069.17	18.3676
1070.81	17.317
1072.45	17.1019
1074.1	16.6095
1075.74	15.7535
1077.38	15.2212
1079.02	14.5881
1080.66	14.202
1082.3	13.9234
1083.94	13.493
1085.58	13.2752
1087.22	12.6727
1088.86	12.9701
1090.5	12.8174
1092.14	12.2346
1093.78	12.8177
1095.42	12.058
1097.05	11.6248
1098.69	11.908
1100.33	13.0411
1101.96	13.691
1103.6	13.8462
1105.24	14.9098
1106.87	15.9006
1108.51	16.1569
1110.14	16.9086
1111.78	17.4309
1113.41	17.0898
1115.05	17.1702
1116.68	16.4114
1118.31	16.5069
1119.95	15.7501
1121.58	15.0785
1123.21	14.8805
1124.85	14.5903
1126.48	14.8212
1128.11	15.2863
1129.74	15.662
1131.37	14.5445
1133	12.7647
1134.63	11.2426
1136.26	11.0793
1137.89	9.86643
1139.52	9.60687
1141.15	9.12571
1142.78	9.00164
1144.41	8.49919
1146.04	8.15852
1147.66	8.29994
1149.29	7.7088
1150.92	7.53645
1152.55	6.81876
1154.17	6.6034
1155.8	6.04714
1157.43	6.06215
1159.05	5.88417
1160.68	5.41034
1162.3	4.88623
1163.93	4.13739
1165.55	4.05714
1167.17	3.87355
1168.8	4.11448
1170.42	3.72375
1172.05	4.81081
1173.67	4.67894
1175.29	5.26927
1176.91	4.92012
1178.54	5.67412
1180.16	5.57612
1181.78	5.62483
1183.4	4.68848
1185.02	5.32399
1186.64	5.48037
1188.26	4.51885
1189.88	3.58277
1191.5	3.84358
1193.12	3.88012
1194.74	3.92514
1196.36	3.20638
1197.97	2.72393
1199.59	3.1327
1201.21	4.30677
1202.83	6.36418
1204.44	8.05913
1206.06	9.00856
1207.68	9.7852
1209.29	10.7552
1210.91	10.9636
1212.52	11.859
1214.14	13.3634
1215.75	15.895
1217.37	18.4755
1218.98	20.0016
1220.59	21.6968
1222.21	24.2057
1223.82	26.6049
1225.43	28.9372
1227.05	30.7536
1228.66	32.3511
1230.27	34.5787
1231.88	36.2464
1233.49	37.5337
1235.1	38.7951
1236.72	41.0108
1238.33	43.1651
1239.94	44.088
1241.55	45.9016
1243.16	47.7632
1244.76	48.8117
1246.37	50.633
1247.98	51.1304
1249.59	52.5526
1251.2	53.3294
1252.8	55.1862
1254.41	54.8943
1256.02	56.0246
1257.62	56.7308
1259.23	58.3655
1260.84	58.8331
1262.44	59.8571
1264.05	60.2734
1265.66	61.6137
1267.26	60.99
1268.86	61.5044
1270.47	61.5871
1272.07	61.7967
1273.67	62.3032
1275.28	63.6756
1276.88	64.2105
1278.48	65.1581
1280.09	66.1547
1281.69	68.4506
1283.29	68.2988
1284.89	67.9147
1286.49	67.1289
1288.09	67.1854
1289.69	68.5413
1291.29	68.8319
1292.89	69.1915
1294.49	68.9799
1296.09	69.7468
1297.69	70.2746
1299.29	70.6214
1300.89	70.3087
1302.49	72.5655
1304.08	72.751
1305.68	72.5927
1307.28	73.9264
1308.88	74.565
1310.47	74.0437
1312.07	73.4565
1313.66	73.1997
1315.26	73.5377
1316.85	74.0384
1318.45	73.0893
1320.04	73.0651
1321.64	73.3066
1323.23	72.835
1324.83	72.235
1326.42	72.4918
1328.01	72.0135
1329.61	72.7411
1331.2	72.3238
1332.79	72.1527
1334.38	71.2178
1335.97	70.6767
1337.56	70.0045
1339.16	68.7496
1340.75	66.6175
1342.34	65.0449
1343.93	63.4214
1345.52	62.3264
1347.11	60.1354
1348.7	58.8487
1350.29	56.9866
1351.87	56.2518
1353.46	55.6017
1355.05	54.4063
1356.64	52.1614
1358.22	50.5318
1359.81	49.0191
1361.4	47.6519
1362.98	45.3761
1364.57	44.3157
1366.16	42.4585
1367.74	40.7337
1369.33	40.5482
1370.91	38.6017
1372.5	37.9942
1374.08	37.4631
1375.67	36.4648
1377.25	35.324
1378.83	34.6674
1380.41	33.4983
1382	33.7079
1383.58	32.3748
1385.16	31.4282
1386.74	31.6697
1388.33	30.6121
1389.91	29.3209
1391.49	30.2211
1393.07	29.1465
1394.65	29.1058
1396.23	28.7617
1397.81	27.9048
1399.39	27.6941
1400.97	27.9923
1402.55	28.1603
1404.13	28.3417
1405.7	27.8016
1407.28	28.8597
1408.86	29.309
1410.44	28.8502
1412.01	28.796
1413.59	29.7012
1415.17	29.7147
1416.74	30.9757
1418.32	33.0174
1419.89	34.5443
1421.47	36.9
1423.04	39.4384
1424.62	41.9901
1426.19	43.8125
1427.77	47.0612
1429.34	49.072
1430.91	52.42
1432.49	55.8142
1434.06	58.9793
1435.63	61.1014
1437.2	62.8107
1438.78	63.8279
1440.35	65.894
1441.92	67.9778
1443.49	69.5949
1445.06	69.8568
1446.63	71.5442
1448.2	72.7729
1449.77	72.4663
1451.34	72.7815
1452.91	72.4981
1454.48	71.1197
1456.05	70.8676
1457.62	70.5436
1459.18	70.1769
1460.75	69.3199
1462.32	67.7146
1463.89	66.0685
1465.45	65.2019
1467.02	62.9357
1468.59	60.3534
1470.15	57.7396
1471.72	54.453
1473.28	52.0658
1474.85	49.3541
1476.41	46.4285
1477.98	43.7688
1479.54	41.4183
1481.1	38.5596
1482.67	35.1303
1484.23	32.2485
1485.79	30.508
1487.36	27.3071
1488.92	25.1082
1490.48	23.0049
1492.04	21.3262
1493.61	19.4935
1495.17	19.79
1496.73	18.7016
1498.29	16.9368
1499.85	16.3665
1501.41	15.9283
1502.97	14.9638
1504.53	14.4297
1506.09	14.8741
1507.65	14.5804
1509.2	15.4609
1510.76	15.2843
1512.32	14.6283
1513.88	13.6511
1515.43	13.3989
1516.99	14.4477
1518.55	16.1036
1520.1	16.3401
1521.66	17.7237
1523.22	17.35
1524.77	18.2803
1526.33	18.5019
1527.88	19.4346
1529.44	20.5189
1530.99	21.1018
1532.54	22.0623
1534.1	23.9398
1535.65	25.9719
1537.21	27.4534
1538.76	28.6341
1540.31	30.1367
1541.86	32.4152
1543.42	33.9642
1544.97	35.3196
1546.52	37.4598
1548.07	38.8628
1549.62	40.0538
1551.17	41.4031
1552.72	43.2592
1554.27	43.9176
1555.82	45.3562
1557.37	46.8014
1558.92	48.7415
1560.47	49.4051
1562.02	50.7656
1563.56	52.1319
1565.11	52.4996
1566.66	53.2131
1568.21	53.8526
1569.75	55.3367
1571.3	56.5008
1572.85	57.173
1574.39	57.2659
1575.94	57.9067
1577.49	58.5244
1579.03	59.6093
1580.57	60.9036
1582.12	62.9517
1583.66	64.0096
1585.21	65.3863
1586.75	65.7012
1588.3	66.5248
1589.84	66.9599
1591.38	66.5447
1592.92	67.0376
1594.47	67.0244
1596.01	66.8454
1597.55	66.0849
1599.09	65.5034
1600.63	64.2685
1602.17	62.8826
1603.71	62.128
1605.25	61.8781
1606.79	60.4754
1608.33	59.9374
1609.87	59.8205
1611.41	58.8559
1612.95	58.9573
1614.49	58.7936
1616.03	59.0801
1617.57	58.5832
1619.1	59.2556
1620.64	59.0497
1622.18	58.9157
1623.72	59.2685
1625.25	59.0179
1626.79	59.1285
1628.32	60.2318
1629.86	61.5243
1631.39	62.4616
1632.93	63.9651
1634.46	65.0075
1636	65.948
1637.53	66.5229
1639.07	67.5537
1640.6	68.3971
1642.13	69.8428
1643.67	71.597
1645.2	73.0806
1646.73	74.2167
1648.26	75.0791
1649.8	76.5656
1651.33	78.2496
1652.86	79.2479
1654.39	80.3479
1655.92	81.9263
1657.45	82.7797
1658.98	83.5029
1660.51	83.0369
1662.04	83.121
1663.57	82.6561
1665.1	82.4617
1666.63	81.0511
1668.16	79.5257
1669.68	78.4827
1671.21	76.1958
1672.74	74.022
1674.27	71.299
1675.79	69.0905
1677.32	66.7132
1678.85	64.0691
1680.37	62.0364
1681.9	59.4243
1683.42	56.0626
1684.95	54.0798
1686.47	50.7719
1688	47.7461
1689.52	45.3159
1691.05	43.0053
1692.57	40.2646
1694.09	37.2153
1695.62	34.6607
1697.14	31.8609
1698.66	29.2015
1700.18	26.9864
1701.71	24.5141
1703.23	22.622
1704.75	21.0811
1706.27	18.7651
1707.79	16.8843
1709.31	14.6765
1710.83	13.1722
1712.35	11.4329
1713.87	10.4783
1715.39	8.67455
1716.91	8.02571
1718.43	7.57538
1719.95	6.55616
1721.47	6.09447
1722.99	5.16799
1724.5	5.7968
1726.02	5.1015
1727.54	4.6245
1729.06	4.30548
1730.57	4.31031
1732.09	5.00133
1733.61	5.15089
1735.12	5.82551
1736.64	5.6594
1738.15	5.72302
1739.67	5.94803
1741.18	5.66639
1742.7	5.48556
1744.21	5.54162
1745.72	5.71549
1747.24	5.16833
1748.75	4.89605
1750.26	5.17899
1751.77	5.25783
1753.29	5.17624
1754.8	5.46497
1756.31	4.40856
1757.82	4.22033
1759.33	3.78431
1760.84	3.29139
1762.36	2.61187
1763.87	2.37932
1765.38	2.28354
1766.89	2.39895
1768.4	1.5194
1769.91	0.634995
1771.41	0.237537
1772.92	0.104089
1774.43	-0.042753
1775.94	-0.394435
1777.45	-0.0180483
1778.95	-0.257844
1780.46	-0.621841
1781.97	-1.13163
1783.48	-0.897876
1784.98	-1.36562
1786.49	-1.2729
1787.99	-1.5613
1789.5	-1.15355
1791.01	-1.1178
1792.51	-0.483286
1794.01	0.0405929
1795.52	0.153995
1797.02	0.54202
1798.53	0.767941
1800.03	1.52734
1801.53	1.18665
1803.04	1.54531
1804.54	2.05173
1806.04	2.55973
1807.54	3.14932
1809.05	2.22142
1810.55	2.25256
1812.05	2.04413
1813.55	2.60319
1815.05	3.1705
1816.55	3.49872
1818.05	3.35111
1819.55	3.41382
1821.05	3.12887
1822.55	2.96797
1824.05	3.2156
1825.55	3.13326
1827.05	3.37604
1828.55	3.70316
1830.04	3.25614
1831.54	3.09876
1833.04	3.37614
1834.54	3.31542
1836.03	3.60269
1837.53	4.03574
1839.03	4.12466
1840.52	4.54953
1842.02	4.67013
1843.51	4.37983
1845.01	4.53866
1846.5	5.14441
1848	5.89828
1849.49	6.3597
1850.99	6.40403
1852.48	6.39393
1853.97	5.80301
1855.47	5.54646
1856.96	5.77555
1858.45	6.44563
1859.94	6.36874
1861.44	7.21289
1862.93	7.62039
1864.42	8.20709
1865.91	8.84404
1867.4	9.34704
1868.89	10.1905
1870.38	10.3296
1871.87	11.5305
1873.36	11.8566
1874.85	12.205
1876.34	12.4183
1877.83	12.8271
1879.32	13.0323
1880.81	13.714
1882.3	14.0173
1882.57	13.9687
1884.07	14.425
1885.56	14.9957
1887.06	15.2739
1888.55	15.2978
1890.04	14.8944
1891.54	14.7433
1893.03	15.0145
1894.52	14.982
1896.02	15.7035
1897.51	15.6966
1899	15.7592
1900.49	15.8219
1901.98	15.8511
1903.47	15.112
1904.96	15.6272
1906.45	15.5794
1907.94	15.4299
1909.43	15.6653
1910.92	15.4836
1912.41	15.1099
1913.9	14.9533
1915.39	14.7063
1916.88	14.7016
1918.37	15.0315
1919.85	15.1345
1921.34	15.5199
1922.83	14.6312
1924.32	14.1542
1925.8	13.3743
1927.29	13.5719
1928.78	13.808
1930.26	15.1382
1931.75	15.1431
1933.23	14.7801
1934.72	15.0225
1936.2	14.7071
1937.69	14.5152
1939.17	14.9476
1940.66	15.073
1942.14	15.177
1943.63	15.1494
1945.11	15.351
1946.59	15.0127
1948.07	14.8298
1949.56	14.9458
1951.04	15.1205
1952.52	15.3343
1954	15.4236
1955.48	15.089
1956.96	15.1182
1958.45	14.7969
1959.93	14.8331
1961.41	14.3266
1962.89	14.606
1964.37	14.0258
1965.85	14.0562
1967.32	14.1554
1968.8	13.7871
1970.28	13.1033
1971.76	11.8788
1973.24	11.3326
1974.72	10.5279
1976.19	10.2464
1977.67	9.85086
1979.15	10.1742
1980.63	10.0431
1982.1	9.25383
1983.58	9.58355
1985.05	9.27387
1986.53	8.70472
1988	8.57037
1989.48	8.19197
1990.95	8.42361
1992.43	8.32887
1993.9	8.36172
1995.38	8.00494
1996.85	6.90859
1998.32	7.04661
1999.8	7.05014
2001.27	7.51584
2002.74	7.93625
2004.22	7.91667
2005.69	7.56637
2007.16	7.64966
2008.63	7.73636
2010.1	7.86163
2011.57	8.05861
2013.04	8.91342
2014.51	8.95886
2015.98	9.48722
2017.45	10.3846
2018.92	10.9124
2020.39	11.3434
2021.86	11.7284
2023.33	12.3434
2024.8	12.8031
2026.27	12.8082
2027.74	12.6705
2029.2	13.0709
2030.67	13.3815
2032.14	13.3809
2033.61	13.8488
2035.07	13.8506
2036.54	14.1649
2038.01	13.8098
2039.47	13.7935
2040.94	13.7237
2042.4	13.7576
2043.87	13.496
2045.33	13.5694
2046.8	14.1972
2048.26	14.0794
2049.72	14.14
2051.19	14.2766
2052.65	14.5057
2054.12	14.4627
2055.58	14.2009
2057.04	14.6573
2058.5	14.1815
2059.97	14.1908
2061.43	14.4133
2062.89	14.6929
2064.35	15.6362
2065.81	15.9858
2067.27	16.3641
2068.73	16.319
2070.19	16.9325
2071.65	17.8189
2073.11	18.3989
2074.57	18.8579
2076.03	20.0744
2077.49	20.8616
2078.95	21.6728
2080.41	21.9581
2081.87	22.6988
2083.32	23.1656
2084.78	24.124
2086.24	25.1242
2087.7	25.3974
2089.15	26.662
2090.61	27.4016
2092.07	27.9205
2093.52	28.3143
2094.98	28.8992
2096.43	29.4607
2097.89	30.6722
2099.34	31.7083
2100.8	33.0538
2102.25	34.2682
2103.71	35.6673
2105.16	36.8659
2106.61	37.6842
2108.07	38.482
2109.52	40.2873
2110.97	40.81
2112.43	41.5172
2113.88	42.3891
2115.33	43.89
2116.78	44.8281
2118.23	46.2163
2119.68	48.0862
2121.13	49.6323
2122.59	50.6926
2124.04	53.1344
2125.49	54.134
2126.94	55.8792
2128.39	57.4892
2129.83	59.5938
2131.28	61.2237
