#Acq. time (s)=	45
#Accumulations=	2
#Range (cm-¹)=	200...3150
#Windows=	2
#Auto scanning=	Off
#Autofocus=	Off
#Macrospot=	Off
#AutoExposure=	Off
#Spike filter=	Multiple accum.
#Delay time (s)=	0
#Binning=	1
#Readout mode=	Signal
#DeNoise=	Off
#ICS correction=	On
#Dark correction=	Off
#Inst. Process=	Off
#Detector Gain=	Best Dynamic Range
#Detector ADC=	20 kHz       
#Detector temperature (°C)=	-69.85
#Instrument=	LabRAM HR Evol
#Detector=	Synapse
#Objective=	x100
#Grating=	600 gr/mm
#ND Filter=	100%
#Laser (nm)=	532 
#Hole=	100.021
#Range=	Auto
#Laser Pol.=	No
#Raman. Pol.=	No
#Laser Pol. (°)=	-0.0007625
#Raman Pol. (°)=	89.9995
#Collection=	Microscope
#StageXY=	Marzhauser
#StageZ=	Marzhauser
#X (µm)=	249.7
#Y (µm)=	1688.8
#Z (µm)=	426.8
#Full time(mm:ss)=	3:18
#Project=	
#Sample=	
#Site=	
#Title=	Thy_40_11_40_2x_45s_532 nm_x100_100%_600 gr_mm
#Remark=	
#Date=	05.07.2022 12:50
#Acquired=	05.07.2022 12:50:24
#Base:Fit=	10.08.2022 10:01:35
#Base:Sub=	10.08.2022 10:01:52
#Filter:Polynom=	16.08.2022 10:21:53
#AxisType[0]=Intens
#AxisUnit[0]=Cnt
#AxisType[1]=Spectr
#AxisUnit[1]=1/cm
200.43	1.41886
202.244	2.67994
204.059	4.15872
205.873	5.51825
207.688	6.05179
209.501	6.60285
211.314	7.06336
213.127	7.30243
214.941	7.76433
216.753	8.09507
218.564	8.18429
220.375	8.11734
222.186	7.39958
223.999	7.52893
225.809	6.3807
227.618	6.58989
229.428	5.38574
231.236	4.40213
233.045	4.238
234.855	4.43647
236.663	3.67477
238.471	3.03445
240.278	2.9347
242.085	2.4092
243.891	2.81746
245.698	3.73407
247.503	3.78896
249.309	3.79313
251.116	3.51752
252.921	4.29418
254.725	3.74794
256.529	3.15391
258.333	3.98552
260.136	3.71656
261.939	5.14109
263.742	5.10064
265.544	5.12481
267.346	5.14998
269.148	5.5034
270.949	5.79032
272.75	7.00573
274.55	6.99408
276.351	8.88534
278.15	11.3421
279.95	11.7019
281.749	12.4573
283.548	12.919
285.346	12.7857
287.144	12.9392
288.942	13.8568
290.739	15.6339
292.536	17.4793
294.333	17.6891
296.129	19.2933
297.925	20.5194
299.721	22.7566
301.514	23.2976
303.309	24.4335
305.104	26.1664
306.898	26.1521
308.692	26.5726
310.486	27.2556
312.279	27.5075
314.072	27.5513
315.862	26.7806
317.654	26.552
319.446	25.889
321.238	26.0864
323.029	26.4266
324.819	26.2143
326.608	25.5197
328.398	25.6435
330.188	25.5278
331.977	25.0404
333.766	24.7584
335.553	25.3658
337.341	25.0274
339.129	24.2778
340.917	24.075
342.704	22.802
344.489	22.1484
346.275	22.6785
348.062	22.2482
349.845	22.0598
351.631	21.2121
353.416	19.8393
355.201	19.7223
356.984	20.0149
358.768	20.7449
360.552	21.3146
362.333	22.0034
364.116	20.8489
365.899	21.6337
367.68	20.8059
369.462	20.5398
371.243	20.2911
373.023	20.0021
374.804	19.8994
376.585	20.3172
378.363	22.4132
380.143	23.008
381.923	23.4593
383.7	23.6207
385.479	25.439
387.256	25.1475
389.034	25.8444
390.812	25.5539
392.588	25.3567
394.365	24.7283
396.14	22.2194
397.916	21.2397
399.691	21.4576
401.467	20.4727
403.24	19.7723
405.015	18.6614
406.788	17.964
408.563	17.202
410.335	16.4399
412.109	15.4629
413.88	14.8649
415.654	14.679
417.424	14.2987
419.197	14.1794
420.967	14.5953
422.739	14.9688
424.508	16.3027
426.279	15.9857
428.048	15.9844
429.819	15.4596
431.587	14.79
433.356	14.8153
435.124	15.0342
436.891	14.0751
438.66	13.7118
440.426	12.8891
442.194	13.0788
443.96	13.7287
445.725	14.7309
447.492	15.2498
449.257	14.783
451.021	14.2919
452.787	13.8402
454.551	13.8084
456.314	14.275
458.079	14.9915
459.842	15.17
461.604	15.9945
463.368	16.6519
465.13	17.4425
466.891	18.2497
468.654	18.1124
470.415	19.4384
472.175	19.9139
473.935	20.0893
475.696	20.131
477.456	20.6455
479.215	21.0444
480.973	20.3507
482.733	20.2542
484.491	19.8808
486.249	20.6147
488.006	21.2136
489.765	20.6553
491.522	20.2955
493.278	19.51
495.034	20.2785
496.789	20.9553
498.544	21.4733
500.301	21.4665
502.056	22.225
503.81	22.0694
505.564	22.163
507.317	21.9468
509.071	21.9297
510.825	22.1109
512.578	21.1027
514.33	20.426
516.082	20.0099
517.833	18.4105
519.585	18.4214
521.335	17.9309
523.086	17.5299
524.836	17.347
526.586	17.4586
528.335	16.7385
530.085	16.7688
531.835	15.8406
533.584	16.1685
535.332	15.9415
537.08	14.9914
538.827	14.5287
540.574	14.7307
542.321	14.9752
544.068	15.1672
545.814	15.5875
547.56	16.3898
549.305	16.5809
551.05	17.8163
552.795	16.9987
554.54	17.04
556.282	17.7611
558.025	17.3942
559.769	16.2977
561.512	16.0336
563.255	15.6852
564.997	15.1694
566.739	14.3498
568.481	14.1332
570.223	13.5049
571.964	11.714
573.705	10.5781
575.443	10.6342
577.183	11.2031
578.923	10.5682
580.663	10.4022
582.402	9.92735
584.141	8.63362
585.879	7.90082
587.615	7.98263
589.353	7.93208
591.09	6.72966
592.828	6.7218
594.564	6.21523
596.299	6.26494
598.035	6.07953
599.771	5.96351
601.506	6.4648
603.242	5.78973
604.974	5.48225
606.709	6.60055
608.443	6.67156
610.177	5.95313
611.908	6.62878
613.642	6.24923
615.374	5.71105
617.105	5.56123
618.837	5.42466
620.569	6.56429
622.3	7.66068
624.03	7.45382
625.761	7.90636
627.491	8.79863
629.219	9.65647
630.949	9.26801
632.677	9.67795
634.406	9.19252
636.135	8.88699
637.861	8.71669
639.59	7.53335
641.318	8.1665
643.043	7.82081
644.77	7.01093
646.495	7.66376
648.222	8.15194
649.948	7.53138
651.672	7.83193
653.398	8.37703
655.121	8.97424
656.846	8.278
658.569	7.98482
660.293	8.67992
662.015	9.61055
663.738	9.89908
665.46	9.7531
667.183	10.4935
668.903	10.4127
670.626	11.8033
672.346	13.467
674.067	14.5191
675.787	15.5641
677.508	16.3635
679.226	18.0159
680.947	18.7875
682.665	18.2834
684.385	18.8345
686.102	19.3555
687.821	18.672
689.538	18.7119
691.254	20.59
692.972	21.8458
694.688	21.7751
696.406	21.7091
698.121	23.0479
699.835	23.4538
701.552	23.4892
703.266	23.8081
704.98	24.3978
706.695	26.0637
708.409	25.6193
710.121	24.7119
711.836	25.3015
713.548	24.868
715.26	25.3246
716.973	24.9184
718.685	24.982
720.396	25.715
722.108	26.4834
723.818	27.233
725.528	27.6558
727.238	27.9496
728.949	29.5455
730.658	29.7382
732.367	30.8209
734.075	31.7003
735.785	32.7168
737.493	34.4411
739.2	35.8895
740.907	37.5053
742.614	38.8442
744.322	40.1601
746.028	41.5761
747.734	43.0535
749.439	44.5737
751.144	46.4977
752.849	47.3044
754.555	48.2673
756.26	50.1938
757.963	50.2884
759.667	50.8552
761.37	51.9799
763.073	51.7385
764.775	52.0283
766.477	51.6093
768.179	51.3929
769.883	52.2166
771.584	53.3023
773.285	53.4426
774.986	54.8341
776.686	56.4142
778.386	56.8864
780.085	56.3544
781.785	56.0837
783.484	56.2345
785.182	56.3714
786.881	56.7225
788.579	57.4545
790.276	57.7083
791.974	58.0232
793.671	57.4343
795.367	59.1056
797.064	59.6886
798.76	60.2472
800.456	61.4476
802.151	62.5613
803.846	63.8643
805.541	65.2931
807.234	66.5882
808.928	68.2135
810.622	68.8589
812.315	69.7945
814.008	71.5307
815.701	71.7221
817.394	72.9734
819.086	74.4328
820.778	75.5112
822.468	75.6937
824.159	76.2071
825.85	76.6088
827.541	75.9995
829.231	75.1103
830.921	74.1389
832.609	72.5323
834.298	71.3774
835.987	69.7706
837.676	67.0152
839.364	65.825
841.051	63.8248
842.738	61.4587
844.426	60.9677
846.113	59.3149
847.798	57.4393
849.484	54.7353
851.171	52.6942
852.857	50.5334
854.54	49.7554
856.226	48.2948
857.911	47.0786
859.593	46.3602
861.278	45.0742
862.961	43.7447
864.645	42.343
866.327	41.1327
868.01	40.948
869.692	40.7166
871.373	39.7834
873.055	38.9743
874.735	38.4326
876.416	38.4758
878.097	37.8364
879.776	38.4209
881.457	39.1276
883.135	40.0223
884.815	40.1063
886.495	41.063
888.172	41.4437
889.851	41.9937
891.528	42.803
893.206	42.968
894.882	42.6721
896.56	42.8073
898.237	43.3161
899.912	43.5389
901.589	43.169
903.263	42.6211
904.94	42.2392
906.614	41.6157
908.289	41.52
909.962	40.7255
911.635	39.3528
913.31	37.8989
914.982	36.8257
916.656	35.8746
918.328	34.9567
920.001	34.2524
921.672	33.4368
923.345	32.9333
925.015	31.5865
926.685	30.6306
928.357	30.4364
930.026	29.1536
931.698	28.6773
933.366	26.8689
935.035	26.8568
936.705	25.8785
938.373	25.7422
940.041	24.4924
941.71	24.483
943.377	23.0734
945.044	21.5353
946.712	20.8274
948.378	19.9227
950.044	18.668
951.709	17.6248
953.376	17.4372
955.041	17.9933
956.706	17.7092
958.372	17.5566
960.036	16.5772
961.699	15.6078
963.362	16.3085
965.027	17.0145
966.69	16.9063
968.352	16.4212
970.014	17.1275
971.676	16.8292
973.339	16.705
975	15.7565
976.661	15.2089
978.322	15.1023
979.982	15.7869
981.642	16.2222
983.303	15.6351
984.962	14.7847
986.621	14.658
988.28	15.4476
989.938	15.7631
991.596	14.964
993.254	15.0541
994.911	15.5017
996.57	16.5872
998.227	17.3028
999.884	17.4229
1001.54	17.078
1003.2	17.1067
1004.85	16.9956
1006.51	17.1923
1008.16	16.492
1009.82	16.2711
1011.47	16.4349
1013.12	16.2407
1014.78	15.0601
1016.43	15.0591
1018.08	14.6979
1019.74	14.0426
1021.39	13.1253
1023.04	11.7224
1024.69	11.3133
1026.34	11.7663
1028	11.9807
1029.65	12.2737
1031.3	11.6694
1032.95	11.3376
1034.6	11.6583
1036.25	12.3058
1037.9	11.4225
1039.54	11.1369
1041.19	12.4288
1042.84	12.8717
1044.49	13.3856
1046.14	14.23
1047.78	15.4325
1049.43	15.2746
1051.08	14.9442
1052.72	15.636
1054.37	15.3841
1056.02	14.8882
1057.66	14.3691
1059.31	14.8101
1060.95	15.7671
1062.6	16.242
1064.24	15.6874
1065.88	14.8739
1067.53	15.2602
1069.17	15.8287
1070.81	16.0701
1072.45	16.3024
1074.1	15.4291
1075.74	16.4651
1077.38	15.8546
1079.02	15.411
1080.66	14.0499
1082.3	13.5256
1083.94	12.8786
1085.58	12.7075
1087.22	12.0545
1088.86	10.9543
1090.5	9.66273
1092.14	10.2463
1093.78	10.7977
1095.42	10.6368
1097.05	8.59742
1098.69	8.6094
1100.33	7.26616
1101.96	6.04798
1103.6	5.89309
1105.24	5.60894
1106.87	5.74706
1108.51	5.30137
1110.14	3.34506
1111.78	3.09951
1113.41	2.93573
1115.05	2.31791
1116.68	3.13063
1118.31	3.445
1119.95	3.99917
1121.58	4.89497
1123.21	4.4092
1124.85	3.78509
1126.48	3.14851
1128.11	3.45565
1129.74	3.42096
1131.37	2.84327
1133	3.0167
1134.63	2.94042
1136.26	2.55904
1137.89	1.96075
1139.52	2.47683
1141.15	3.10813
1142.78	3.05975
1144.41	2.01796
1146.04	1.33913
1147.66	1.62386
1149.29	2.17177
1150.92	2.40285
1152.55	2.79697
1154.17	2.06407
1155.8	1.51731
1157.43	1.57368
1159.05	1.21591
1160.68	0.60286
1162.3	-0.0224135
1163.93	1.08746
1165.55	1.1336
1167.17	1.42383
1168.8	1.94534
1170.42	2.72592
1172.05	4.10806
1173.67	5.33248
1175.29	5.01559
1176.91	4.20583
1178.54	3.77869
1180.16	4.61377
1181.78	4.35504
1183.4	4.82288
1185.02	6.21857
1186.64	5.96824
1188.26	5.66262
1189.88	6.27245
1191.5	7.05379
1193.12	9.25971
1194.74	9.7597
1196.36	10.1685
1197.97	11.4716
1199.59	11.6606
1201.21	11.6706
1202.83	12.0169
1204.44	12.8774
1206.06	14.7446
1207.68	15.2144
1209.29	15.4051
1210.91	16.3451
1212.52	17.2633
1214.14	17.9273
1215.75	18.1088
1217.37	18.794
1218.98	19.6733
1220.59	20.7929
1222.21	22.6178
1223.82	23.905
1225.43	25.1557
1227.05	27.308
1228.66	28.9673
1230.27	30.6682
1231.88	31.6892
1233.49	32.4304
1235.1	33.6
1236.72	35.1679
1238.33	36.4023
1239.94	38.4484
1241.55	39.9135
1243.16	42.369
1244.76	45.1783
1246.37	47.2782
1247.98	49.0904
1249.59	51.0632
1251.2	52.2584
1252.8	53.8313
1254.41	56.0721
1256.02	57.5115
1257.62	58.8454
1259.23	60.8037
1260.84	62.67
1262.44	64.9583
1264.05	67.2686
1265.66	69.1324
1267.26	70.4183
1268.86	72.6016
1270.47	74.9149
1272.07	76.4927
1273.67	78.9918
1275.28	80.5916
1276.88	80.3978
1278.48	81.4672
1280.09	81.5969
1281.69	82.1289
1283.29	81.7442
1284.89	82.3607
1286.49	82.2323
1288.09	80.7782
1289.69	80.4728
1291.29	80.6694
1292.89	80.8273
1294.49	80.2773
1296.09	80.8025
1297.69	80.459
1299.29	81.005
1300.89	80.1933
1302.49	81.2197
1304.08	80.0653
1305.68	79.7597
1307.28	79.1618
1308.88	78.9612
1310.47	79.4843
1312.07	79.5484
1313.66	79.7746
1315.26	80.381
1316.85	80.4703
1318.45	81.0798
1320.04	81.1161
1321.64	80.6489
1323.23	80.7056
1324.83	80.0273
1326.42	79.9167
1328.01	79.3552
1329.61	78.8939
1331.2	77.6294
1332.79	77.4289
1334.38	77.5342
1335.97	75.8244
1337.56	75.273
1339.16	73.9933
1340.75	73.5624
1342.34	72.9071
1343.93	71.809
1345.52	71.1435
1347.11	70.0839
1348.7	68.9446
1350.29	67.187
1351.87	66.35
1353.46	64.9674
1355.05	62.1854
1356.64	58.2003
1358.22	56.287
1359.81	53.9374
1361.4	52.3453
1362.98	49.9886
1364.57	48.1737
1366.16	45.6241
1367.74	43.8371
1369.33	43.2593
1370.91	41.4877
1372.5	40.0177
1374.08	37.5587
1375.67	36.7187
1377.25	35.6412
1378.83	35.4115
1380.41	34.4178
1382	34.8391
1383.58	33.2798
1385.16	33.083
1386.74	33.1027
1388.33	34.1418
1389.91	34.1701
1391.49	34.909
1393.07	35.2653
1394.65	34.8229
1396.23	34.8164
1397.81	33.6525
1399.39	33.4226
1400.97	33.3252
1402.55	33.3756
1404.13	33.2404
1405.7	33.7285
1407.28	33.8446
1408.86	33.3964
1410.44	33.4193
1412.01	34.4854
1413.59	35.3805
1415.17	36.1706
1416.74	37.669
1418.32	39.0182
1419.89	41.5971
1421.47	43.1032
1423.04	45.4566
1424.62	48.2509
1426.19	50.6884
1427.77	53.0587
1429.34	55.2096
1430.91	57.2244
1432.49	59.0285
1434.06	61.321
1435.63	63.2944
1437.2	65.4122
1438.78	67.9656
1440.35	69.6497
1441.92	72.0541
1443.49	73.6748
1445.06	76.2898
1446.63	77.4529
1448.2	78.4265
1449.77	78.952
1451.34	79.9952
1452.91	80.4547
1454.48	81.2357
1456.05	81.7994
1457.62	80.6249
1459.18	79.3718
1460.75	78.9354
1462.32	77.6115
1463.89	76.1197
1465.45	75.0142
1467.02	72.752
1468.59	70.3968
1470.15	68.2333
1471.72	65.4915
1473.28	62.5439
1474.85	60.867
1476.41	57.1577
1477.98	54.868
1479.54	51.3012
1481.1	47.7006
1482.67	44.8648
1484.23	42.1776
1485.79	39.3658
1487.36	36.7199
1488.92	35.1293
1490.48	33.0791
1492.04	30.6309
1493.61	29.2563
1495.17	28.4503
1496.73	27.343
1498.29	26.7195
1499.85	25.9381
1501.41	26.2246
1502.97	25.8746
1504.53	25.0118
1506.09	24.5156
1507.65	24.2673
1509.2	24.766
1510.76	24.1311
1512.32	23.9725
1513.88	24.0153
1515.43	25.2783
1516.99	26.7031
1518.55	27.6018
1520.1	28.7852
1521.66	29.1793
1523.22	30.0412
1524.77	30.5732
1526.33	31.1268
1527.88	32.3067
1529.44	32.7891
1530.99	32.609
1532.54	33.7154
1534.1	34.0071
1535.65	34.8237
1537.21	36.4335
1538.76	37.7637
1540.31	38.6444
1541.86	39.253
1543.42	41.2693
1544.97	42.2322
1546.52	44.1533
1548.07	46.1973
1549.62	47.8653
1551.17	49.0792
1552.72	49.1163
1554.27	49.0538
1555.82	50.8815
1557.37	52.1192
1558.92	52.7776
1560.47	53.7628
1562.02	54.5091
1563.56	55.6846
1565.11	56.2635
1566.66	57.6191
1568.21	58.0513
1569.75	59.3879
1571.3	61.2969
1572.85	62.5399
1574.39	63.9412
1575.94	65.5466
1577.49	65.695
1579.03	66.95
1580.57	66.8798
1582.12	67.7261
1583.66	68.4663
1585.21	68.9999
1586.75	70.1538
1588.3	69.5129
1589.84	70.4116
1591.38	70.8121
1592.92	70.7696
1594.47	70.0462
1596.01	68.7129
1597.55	68.9306
1599.09	68.2786
1600.63	67.3339
1602.17	66.5833
1603.71	65.8132
1605.25	65.2273
1606.79	64.1596
1608.33	63.0122
1609.87	63.6687
1611.41	62.9165
1612.95	63.2595
1614.49	63.0046
1616.03	62.5511
1617.57	63.5422
1619.1	63.2241
1620.64	63.7109
1622.18	63.277
1623.72	63.5596
1625.25	63.4213
1626.79	63.6779
1628.32	63.6065
1629.86	64.1789
1631.39	65.8893
1632.93	67.5786
1634.46	68.6642
1636	69.1757
1637.53	69.763
1639.07	71.2039
1640.6	72.7045
1642.13	74.2611
1643.67	76.1502
1645.2	77.9188
1646.73	79.6777
1648.26	80.2528
1649.8	82.1482
1651.33	83.3539
1652.86	83.3285
1654.39	83.9838
1655.92	84.827
1657.45	85.1357
1658.98	86.1759
1660.51	85.7814
1662.04	85.894
1663.57	84.9506
1665.1	83.3228
1666.63	82.2075
1668.16	80.7263
1669.68	79.1597
1671.21	77.7176
1672.74	75.8873
1674.27	75.1847
1675.79	71.9318
1677.32	69.9251
1678.85	67.3283
1680.37	65.0844
1681.9	61.9634
1683.42	60.0528
1684.95	57.9583
1686.47	55.3055
1688	52.5438
1689.52	49.9593
1691.05	47.934
1692.57	45.1693
1694.09	42.5658
1695.62	39.3674
1697.14	36.7345
1698.66	34.3657
1700.18	32.9471
1701.71	31.2261
1703.23	30.1298
1704.75	28.269
1706.27	27.4812
1707.79	25.9946
1709.31	25.0153
1710.83	23.4346
1712.35	21.9834
1713.87	20.1032
1715.39	19.5725
1716.91	18.8089
1718.43	18.0604
1719.95	17.2459
1721.47	16.7775
1722.99	14.8271
1724.5	13.9042
1726.02	14.4609
1727.54	13.4827
1729.06	13.1715
1730.57	12.9159
1732.09	11.8999
1733.61	11.9444
1735.12	11.7303
1736.64	11.5045
1738.15	11.0609
1739.67	9.70685
1741.18	9.73496
1742.7	9.21871
1744.21	8.98756
1745.72	8.67839
1747.24	7.73588
1748.75	6.88153
1750.26	6.31124
1751.77	5.73168
1753.29	6.30401
1754.8	6.0278
1756.31	6.12222
1757.82	5.46125
1759.33	5.04361
1760.84	4.73833
1762.36	3.9775
1763.87	3.9752
1765.38	3.43563
1766.89	3.25139
1768.4	2.63632
1769.91	2.59499
1771.41	2.26782
1772.92	2.00698
1774.43	2.05306
1775.94	1.7812
1777.45	1.18086
1778.95	1.14806
1780.46	0.842633
1781.97	0.529127
1783.48	0.272387
1784.98	-0.0202583
1786.49	-0.435549
1787.99	-0.832573
1789.5	-1.09625
1791.01	-1.03144
1792.51	-0.739552
1794.01	-0.746601
1795.52	-0.571895
1797.02	-1.11486
1798.53	-1.60994
1800.03	-0.737685
1801.53	-0.344393
1803.04	-0.530336
1804.54	-0.236007
1806.04	0.0377304
1807.54	0.691171
1809.05	1.25767
1810.55	1.08771
1812.05	0.835165
1813.55	-0.0757966
1815.05	-0.0723206
1816.55	0.413745
1818.05	0.733482
1819.55	0.462784
1821.05	0.62949
1822.55	0.537956
1824.05	0.520435
1825.55	1.27815
1827.05	1.70383
1828.55	1.53515
1830.04	1.65548
1831.54	1.68103
1833.04	1.40388
1834.54	1.76085
1836.03	2.20412
1837.53	2.2542
1839.03	2.62312
1840.52	2.86668
1842.02	2.8518
1843.51	3.10905
1845.01	3.03758
1846.5	2.81042
1848	3.45711
1849.49	3.45013
1850.99	3.74398
1852.48	3.9412
1853.97	4.06807
1855.47	3.66634
1856.96	3.69655
1858.45	3.96279
1859.94	4.1674
1861.44	4.50845
1862.93	4.76699
1864.42	5.50087
1865.91	6.16721
1867.4	6.14796
1868.89	6.37278
1870.38	6.77193
1871.87	6.66329
1873.36	7.03838
1874.85	7.18768
1876.34	7.16164
1877.83	7.62756
1879.32	7.81904
1880.81	8.01139
1882.3	7.8051
1882.57	7.29224
1884.07	7.37177
1885.56	7.37787
1887.06	7.56202
1888.55	7.94714
1890.04	8.06814
1891.54	7.78685
1893.03	7.89799
1894.52	8.11448
1896.02	7.70253
1897.51	7.13067
1899	6.84679
1900.49	6.50036
1901.98	6.61814
1903.47	6.50149
1904.96	5.65762
1906.45	5.39759
1907.94	5.96725
1909.43	6.12979
1910.92	6.2996
1912.41	6.20345
1913.9	5.52574
1915.39	5.44624
1916.88	5.17254
1918.37	4.99525
1919.85	4.63949
1921.34	4.63669
1922.83	3.97895
1924.32	3.0098
1925.8	2.60109
1927.29	2.85843
1928.78	2.69927
1930.26	2.83145
1931.75	3.01399
1933.23	2.97743
1934.72	3.03567
1936.2	2.82957
1937.69	3.23189
1939.17	3.54401
1940.66	3.58938
1942.14	4.04582
1943.63	3.76249
1945.11	3.15879
1946.59	3.48806
1948.07	3.61519
1949.56	4.30598
1951.04	4.57373
1952.52	4.20412
1954	4.05378
1955.48	3.76983
1956.96	3.76934
1958.45	3.7807
1959.93	3.88569
1961.41	3.84507
1962.89	3.25819
1964.37	3.15367
1965.85	3.0609
1967.32	3.15118
1968.8	2.51244
1970.28	2.52428
1971.76	2.05024
1973.24	2.70757
1974.72	3.34618
1976.19	2.88871
1977.67	2.67889
1979.15	3.03318
1980.63	3.59865
1982.1	3.19039
1983.58	3.44604
1985.05	3.17306
1986.53	3.27699
1988	3.05603
1989.48	3.41027
1990.95	3.23292
1992.43	3.19666
1993.9	2.92294
1995.38	3.00313
1996.85	2.97284
1998.32	2.99276
1999.8	3.97916
2001.27	3.90888
2002.74	3.35606
2004.22	3.20219
2005.69	3.17071
2007.16	3.3276
2008.63	2.83701
2010.1	2.47195
2011.57	2.7984
2013.04	2.77767
2014.51	2.23404
2015.98	1.99307
2017.45	2.05203
2018.92	2.1309
2020.39	2.52463
2021.86	2.1338
2023.33	2.05709
2024.8	1.95037
2026.27	1.88298
2027.74	1.52256
2029.2	1.23784
2030.67	1.20288
2032.14	1.30921
2033.61	1.6435
2035.07	1.5676
2036.54	2.05512
2038.01	2.29235
2039.47	2.66256
2040.94	3.05054
2042.4	3.56003
2043.87	3.92297
2045.33	4.62887
2046.8	4.92925
2048.26	5.21878
2049.72	5.34939
2051.19	5.79419
2052.65	6.23081
2054.12	6.72744
2055.58	7.37631
2057.04	8.1445
2058.5	8.88407
2059.97	9.4314
2061.43	9.36464
2062.89	9.47921
2064.35	9.66912
2065.81	9.84043
2067.27	10.361
2068.73	10.7443
2070.19	11.396
2071.65	11.7373
2073.11	11.7425
2074.57	11.861
2076.03	11.8767
2077.49	11.8616
2078.95	12.1457
2080.41	12.4529
2081.87	12.9259
2083.32	13.4171
2084.78	14.3499
2086.24	14.8541
2087.7	15.7131
2089.15	16.56
2090.61	17.4171
2092.07	18.0726
2093.52	18.1506
2094.98	18.2033
2096.43	19.0577
2097.89	19.3327
2099.34	19.6118
2100.8	20.2848
2102.25	21.1421
2103.71	21.5741
2105.16	22.9047
2106.61	23.6275
2108.07	25.0037
2109.52	26.3457
2110.97	27.3057
2112.43	28.785
2113.88	29.6299
2115.33	30.61
2116.78	32.0272
2118.23	33.4208
2119.68	34.7176
2121.13	35.9844
2122.59	36.8813
2124.04	38.4969
2125.49	40.1646
2126.94	41.5732
2128.39	43.2154
2129.83	44.4754
2131.28	46.1472
2132.73	47.2442
