#Acq. time (s)=	45
#Accumulations=	2
#Range (cm-¹)=	200...3150
#Windows=	2
#Auto scanning=	Off
#Autofocus=	Off
#Macrospot=	Off
#AutoExposure=	Off
#Spike filter=	Multiple accum.
#Delay time (s)=	0
#Binning=	1
#Readout mode=	Signal
#DeNoise=	Off
#ICS correction=	On
#Dark correction=	Off
#Inst. Process=	Off
#Detector Gain=	Best Dynamic Range
#Detector ADC=	20 kHz       
#Detector temperature (°C)=	-69.85
#Instrument=	LabRAM HR Evol
#Detector=	Synapse
#Objective=	x100
#Grating=	600 gr/mm
#ND Filter=	100%
#Laser (nm)=	532 
#Hole=	100.021
#Range=	Auto
#Laser Pol.=	No
#Raman. Pol.=	No
#Laser Pol. (°)=	-0.0007625
#Raman Pol. (°)=	89.9995
#Collection=	Microscope
#StageXY=	Marzhauser
#StageZ=	Marzhauser
#X (µm)=	-5887.4
#Y (µm)=	2883.3
#Z (µm)=	-223.85
#Full time(mm:ss)=	3:18
#Project=	
#Sample=	
#Site=	
#Title=	Thy_20_09_17_2x_45s_532 nm_x100_100%_600 gr_mm
#Remark=	
#Date=	29.06.2022 11:53
#Acquired=	29.06.2022 11:53:29
#Base:Fit=	10.08.2022 09:52:02
#Base:Fit=	10.08.2022 09:52:12
#Base:Sub=	10.08.2022 09:54:21
#Filter:Polynom=	16.08.2022 10:24:04
#AxisType[0]=Intens
#AxisUnit[0]=Cnt
#AxisType[1]=Spectr
#AxisUnit[1]=1/cm
200.523	24.6754
202.339	21.5447
204.154	19.4608
205.967	17.0209
207.781	14.9726
209.596	13.1716
211.409	11.7166
213.222	10.9443
215.034	9.27624
216.848	7.63392
218.659	7.17748
220.47	6.1357
222.281	5.5657
224.091	4.41239
225.903	3.6563
227.713	2.21825
229.522	1.97882
231.331	1.98893
233.14	2.42957
234.948	2.20788
236.756	1.65146
238.566	2.19378
240.373	2.52572
242.18	2.52579
243.986	2.13552
245.792	2.57943
247.598	2.61063
249.403	3.09724
251.208	3.4152
253.013	3.45443
254.818	3.30187
256.624	3.50912
258.427	3.32526
260.231	3.82202
262.034	4.23075
263.836	4.57144
265.638	4.99469
267.44	3.70807
269.242	3.25146
271.043	2.80714
272.844	2.37204
274.645	2.11917
276.445	2.22032
278.245	3.11202
280.044	2.87964
281.843	2.7013
283.642	3.79485
285.44	4.39863
287.238	5.81796
289.036	5.6958
290.833	6.7752
292.63	7.01268
294.425	7.73348
296.221	7.91971
298.017	8.98736
299.813	9.45276
301.608	9.71376
303.403	9.56947
305.198	9.01894
306.992	9.46472
308.786	10.6033
310.579	10.1781
312.371	10.353
314.163	10.7045
315.956	10.3408
317.748	10.2533
319.54	10.8908
321.331	11.7671
323.122	12.8528
324.911	13.2334
326.701	13.9979
328.491	15.5448
330.281	15.6098
332.071	15.8227
333.857	15.5112
335.646	15.6714
337.434	15.5137
339.222	15.0602
341.008	14.5598
342.795	14.8741
344.582	14.7272
346.369	15.2811
348.153	15.2139
349.939	15.6314
351.724	15.4049
353.51	16.3684
355.292	16.4683
357.077	15.0758
358.861	15.2223
360.643	15.6779
362.426	14.8682
364.21	14.7448
365.99	13.9861
367.773	14.1234
369.555	13.8995
371.335	14.5254
373.116	15.5157
374.897	14.7351
376.676	14.6099
378.456	15.3235
380.236	15.4922
382.014	15.7072
383.793	15.8513
385.57	15.31
387.349	16.0748
389.127	14.6881
390.903	14.2639
392.681	13.7302
394.456	13.0963
396.233	12.3353
398.007	11.8157
399.784	10.8509
401.56	10.2139
403.333	9.99733
405.108	9.03388
406.881	10.0899
408.656	10.6856
410.428	10.3576
412.202	10.6437
413.973	10.3695
415.746	9.55874
417.517	9.04535
419.29	7.8341
421.06	6.88735
422.831	6.36277
424.601	6.40565
426.37	6.61155
428.141	6.37663
429.909	7.64336
431.679	8.07887
433.447	7.62702
435.216	7.60377
436.983	7.44328
438.75	7.8288
440.519	7.03703
442.285	6.42646
444.052	5.74349
445.818	5.27925
447.583	5.44943
449.349	5.41852
451.114	5.41066
452.878	5.91257
454.643	6.70169
456.407	8.79554
458.169	9.69948
459.934	10.4939
461.696	12.0144
463.458	12.2715
465.222	14.1389
466.983	15.9096
468.744	16.0965
470.507	17.8775
472.267	17.6252
474.027	18.5299
475.787	19.3914
477.548	19.373
479.307	19.8694
481.065	19.3917
482.823	20.1208
484.583	20.5381
486.341	22.0194
488.098	22.4914
489.855	22.661
491.612	23.6507
493.37	23.5952
495.126	23.7659
496.881	23.282
498.636	23.1134
500.391	24.5516
502.148	24.7124
503.902	24.0388
505.656	24.8673
507.409	25.4777
509.162	26.1785
510.915	26.0248
512.668	25.6805
514.42	25.3486
516.174	24.2467
517.925	23.0296
519.676	22.1481
521.427	21.3525
523.178	20.6637
524.928	19.6528
526.678	19.0976
528.427	18.3901
530.176	17.3556
531.925	17.1867
533.673	17.0642
535.422	16.8516
537.169	16.4505
538.917	15.5057
540.664	14.6612
542.411	13.3699
544.157	12.362
545.903	11.9077
547.649	10.8137
549.395	10.069
551.14	8.35657
552.884	9.18374
554.629	9.10662
556.373	8.26446
558.117	9.08445
559.86	8.44552
561.603	8.83258
563.346	8.66587
565.089	7.63027
566.831	6.72946
568.573	6.43118
570.314	7.56052
572.053	6.90297
573.794	7.22391
575.534	6.29853
577.274	6.84862
579.014	6.54357
580.754	6.54732
582.493	7.41483
584.23	8.35221
585.968	8.95274
587.706	9.09708
589.444	9.17621
591.181	8.89566
592.919	9.11251
594.653	9.22236
596.39	8.65561
598.126	7.97884
599.862	9.09646
601.595	9.29525
603.33	9.35096
605.065	10.0498
606.8	11.1224
608.532	10.4119
610.266	11.0752
611.999	11.3581
613.732	12.0658
615.463	12.6112
617.196	12.8872
618.928	14.616
620.66	15.4513
622.389	15.0572
624.12	13.967
625.851	13.6327
627.58	14.3288
629.31	15.0143
631.04	17.1211
632.767	17.7617
634.497	17.8917
636.223	20.1381
637.952	21.8576
639.68	23.6766
641.406	24.2888
643.134	24.4845
644.861	25.2402
646.586	25.0086
648.312	24.5881
650.037	24.5513
651.762	23.4551
653.486	23.9719
655.211	24.8927
656.936	24.4997
658.659	24.154
660.383	23.852
662.105	23.6112
663.829	23.5837
665.55	23.1235
667.273	23.6932
668.994	23.3873
670.716	22.76
672.436	22.3235
674.158	22.0218
675.877	22.1592
677.598	22.8536
679.317	23.8463
681.035	24.4942
682.755	25.7583
684.473	26.1576
686.192	26.4612
687.909	26.8159
689.628	28.0625
691.344	28.39
693.06	29.4767
694.778	29.9689
696.493	32.3894
698.211	32.9998
699.925	34.3982
701.64	35.1087
703.356	35.549
705.07	36.3887
706.783	36.733
708.498	37.3623
710.211	39.2406
711.924	40.3252
713.638	41.2428
715.35	41.4689
717.061	41.8314
718.774	42.2686
720.485	43.5693
722.196	45.3384
723.906	44.9347
725.618	44.4223
727.328	44.1619
729.037	43.1751
730.746	42.8425
732.456	43.1893
734.165	43.0555
735.873	43.505
737.58	43.4083
739.289	43.7535
740.997	43.6429
742.703	43.6987
744.41	44.4116
746.116	45.4428
747.823	46.0941
749.529	47.5856
751.234	48.5101
752.938	49.6615
754.643	50.4036
756.347	51.4213
758.051	52.9822
759.756	54.0105
761.459	55.6789
763.162	57.7968
764.865	58.5517
766.567	58.9937
768.269	61.1095
769.97	61.4986
771.671	63.0204
773.372	64.7817
775.073	65.3253
776.773	65.1844
778.473	66.678
780.174	67.3682
781.874	69.7343
783.573	69.5307
785.271	70.9791
786.97	71.744
788.668	73.0567
790.365	74.0905
792.063	74.8904
793.76	74.8839
795.456	74.9493
797.153	74.3946
798.847	74.4362
800.543	74.7169
802.238	75.8284
803.933	77.1177
805.628	77.3806
807.322	77.7328
809.017	76.4078
810.71	77.5528
812.404	77.2035
814.097	77.6501
815.79	78.584
817.483	78.6822
819.173	78.6725
820.865	78.626
822.556	78.3058
824.248	78.7255
825.939	79.3765
827.629	78.8495
829.318	78.618
831.008	78.3189
832.697	76.8514
834.387	76.6886
836.076	74.9371
837.765	73.9393
839.451	71.7541
841.139	70.9851
842.827	69.6307
844.514	68.2334
846.2	67.4994
847.886	66.3101
849.573	64.719
851.259	63.3485
852.943	61.9819
854.629	60.2353
856.314	57.8798
857.997	55.7131
859.682	54.5098
861.366	54.2138
863.05	53.883
864.732	52.4887
866.415	51.8766
868.098	50.454
869.779	50.4305
871.461	49.8174
873.141	48.7068
874.823	47.6276
876.505	47.9943
878.184	47.21
879.865	46.6884
881.545	46.5407
883.223	46.1376
884.903	46.0245
886.581	46.685
888.26	46.3519
889.937	46.4001
891.616	46.1558
893.294	46.0792
894.97	47.1942
896.648	46.4173
898.323	47.2553
900	47.019
901.675	46.3273
903.351	46.159
905.026	46.2561
906.701	46.1975
908.375	46.1402
910.05	45.2867
911.723	44.0424
913.398	44.0836
915.07	42.7107
916.742	41.8372
918.415	41.1041
920.087	40.2586
921.76	39.3197
923.43	38.5616
925.103	38.6378
926.773	37.3498
928.443	37.1674
930.114	36.1749
931.783	35.7667
933.454	34.8
935.123	33.5071
936.791	33.2807
938.461	33.1531
940.128	32.3194
941.796	32.2223
943.464	31.2359
945.131	29.9152
946.797	29.5651
948.465	28.3846
950.131	29.1148
951.797	29.7406
953.462	29.3033
955.128	29.0891
956.793	27.5858
958.457	26.871
960.121	26.4259
961.786	25.3924
963.45	25.2832
965.113	25.7243
966.775	26.6517
968.44	27.4017
970.102	28.5513
971.763	28.9072
973.425	29.4659
975.086	29.0842
976.748	29.1448
978.409	30.4141
980.069	29.9864
981.729	29.2744
983.388	28.8365
985.048	28.9608
986.708	28.6641
988.367	28.454
990.025	27.4616
991.683	27.2412
993.341	26.9741
994.998	26.524
996.655	25.8513
998.312	25.6899
999.969	25.5725
1001.62	25.3202
1003.28	24.8505
1004.94	23.7492
1006.59	23.7529
1008.25	24.1658
1009.9	23.8915
1011.56	24.159
1013.21	23.4117
1014.86	23.4995
1016.52	22.3551
1018.17	22.7156
1019.82	22.6237
1021.48	22.2437
1023.13	20.3563
1024.78	19.7315
1026.43	18.4478
1028.08	18.9317
1029.73	19.3234
1031.38	18.2348
1033.03	17.8055
1034.68	17.254
1036.33	16.0451
1037.98	16.2225
1039.63	15.492
1041.28	16.1531
1042.93	16.1578
1044.57	16.5108
1046.22	17.0253
1047.87	16.7818
1049.52	17.1045
1051.16	16.7069
1052.81	16.1628
1054.45	15.5294
1056.1	15.1737
1057.75	14.8821
1059.39	14.2355
1061.04	14.4653
1062.68	12.654
1064.32	12.8635
1065.97	12.6306
1067.61	11.9879
1069.25	10.995
1070.9	11.1223
1072.54	10.9507
1074.18	11.1777
1075.82	11.13
1077.47	10.7217
1079.11	10.344
1080.75	10.495
1082.39	9.88001
1084.03	9.74456
1085.67	9.99578
1087.31	9.88969
1088.95	10.8835
1090.59	11.8488
1092.22	11.7094
1093.86	11.778
1095.5	12.3814
1097.14	12.8911
1098.78	12.8532
1100.41	13.7991
1102.05	12.8447
1103.69	13.0736
1105.32	12.6146
1106.96	13.5123
1108.59	13.6412
1110.23	13.4546
1111.86	12.5309
1113.5	12.9577
1115.13	12.1335
1116.77	12.371
1118.4	11.0128
1120.03	11.8082
1121.67	10.8243
1123.3	11.2883
1124.93	10.3918
1126.56	11.2022
1128.19	10.5502
1129.83	10.2624
1131.46	10.1879
1133.09	9.60538
1134.72	8.7398
1136.35	8.27186
1137.98	7.65119
1139.61	7.05891
1141.24	6.06655
1142.86	5.77535
1144.49	5.54453
1146.12	5.093
1147.75	3.32416
1149.38	3.26511
1151	2.81362
1152.63	2.7202
1154.26	2.22123
1155.88	1.83376
1157.51	1.49005
1159.14	1.11377
1160.76	0.783055
1162.39	0.275929
1164.01	0.108268
1165.63	0.283521
1167.26	0.483565
1168.88	0.0706701
1170.51	1.39234
1172.13	1.46744
1173.75	1.53857
1175.38	1.83104
1177	2.07002
1178.62	2.18654
1180.24	2.09362
1181.86	2.87665
1183.48	3.42727
1185.1	4.382
1186.72	4.97646
1188.34	6.26138
1189.96	7.05748
1191.58	7.6296
1193.2	8.49343
1194.82	10.2127
1196.44	10.3292
1198.06	11.4135
1199.68	12.713
1201.29	16.016
1202.91	16.7336
1204.53	18.2659
1206.14	18.6819
1207.76	19.8981
1209.38	20.116
1210.99	21.6728
1212.61	22.8038
1214.22	23.5798
1215.84	24.0196
1217.45	25.9204
1219.07	26.8356
1220.68	28.3379
1222.29	29.8806
1223.91	32.0344
1225.52	33.162
1227.13	33.6208
1228.74	34.4043
1230.36	35.8614
1231.97	36.946
1233.58	37.9791
1235.19	38.4033
1236.8	38.3614
1238.41	39.3432
1240.02	40.0789
1241.63	41.495
1243.24	42.6597
1244.85	43.1672
1246.46	43.9022
1248.07	43.8474
1249.67	44.7488
1251.28	45.924
1252.89	46.8046
1254.5	47.8891
1256.1	48.5835
1257.71	49.0319
1259.32	49.8756
1260.92	49.8667
1262.53	51.5717
1264.13	52.281
1265.74	52.6639
1267.34	54.0701
1268.95	54.9849
1270.55	55.3466
1272.15	55.6085
1273.76	55.7412
1275.36	56.6314
1276.97	56.6658
1278.57	57.7039
1280.17	58.7249
1281.77	59.3926
1283.37	58.6291
1284.97	58.8157
1286.58	58.8671
1288.18	59.6264
1289.78	60.2745
1291.38	60.9497
1292.98	61.1936
1294.58	60.8339
1296.18	62.1066
1297.78	62.9776
1299.37	62.9181
1300.97	64.131
1302.57	64.7191
1304.17	64.8308
1305.77	64.5121
1307.36	65.1162
1308.96	66.1861
1310.55	67.581
1312.15	68.4067
1313.75	68.6981
1315.34	70.0465
1316.94	70.5988
1318.53	71.576
1320.13	71.2659
1321.72	71.7848
1323.32	71.4921
1324.91	70.8312
1326.5	70.9107
1328.1	71.2876
1329.69	71.7457
1331.28	71.9461
1332.87	71.967
1334.47	70.1355
1336.06	69.1418
1337.65	68.7457
1339.24	67.8821
1340.83	67.7168
1342.42	68.0715
1344.01	66.3807
1345.6	65.3362
1347.19	65.3279
1348.78	64.4026
1350.37	63.7984
1351.96	62.4724
1353.54	61.2963
1355.13	60.3876
1356.72	59.7928
1358.31	58.4487
1359.89	56.6764
1361.48	55.2113
1363.07	54.3451
1364.65	53.5825
1366.24	52.3234
1367.82	51.8217
1369.41	50.6901
1370.99	49.3938
1372.58	47.6772
1374.16	46.8631
1375.75	46.1748
1377.33	44.8401
1378.91	43.805
1380.5	43.3057
1382.08	42.1868
1383.66	41.8882
1385.25	41.1242
1386.83	41.0052
1388.41	40.2781
1389.99	39.5849
1391.57	38.4072
1393.15	38.292
1394.73	37.7712
1396.31	35.9075
1397.89	35.5496
1399.47	36.1812
1401.05	36.4433
1402.63	36.8891
1404.21	36.9708
1405.78	36.9011
1407.36	37.106
1408.94	37.3111
1410.52	38.6747
1412.1	38.6786
1413.67	39.2609
1415.25	41.3658
1416.82	43.8741
1418.4	45.5247
1419.98	47.6791
1421.55	49.4068
1423.13	50.645
1424.7	53.9847
1426.28	57.4157
1427.85	60.1788
1429.42	62.7697
1431	65.4509
1432.57	67.8442
1434.14	70.7397
1435.71	72.8278
1437.29	73.9202
1438.86	75.8516
1440.43	78.3262
1442	80.0064
1443.57	80.9337
1445.14	81.1499
1446.71	81.8423
1448.28	81.7607
1449.85	81.4842
1451.42	80.7119
1452.99	80.1156
1454.56	79.1536
1456.13	78.28
1457.7	76.2062
1459.26	75.1432
1460.83	73.4387
1462.4	71.7171
1463.97	68.5417
1465.54	66.1164
1467.1	63.1988
1468.67	60.7786
1470.23	58.5698
1471.8	56.2448
1473.36	52.6538
1474.93	50.182
1476.49	47.4818
1478.06	44.852
1479.62	41.4687
1481.19	39.2126
1482.75	36.0253
1484.31	33.0993
1485.88	30.7246
1487.44	28.5662
1489	26.5863
1490.56	23.9037
1492.13	22.5553
1493.69	21.4359
1495.25	20.577
1496.81	19.3085
1498.37	18.8879
1499.93	18.9832
1501.49	18.628
1503.05	19.2793
1504.61	19.2982
1506.17	19.5853
1507.73	19.7147
1509.28	19.5488
1510.84	18.787
1512.4	19.3381
1513.96	18.8306
1515.52	18.5485
1517.07	19.1994
1518.63	20.344
1520.19	20.2406
1521.74	21.0021
1523.3	21.0533
1524.85	22.2146
1526.41	23.2063
1527.96	24.5001
1529.52	25.3283
1531.07	27.2408
1532.63	28.5706
1534.18	28.8765
1535.73	29.3552
1537.29	31.0271
1538.84	31.8098
1540.39	32.6504
1541.94	33.1285
1543.5	34.623
1545.05	36.0337
1546.6	37.7722
1548.15	39.2037
1549.7	40.1012
1551.25	41.4047
1552.8	43.9105
1554.35	45.3227
1555.9	48.0439
1557.45	49.8183
1559	51.0852
1560.55	52.3431
1562.1	53.4843
1563.65	54.6745
1565.19	55.5181
1566.74	56.165
1568.29	56.4862
1569.83	57.7157
1571.38	59.469
1572.93	60.6107
1574.47	60.9089
1576.02	61.5081
1577.56	62.2216
1579.11	62.8625
1580.66	64.4997
1582.2	65.0925
1583.74	66.4437
1585.29	67.4724
1586.83	68.0362
1588.38	68.1581
1589.92	69.4398
1591.46	69.3095
1593.01	70.0677
1594.55	70.8676
1596.09	71.0188
1597.63	70.8801
1599.17	70.6657
1600.71	69.881
1602.25	69.5989
1603.79	68.7199
1605.34	67.8084
1606.88	66.9211
1608.41	66.6525
1609.95	64.5369
1611.49	63.5464
1613.03	63.235
1614.57	61.8575
1616.11	60.7024
1617.65	60.3851
1619.18	59.2231
1620.72	59.0181
1622.26	58.1815
1623.79	57.9834
1625.33	57.818
1626.87	58.1372
1628.4	58.2925
1629.94	58.7033
1631.48	59.0271
1633.01	58.9786
1634.55	58.5886
1636.08	58.0579
1637.61	58.3914
1639.15	58.0848
1640.68	58.3236
1642.21	59.0331
1643.75	59.3368
1645.28	60.5049
1646.81	61.6377
1648.34	62.5322
1649.88	62.814
1651.41	63.5528
1652.94	64.6736
1654.47	66.0743
1656	66.6262
1657.53	66.9404
1659.06	67.2057
1660.59	67.7167
1662.12	67.7424
1663.65	67.6709
1665.18	67.4977
1666.71	66.9995
1668.24	66.4795
1669.76	65.7938
1671.29	64.2924
1672.82	63.3582
1674.35	61.4483
1675.87	59.909
1677.4	57.7042
1678.93	55.1796
1680.45	53.3041
1681.98	51.6714
1683.5	49.9028
1685.03	47.3862
1686.55	44.7395
1688.08	42.8736
1689.6	39.6938
1691.13	36.4935
1692.65	34.0518
1694.17	31.3919
1695.7	28.4775
1697.22	26.1763
1698.74	23.7146
1700.27	22.2113
1701.79	20.3235
1703.31	18.687
1704.83	16.7864
1706.35	15.6058
1707.87	14.8021
1709.39	13.658
1710.91	12.1039
1712.43	10.3681
1713.95	9.81572
1715.47	9.29253
1716.99	9.31767
1718.51	9.41146
1720.03	9.30173
1721.55	9.38854
1723.07	9.11399
1724.58	8.81547
1726.1	8.8511
1727.62	8.88927
1729.13	8.97005
1730.65	9.28013
1732.17	9.24554
1733.68	9.2204
1735.2	9.75394
1736.72	9.9359
1738.23	10.7639
1739.74	10.7861
1741.26	10.377
1742.77	9.95519
1744.29	10.7358
1745.8	10.222
1747.32	10.0678
1748.83	10.3669
1750.34	9.85761
1751.85	9.95041
1753.37	8.97892
1754.88	8.66745
1756.39	8.82378
1757.9	8.80314
1759.41	8.04207
1760.92	7.29839
1762.44	6.64074
1763.95	5.53079
1765.46	4.47294
1766.96	3.85773
1768.47	3.46874
1769.98	3.15712
1771.49	2.76308
1773	1.92529
1774.51	1.56244
1776.02	1.04889
1777.53	0.589112
1779.03	0.303859
1780.54	-0.499909
1782.05	-0.613307
1783.55	-0.568203
1785.06	-1.04988
1786.57	-1.60762
1788.07	-1.0528
1789.58	-0.469032
1791.08	-0.168442
1792.59	0.163307
1794.09	-0.0700461
1795.6	0.185039
1797.1	-0.134404
1798.61	-0.0103127
1800.11	0.00744508
1801.61	0.395225
1803.12	0.400562
1804.62	0.338434
1806.12	-0.26168
1807.62	0.064098
1809.12	-0.119181
1810.63	0.298872
1812.13	0.194339
1813.63	0.474531
1815.13	0.607857
1816.63	1.33162
1818.13	1.49797
1819.63	1.99748
1821.13	2.09921
1822.63	1.74728
1824.13	2.08163
1825.63	2.41044
1827.13	2.87007
1828.62	3.03389
1830.12	3.7284
1831.62	3.85498
1833.12	3.849
1834.61	3.61947
1836.11	3.77991
1837.61	3.75986
1839.1	3.95769
1840.6	3.64915
1842.09	3.24214
1843.59	2.96372
1845.09	2.8825
1846.58	2.97602
1848.08	2.08961
1849.57	2.57783
1851.06	2.55787
1852.56	2.8875
1854.05	2.78806
1855.54	2.68815
1857.04	2.69342
1858.53	3.35861
1860.02	3.13469
1861.51	2.80436
1863.01	3.01966
1864.5	2.62678
1865.99	2.21311
1867.48	2.33476
1868.97	2.30088
1870.46	2.59366
1871.95	2.01979
1873.44	1.8291
1874.93	1.72015
1876.42	1.34031
1877.91	1.02252
1879.4	1.12983
1880.89	1.41214
1882.37	1.39469
1882.46	1.35498
1883.95	1.5363
1885.45	1.74435
1886.94	1.99846
1888.43	2.56548
1889.93	2.35656
1891.42	2.05973
1892.91	2.55158
1894.41	2.69302
1895.9	2.86609
1897.39	3.69115
1898.88	4.16522
1900.37	4.49682
1901.86	4.39943
1903.36	4.54103
1904.85	4.07107
1906.34	4.48996
1907.83	4.91864
1909.32	4.94843
1910.81	5.05331
1912.29	5.61055
1913.78	5.39699
1915.27	5.92769
1916.76	6.27435
1918.25	6.79714
1919.74	6.76017
1921.23	6.43142
1922.71	7.49629
1924.2	7.51537
1925.69	7.7475
1927.17	7.68917
1928.66	7.90274
1930.15	8.01842
1931.63	8.10502
1933.12	7.34499
1934.6	7.141
1936.09	7.13072
1937.57	6.85768
1939.06	6.5913
1940.54	6.2659
1942.02	5.39286
1943.51	4.91253
1944.99	4.51291
1946.47	4.87783
1947.96	4.39963
1949.44	4.04293
1950.92	3.97431
1952.4	4.13602
1953.88	3.91879
1955.37	3.73677
1956.85	4.14461
1958.33	4.3506
1959.81	4.1896
1961.29	3.71546
1962.77	3.9837
1964.25	3.62768
1965.73	3.80945
1967.21	4.03065
1968.69	3.84784
1970.16	3.36063
1971.64	2.7757
1973.12	2.92924
1974.6	3.04007
1976.08	2.78128
1977.55	2.9581
1979.03	3.37221
1980.51	4.47842
1981.98	4.9639
1983.46	4.45658
1984.94	4.35682
1986.41	4.53552
1987.89	4.4273
1989.36	4.78195
1990.84	5.0648
1992.31	5.46563
1993.79	5.41849
1995.26	5.42145
1996.73	5.03491
1998.21	5.01153
1999.68	5.27857
2001.15	4.57419
2002.63	3.85965
2004.1	2.81138
2005.57	2.96273
2007.04	2.21653
2008.51	1.84418
2009.99	1.47606
2011.46	1.69245
2012.93	1.56079
2014.4	1.48837
2015.87	1.48955
2017.34	2.1645
2018.81	1.97667
2020.28	1.99317
2021.75	1.94771
2023.21	1.9299
2024.68	2.44744
2026.15	2.86771
2027.62	2.86795
2029.09	2.84713
2030.56	3.24616
2032.02	3.55048
2033.49	3.49896
2034.96	4.33958
2036.42	4.78657
2037.89	4.49745
2039.36	5.01035
2040.82	5.11426
2042.29	5.28452
2043.75	5.4356
2045.22	6.40618
2046.68	7.62274
2048.14	7.79968
2049.61	8.28671
2051.07	8.375
2052.54	8.35673
2054	8.31657
2055.46	8.05685
2056.93	7.544
2058.39	8.30258
2059.85	9.17295
2061.31	9.71723
2062.77	9.87805
2064.23	10.1092
2065.7	9.34428
2067.16	9.14408
2068.62	8.64647
2070.08	8.39263
2071.54	9.05628
2073	8.59317
2074.46	7.93554
2075.92	7.70643
2077.38	7.88048
2078.83	8.86637
2080.29	8.69272
2081.75	9.48388
2083.21	9.64876
2084.67	10.8483
2086.12	10.5575
2087.58	10.2237
2089.04	9.85477
2090.49	9.91503
2091.95	9.64419
2093.41	9.51158
2094.86	9.90446
2096.32	9.91465
2097.77	11.0673
2099.23	11.4501
2100.68	12.0957
2102.14	13.2376
2103.59	14.4351
2105.05	15.0254
2106.5	15.998
2107.95	17.0265
2109.41	17.1809
2110.86	17.4604
2112.31	18.2717
2113.76	18.8473
2115.21	19.9664
2116.67	20.5068
2118.12	21.5306
2119.57	22.2646
2121.02	22.7124
2122.47	23.5915
2123.92	23.8183
2125.37	24.3553
2126.82	25.2918
2128.27	26.0842
2129.72	26.6982
