#Acq. time (s)=	45
#Accumulations=	2
#Range (cm-¹)=	200...3150
#Windows=	2
#Auto scanning=	Off
#Autofocus=	Off
#Macrospot=	Off
#AutoExposure=	Off
#Spike filter=	Multiple accum.
#Delay time (s)=	0
#Binning=	1
#Readout mode=	Signal
#DeNoise=	Off
#ICS correction=	On
#Dark correction=	Off
#Inst. Process=	Off
#Detector Gain=	Best Dynamic Range
#Detector ADC=	20 kHz       
#Detector temperature (°C)=	-69.85
#Instrument=	LabRAM HR Evol
#Detector=	Synapse
#Objective=	x100
#Grating=	600 gr/mm
#ND Filter=	100%
#Laser (nm)=	532 
#Hole=	100.021
#Range=	Auto
#Laser Pol.=	No
#Raman. Pol.=	No
#Laser Pol. (°)=	-0.0007625
#Raman Pol. (°)=	89.9995
#Collection=	Microscope
#StageXY=	Marzhauser
#StageZ=	Marzhauser
#X (µm)=	4738
#Y (µm)=	-7721.2
#Z (µm)=	584.8
#Full time(mm:ss)=	3:18
#Project=	
#Sample=	
#Site=	
#Title=	Thy_30_10_36_2x_45s_532 nm_x100_100%_600 gr_mm
#Remark=	
#Date=	30.06.2022 14:02
#Acquired=	30.06.2022 14:02:39
#Base:Fit=	10.08.2022 09:58:11
#Base:Sub=	10.08.2022 09:58:44
#Filter:Polynom=	16.08.2022 10:22:53
#AxisType[0]=Intens
#AxisUnit[0]=Cnt
#AxisType[1]=Spectr
#AxisUnit[1]=1/cm
200.533	33.3958
202.348	28.8272
204.162	25.9636
205.976	23.9523
207.792	21.4374
209.605	18.9276
211.418	16.7665
213.23	15.2925
215.044	13.8348
216.856	11.8837
218.667	11.0178
220.478	11.1433
222.289	10.2306
224.102	9.24861
225.912	8.40116
227.721	8.19923
229.531	7.96049
231.34	7.73115
233.148	7.0679
234.956	5.52003
236.766	6.09703
238.574	5.89907
240.381	5.7559
242.188	5.85099
243.994	5.3785
245.801	5.56609
247.606	5.70259
249.412	6.03252
251.217	6.62396
253.024	6.87079
254.828	7.54595
256.632	6.95072
258.436	7.46611
260.239	7.07286
262.042	6.94322
263.845	7.21032
265.647	8.016
267.449	8.70971
269.25	8.80708
271.052	9.09394
272.852	9.00939
274.653	8.58731
276.453	8.2488
278.253	8.74359
280.052	9.21261
281.852	9.20724
283.65	8.34311
285.449	8.06883
287.247	9.08608
289.044	9.36459
290.842	9.08458
292.639	9.24839
294.436	9.06944
296.232	8.5775
298.028	9.08257
299.821	9.5001
301.617	10.3402
303.412	10.4997
305.206	11.1644
307	11.7393
308.794	13.2931
310.588	13.8906
312.381	13.1947
314.172	13.0767
315.964	14.3191
317.756	14.6031
319.548	14.3887
321.34	13.9057
323.131	13.9114
324.921	14.1781
326.71	15.0274
328.5	14.5959
330.29	15.2308
332.079	14.9914
333.868	15.03
335.654	15.8481
337.443	15.3378
339.231	15.5376
341.018	16.1534
342.804	16.0032
344.591	15.5779
346.377	14.4483
348.163	13.7624
349.947	12.8315
351.733	13.0912
353.518	13.4833
355.303	12.1865
357.085	11.5809
358.869	10.987
360.653	9.98714
362.435	9.66725
364.218	9.34734
366.001	9.37582
367.781	9.17252
369.563	7.46674
371.345	7.07463
373.124	6.88887
374.905	6.58181
376.686	7.08415
378.464	5.97667
380.244	6.13549
382.022	6.15214
383.801	5.62138
385.58	5.72723
387.357	6.71789
389.135	7.24623
390.911	7.53348
392.689	6.78414
394.466	7.87219
396.241	8.00418
398.018	8.30229
399.792	7.53978
401.568	7.06765
403.341	7.57139
405.117	8.63901
406.889	8.0212
408.664	8.12708
410.436	8.25375
412.21	9.07527
413.981	9.82391
415.755	10.4332
417.525	10.8876
419.298	11.4324
421.068	11.3086
422.84	11.4826
424.609	11.6195
426.38	11.2186
428.149	11.8559
429.919	12.1872
431.688	11.0928
433.455	11.1001
435.225	11.8883
436.992	11.5996
438.76	11.0587
440.527	10.4515
442.293	10.4477
444.06	9.35751
445.826	9.45351
447.593	9.27378
449.357	9.23595
451.122	9.99699
452.888	10.4945
454.651	10.2028
456.415	10.0861
458.18	10.0416
459.942	10.8824
461.705	10.5002
463.469	10.0066
465.23	10.5504
466.991	10.0411
468.752	10.1537
470.515	10.2404
472.275	10.6804
474.035	11.0581
475.797	11.1372
477.556	11.2919
479.315	11.1367
481.073	12.0138
482.834	13.4523
484.592	13.6289
486.349	12.9908
488.106	13.2861
489.863	14.0246
491.622	13.9688
493.378	13.7364
495.134	14.0556
496.889	14.2654
498.645	15.0738
500.401	15.5547
502.156	15.7357
503.91	16.2718
505.664	16.1423
507.417	16.141
509.171	16.197
510.923	15.5928
512.678	15.8357
514.43	15.8787
516.182	15.2667
517.933	15.7991
519.684	15.4431
521.435	15.8447
523.186	15.5649
524.936	14.804
526.686	14.8584
528.435	14.1299
530.184	14.5457
531.933	14.1811
533.682	14.3492
535.43	14.4851
537.18	14.4979
538.927	15.115
540.674	14.7389
542.421	13.8597
544.167	13.5412
545.913	13.46
547.659	12.7197
549.403	11.7989
551.148	10.5961
552.893	10.6453
554.637	10.9529
556.381	10.6247
558.125	9.96565
559.868	9.60826
561.611	9.72473
563.354	10.1212
565.097	9.73709
566.839	9.24696
568.581	9.83195
570.322	9.24238
572.063	8.30358
573.802	7.33747
575.542	6.53687
577.283	6.01226
579.022	5.56326
580.762	5.90386
582.501	5.85519
584.24	5.75502
585.976	5.45401
587.714	5.24097
589.452	5.41798
591.19	5.41438
592.927	4.3812
594.663	3.76614
596.398	2.95627
598.134	2.09552
599.87	2.59716
601.605	2.14979
603.338	1.98639
605.073	3.13091
606.808	1.77377
608.542	1.24912
610.274	0.932423
612.007	1.02961
613.74	0.695625
615.473	0.180495
617.204	0.771345
618.936	1.20191
620.668	2.03298
622.397	2.48325
624.128	3.00913
625.859	3.42093
627.588	2.72313
629.318	3.19339
631.048	3.00368
632.775	3.76134
634.505	3.47175
636.233	4.21308
637.96	4.51403
639.688	6.15679
641.416	6.5966
643.142	6.9029
644.869	7.42998
646.594	9.08137
648.32	9.17791
650.045	10.0915
651.771	10.352
653.496	10.6155
655.219	11.3512
656.944	11.0685
658.667	10.7701
660.391	11.8388
662.113	12.3473
663.837	14.0244
665.558	14.773
667.281	14.5708
669.002	15.1724
670.724	16.1124
672.444	15.4116
674.166	16.4251
675.885	15.9296
677.606	15.8517
679.325	15.3388
681.045	16.092
682.763	15.1552
684.483	16.9666
686.2	18.3609
687.917	18.9011
689.636	19.5493
691.352	19.7643
693.07	19.8004
694.786	20.4821
696.501	22.2651
698.219	23.3223
699.933	23.8081
701.65	24.9918
703.364	26.8618
705.078	28.7764
706.793	30.6128
708.506	32.0195
710.219	33.4991
711.934	34.066
713.646	34.9846
715.358	36.4547
717.071	37.1146
718.782	38.1104
720.493	38.5411
722.204	39.5458
723.916	40.3614
725.626	41.9659
727.336	42.4996
729.045	43.1225
730.756	43.7096
732.464	44.0768
734.173	43.0083
735.881	44.7381
737.59	45.247
739.297	45.6202
741.004	47.6519
742.711	48.6129
744.417	49.5732
746.125	50.9363
747.831	51.4958
749.537	51.4639
751.242	52.7009
752.946	53.1491
754.651	53.3276
756.357	53.3121
758.061	54.1137
759.764	55.443
761.467	54.9241
763.17	56.0827
764.872	56.9498
766.575	59.1917
768.276	59.1487
769.978	61.4888
771.679	62.1475
773.382	62.5557
775.083	63.5693
776.783	64.4429
778.483	65.7488
780.182	66.6014
781.882	68.1548
783.581	69.1065
785.279	70.4181
786.978	72.1898
788.676	73.0385
790.373	73.1883
792.071	74.2121
793.768	75.5135
795.464	76.0962
797.161	76.522
798.857	76.9517
800.552	78.0756
802.248	78.2974
803.941	78.3983
805.636	79.5419
807.33	80.1699
809.024	81.465
810.718	81.2286
812.412	81.4042
814.105	81.2547
815.798	82.1566
817.49	82.6123
819.183	83.2809
820.873	84.8299
822.564	85.7063
824.256	85.6712
825.947	85.9759
827.637	85.3781
829.328	85.3401
831.016	84.7632
832.705	84.5566
834.395	83.7544
836.084	84.758
837.772	82.8242
839.459	81.352
841.147	80.9836
842.835	80.5603
844.522	79.5488
846.209	77.8448
847.894	76.5895
849.581	75.1091
851.267	74.1384
852.953	72.2602
854.637	71.5266
856.322	70.8097
858.007	69.481
859.689	68.6879
861.374	66.9958
863.058	65.6129
864.739	64.7307
866.423	64.5078
868.106	64.5
869.787	63.5561
871.469	62.3974
873.151	62.0937
874.831	61.4228
876.512	61.8295
878.193	62.0972
879.872	61.108
881.553	61.0178
883.231	60.2282
884.911	59.8347
886.591	58.42
888.268	57.7128
889.947	57.4061
891.623	57.119
893.302	56.7537
894.978	55.6709
896.656	55.9214
898.331	55.994
900.008	56.0618
901.683	55.8326
903.359	56.1088
905.033	55.4158
906.709	55.3077
908.383	54.413
910.058	54.519
911.731	54.0439
913.405	54.0068
915.078	53.7614
916.752	53.7674
918.423	53.0289
920.096	52.7387
921.768	51.6837
923.438	51.7946
925.111	50.4405
926.781	50.3534
928.452	48.5403
930.122	46.478
931.791	45.863
933.462	45.7684
935.13	45.9395
936.799	45.3291
938.468	45.3672
940.136	45.7451
941.803	45.5895
943.472	44.792
945.139	44.6883
946.805	43.6357
948.473	43.7452
950.139	43.9871
951.804	42.9139
953.471	42.7248
955.136	42.7079
956.801	43.8357
958.465	43.3235
960.131	43.2312
961.794	42.4909
963.458	41.3957
965.12	41.144
966.785	40.5606
968.447	41.1829
970.109	42.4106
971.771	42.8355
973.432	44.4663
975.095	45.7869
976.756	46.5991
978.417	47.3988
980.077	48.5557
981.737	50.3823
983.396	49.9871
985.057	50.8304
986.716	51.588
988.375	52.0104
990.033	52.5285
991.691	52.5601
993.349	52.9321
995.006	52.8534
996.663	53.5405
998.32	52.8673
999.976	51.4909
1001.63	51.5896
1003.29	51.5426
1004.95	50.5715
1006.6	50.3834
1008.26	49.5919
1009.91	49.6113
1011.56	48.49
1013.22	48.4748
1014.87	48.3551
1016.53	47.7374
1018.18	47.6594
1019.83	46.7306
1021.48	46.3058
1023.14	45.7969
1024.79	43.8976
1026.44	42.5065
1028.09	42.0071
1029.74	41.2051
1031.39	41.3803
1033.04	41.9802
1034.69	41.1573
1036.34	41.4485
1037.99	40.4066
1039.64	39.7548
1041.29	38.6801
1042.94	37.8938
1044.58	38.0563
1046.23	38.5514
1047.88	38.586
1049.52	39.7927
1051.17	39.6739
1052.82	38.381
1054.46	36.763
1056.11	37.3171
1057.75	36.5048
1059.4	35.9939
1061.04	35.3835
1062.69	34.7218
1064.33	35.183
1065.98	33.1502
1067.62	33.2162
1069.26	32.6439
1070.9	32.4031
1072.55	31.011
1074.19	31.606
1075.83	31.4592
1077.47	30.3187
1079.11	29.0952
1080.76	28.0088
1082.4	28.3854
1084.04	28.6401
1085.68	27.4233
1087.32	26.2817
1088.95	26.5965
1090.59	26.4111
1092.23	26.4273
1093.87	25.742
1095.51	25.8379
1097.15	25.7811
1098.78	25.7728
1100.42	26.4518
1102.06	26.2764
1103.69	26.0476
1105.33	25.3908
1106.97	24.9982
1108.6	25.2154
1110.24	24.5881
1111.87	24.0648
1113.51	23.6543
1115.14	23.9778
1116.77	23.5873
1118.41	23.3515
1120.04	22.5596
1121.67	22.1516
1123.31	22.1597
1124.94	21.4177
1126.57	21.1709
1128.2	20.0149
1129.83	18.8632
1131.47	18.203
1133.1	17.4426
1134.72	16.0365
1136.36	16.4281
1137.98	17.0735
1139.62	16.5959
1141.24	16.2721
1142.87	15.8343
1144.5	15.9726
1146.13	16.7548
1147.76	15.6533
1149.38	16.5827
1151.01	15.7845
1152.64	15.2107
1154.27	14.9369
1155.89	15.3165
1157.52	14.6044
1159.14	14.8449
1160.77	14.415
1162.39	14.145
1164.02	13.9996
1165.64	13.2979
1167.27	13.2248
1168.89	13.5983
1170.51	14.4276
1172.14	14.9171
1173.76	14.3764
1175.38	14.1304
1177	15.1926
1178.63	14.7105
1180.25	13.9801
1181.87	13.3614
1183.49	12.0695
1185.11	12.068
1186.73	12.4865
1188.35	12.711
1189.97	12.5984
1191.59	12.8456
1193.21	13.5694
1194.83	14.6853
1196.45	16.1132
1198.07	16.2562
1199.68	16.0654
1201.3	16.4957
1202.92	18.0251
1204.53	19.2114
1206.15	19.5355
1207.77	20.1456
1209.38	21.0092
1211	22.1377
1212.62	23.7413
1214.23	25.2203
1215.84	26.3889
1217.46	28.5435
1219.07	30.0337
1220.69	31.6682
1222.3	32.9063
1223.91	35.2475
1225.53	37.1883
1227.14	39.0003
1228.75	40.6146
1230.36	42.847
1231.97	44.9156
1233.59	46.8595
1235.2	48.956
1236.81	50.8021
1238.42	51.9643
1240.03	52.8877
1241.64	53.5389
1243.25	54.6005
1244.85	56.3131
1246.46	58.1842
1248.07	59.3717
1249.68	60.0995
1251.29	60.434
1252.9	61.644
1254.5	62.8126
1256.11	63.823
1257.72	64.5648
1259.32	64.1661
1260.93	64.6774
1262.54	65.8485
1264.14	67.073
1265.75	68.1387
1267.35	68.7531
1268.96	68.9785
1270.56	69.1639
1272.16	69.2822
1273.77	69.1581
1275.37	69.2185
1276.97	69.0311
1278.57	68.374
1280.18	68.3041
1281.78	68.197
1283.38	68.3087
1284.98	67.8949
1286.58	68.1282
1288.18	68.9987
1289.78	69.3513
1291.38	69.8582
1292.99	69.8523
1294.58	70.0178
1296.18	70.247
1297.78	70.6112
1299.38	71.2816
1300.98	71.7501
1302.58	71.9231
1304.17	73.2921
1305.77	72.9381
1307.37	73.2126
1308.97	73.8172
1310.56	73.9733
1312.16	73.8349
1313.76	73.0788
1315.35	73.0026
1316.95	72.9762
1318.54	71.8095
1320.14	72.4897
1321.73	73.6937
1323.32	73.1469
1324.92	73.8353
1326.51	73.1086
1328.1	72.0179
1329.7	71.5085
1331.29	71.0704
1332.88	71.2863
1334.47	70.9105
1336.07	69.1097
1337.66	67.6471
1339.25	65.9499
1340.84	65.017
1342.43	63.8985
1344.02	61.9034
1345.61	61.099
1347.2	59.9151
1348.79	58.2161
1350.37	56.0851
1351.96	54.6452
1353.55	52.6365
1355.14	51.0858
1356.73	50.237
1358.31	49.4161
1359.9	47.5367
1361.49	46.4782
1363.07	45.827
1364.66	44.1309
1366.25	42.5647
1367.83	41.3133
1369.42	39.5751
1371	38.4276
1372.59	36.6529
1374.17	36.107
1375.75	34.8891
1377.34	35.031
1378.92	33.8883
1380.5	33.0166
1382.09	32.4223
1383.67	32.0142
1385.25	30.219
1386.83	30.5082
1388.42	29.804
1390	29.6166
1391.58	30.1807
1393.16	29.8942
1394.74	29.0898
1396.32	28.9801
1397.9	28.7391
1399.48	29.0077
1401.06	28.8655
1402.64	27.1715
1404.21	26.5895
1405.79	25.7756
1407.37	27.0041
1408.95	27.4325
1410.53	28.1531
1412.1	29.1513
1413.68	30.0544
1415.26	31.1872
1416.83	32.4691
1418.41	34.7818
1419.98	37.0759
1421.56	39.0538
1423.13	41.6475
1424.71	45.387
1426.28	47.7428
1427.86	50.8955
1429.43	53.7603
1431	56.6779
1432.58	59.4581
1434.15	62.5233
1435.72	65.6458
1437.29	67.2718
1438.87	68.6959
1440.44	70.7154
1442.01	71.9646
1443.58	72.4487
1445.15	74.1982
1446.72	75.5792
1448.29	76.5613
1449.86	76.6275
1451.43	76.8937
1453	77.6048
1454.57	76.8078
1456.14	75.8535
1457.71	73.5774
1459.27	71.7214
1460.84	69.7333
1462.41	67.8331
1463.98	64.9823
1465.54	62.7505
1467.11	59.5718
1468.67	57.2295
1470.24	53.079
1471.81	48.2738
1473.37	44.1471
1474.94	40.0542
1476.5	36.1583
1478.07	32.0553
1479.63	28.7573
1481.19	25.163
1482.76	22.13
1484.32	19.1109
1485.88	16.2995
1487.45	13.1117
1489.01	10.7668
1490.57	8.24734
1492.13	6.30834
1493.69	5.37218
1495.26	3.02966
1496.82	2.64448
1498.38	2.08979
1499.94	1.97238
1501.5	2.69021
1503.06	2.68193
1504.62	2.40826
1506.17	2.26026
1507.73	2.64347
1509.29	2.90805
1510.85	2.83275
1512.41	3.13319
1513.97	3.39907
1515.52	3.13167
1517.08	4.13638
1518.64	4.87945
1520.19	6.31869
1521.75	7.36267
1523.31	8.82651
1524.86	9.50132
1526.42	11.1357
1527.97	11.7467
1529.52	13.0458
1531.08	13.5811
1532.63	13.5932
1534.19	14.9782
1535.74	15.7826
1537.29	17.0284
1538.85	18.6865
1540.4	20.0689
1541.95	21.581
1543.5	22.8974
1545.06	24.5031
1546.61	25.3755
1548.16	26.872
1549.71	27.8907
1551.26	29.3672
1552.81	31.1353
1554.36	32.3281
1555.91	33.2687
1557.46	34.7827
1559.01	35.9588
1560.56	36.2934
1562.11	37.0995
1563.65	38.7133
1565.2	40.4938
1566.75	41.9234
1568.29	43.7036
1569.84	45.0007
1571.39	46.5339
1572.94	47.8161
1574.48	50.1097
1576.03	51.9535
1577.57	52.6346
1579.12	53.6939
1580.66	54.2128
1582.21	55.3387
1583.75	55.4169
1585.3	56.9857
1586.84	56.7895
1588.38	57.0056
1589.93	57.4879
1591.47	57.7181
1593.01	57.3897
1594.55	58.5
1596.1	58.4647
1597.64	58.6314
1599.18	58.1313
1600.72	57.6348
1602.26	58.1061
1603.8	59.0598
1605.34	58.5197
1606.88	58.2765
1608.42	57.8139
1609.96	57.6192
1611.5	57.4889
1613.04	56.9525
1614.58	57.5677
1616.12	58.5949
1617.65	58.6365
1619.19	59.942
1620.73	60.4578
1622.27	61.2683
1623.8	61.8708
1625.34	63.564
1626.87	63.517
1628.41	65.3666
1629.95	66.6403
1631.48	67.6521
1633.02	69.9741
1634.55	71.893
1636.09	73.7639
1637.62	75.3415
1639.15	77.5039
1640.69	79.1305
1642.22	81.6976
1643.76	84.1254
1645.29	85.9063
1646.82	87.3639
1648.35	89.6869
1649.88	91.6273
1651.42	93.0415
1652.95	94.0849
1654.48	94.436
1656.01	95.3182
1657.54	94.8775
1659.07	94.6986
1660.6	93.5294
1662.13	93.7241
1663.66	92.5942
1665.19	92.0422
1666.72	90.6916
1668.24	89.3164
1669.77	87.3303
1671.3	86.3886
1672.83	83.8465
1674.35	80.9791
1675.88	78.1284
1677.41	75.2509
1678.93	73.011
1680.46	70.0196
1681.99	65.7897
1683.51	61.6623
1685.04	58.3595
1686.56	55.5415
1688.09	51.9726
1689.61	49.0819
1691.13	45.5002
1692.66	42.1944
1694.18	38.6416
1695.71	36.0929
1697.23	33.3947
1698.75	30.0663
1700.27	26.954
1701.8	24.6045
1703.32	21.0467
1704.84	19.3853
1706.36	17.8631
1707.88	15.6306
1709.4	13.8767
1710.92	12.278
1712.44	10.9799
1713.96	9.78043
1715.48	8.72254
1717	7.88211
1718.52	7.87955
1720.04	6.64773
1721.56	5.89557
1723.07	5.3183
1724.59	4.87193
1726.11	4.74087
1727.63	4.74268
1729.14	4.37809
1730.66	4.23543
1732.18	3.5025
1733.69	2.91231
1735.21	3.16846
1736.72	3.3579
1738.24	3.64855
1739.75	3.85595
1741.27	3.73357
1742.78	3.80208
1744.3	3.48268
1745.81	3.53665
1747.32	3.8784
1748.84	3.86239
1750.35	3.37635
1751.86	3.56682
1753.37	3.93307
1754.89	4.15611
1756.4	3.4219
1757.91	2.69254
1759.42	2.38035
1760.93	2.295
1762.44	2.00526
1763.95	0.972227
1765.46	0.525149
1766.97	0.0218165
1768.48	0.271045
1769.99	0.0378083
1771.5	-0.14594
1773.01	-0.473655
1774.52	-1.48527
1776.03	-1.69459
1777.53	-1.67577
1779.04	-1.83558
1780.55	-1.35243
1782.06	-1.3918
1783.56	-1.77564
1785.07	-1.80005
1786.57	-1.84273
1788.08	-1.52026
1789.59	-1.1182
1791.09	-1.06162
1792.6	-0.653129
1794.1	-0.26269
1795.6	-0.103055
1797.11	0.392523
1798.61	0.549368
1800.12	1.00353
1801.62	1.79087
1803.12	1.91432
1804.63	1.91868
1806.13	2.09598
1807.63	1.99214
1809.13	2.25466
1810.63	2.68929
1812.14	2.85812
1813.64	3.54831
1815.14	4.38722
1816.64	4.6026
1818.14	5.01538
1819.64	4.90054
1821.14	5.08282
1822.64	5.07397
1824.14	4.80766
1825.63	4.38957
1827.13	4.31945
1828.63	4.60584
1830.13	4.85861
1831.63	4.79729
1833.12	5.1901
1834.62	5.00339
1836.12	5.43948
1837.62	5.70847
1839.11	5.34676
1840.61	5.68376
1842.1	6.43317
1843.6	6.38371
1845.09	6.25951
1846.59	6.20455
1848.08	6.1973
1849.58	6.22187
1851.07	6.73137
1852.57	7.04864
1854.06	7.33024
1855.55	7.2895
1857.04	6.9328
1858.54	7.06784
1860.03	6.88073
1861.52	7.33177
1863.01	7.79356
1864.5	8.06372
1866	8.72031
1867.49	8.70179
1868.98	8.47974
1870.47	8.79907
1871.96	8.83482
1873.45	8.69409
1874.94	9.20272
1876.43	9.55681
1877.92	9.32909
1879.41	9.61223
1880.89	10.1643
1882.38	10.4659
1882.48	10.3341
1883.97	11.0603
1885.47	11.0491
1886.96	11.6553
1888.46	11.1763
1889.95	11.2387
1891.44	11.7253
1892.94	11.4515
1894.43	11.4688
1895.92	11.8304
1897.41	12.4078
1898.9	12.5083
1900.4	12.8655
1901.89	14.1804
1903.38	14.4799
1904.87	15.019
1906.36	14.9226
1907.85	15.6176
1909.34	16.4895
1910.83	16.4262
1912.32	17.1493
1913.81	17.5213
1915.29	17.6916
1916.78	17.7129
1918.27	17.5883
1919.76	17.4872
1921.25	17.7217
1922.74	17.74
1924.22	18.2229
1925.71	18.2229
1927.2	17.8022
1928.68	17.5262
1930.17	17.5958
1931.65	18.3825
1933.14	18.0015
1934.63	18.0227
1936.11	18.2433
1937.59	19.1566
1939.08	18.8728
1940.56	17.7097
1942.05	17.7208
1943.53	18.2493
1945.01	18.2203
1946.5	18.6756
1947.98	19.4324
1949.46	19.0304
1950.94	18.839
1952.43	18.5798
1953.91	18.8452
1955.39	18.542
1956.87	18.5541
1958.35	18.0514
1959.83	17.8615
1961.31	17.6962
1962.79	17.4734
1964.27	17.6289
1965.75	17.3289
1967.23	16.6972
1968.71	16.8488
1970.19	17.0819
1971.67	17.328
1973.14	16.3302
1974.62	16.3688
1976.1	16.5
1977.58	15.9681
1979.05	16.3886
1980.53	16.2687
1982.01	16.8737
1983.48	16.42
1984.96	15.9172
1986.43	15.8183
1987.91	15.8194
1989.38	16.28
1990.86	16.3762
1992.33	16.8855
1993.81	17.4026
1995.28	17.3848
1996.76	17.4324
1998.23	17.485
1999.7	17.5074
2001.18	17.388
2002.65	17.5079
2004.12	18.1895
2005.59	18.478
2007.06	17.9701
2008.54	17.9758
2010.01	17.9428
2011.48	18.0593
2012.95	17.4619
2014.42	18.102
2015.89	18.5032
2017.36	19.1261
2018.83	18.7948
2020.3	18.8876
2021.77	18.7315
2023.24	18.1121
2024.71	18.1393
2026.17	18.0807
2027.64	18.4859
2029.11	18.4492
2030.58	18.328
2032.04	17.7073
2033.51	17.6986
2034.98	16.7236
2036.45	16.7922
2037.91	16.4389
2039.38	16.1042
2040.84	15.8145
2042.31	15.9858
2043.77	15.5286
2045.24	15.3152
2046.7	14.5386
2048.17	15.2043
2049.63	15.7268
2051.1	16.6444
2052.56	17.2232
2054.02	17.6593
2055.48	17.4474
2056.95	17.5744
2058.41	18.3785
2059.87	19.453
2061.33	20.5195
2062.8	21.2891
2064.26	21.3904
2065.72	21.7672
2067.18	21.8722
2068.64	22.4013
2070.1	23.2864
2071.56	23.6088
2073.02	23.994
2074.48	24.1627
2075.94	25.4322
2077.4	26.5802
2078.86	26.9311
2080.31	27.231
2081.77	27.837
2083.23	28.5038
2084.69	29.3464
2086.14	30.2931
2087.6	31.4546
2089.06	31.9406
2090.52	32.7785
2091.97	33.3118
2093.43	34.4324
2094.88	35.2205
2096.34	35.961
2097.79	36.9655
2099.25	37.6975
2100.7	38.2991
2102.16	38.6486
2103.61	39.3202
2105.07	39.8161
2106.52	41.0858
2107.97	42.2113
2109.43	43.5401
2110.88	45.1033
2112.33	45.7572
2113.78	47.3915
2115.24	48.822
2116.69	50.0693
2118.14	51.4691
2119.59	52.5577
2121.04	54.6453
2122.49	55.8227
2123.94	57.2893
2125.39	58.4399
2126.84	60.3269
2128.29	62.1292
2129.74	64.1605
2131.19	66.0647
2132.64	67.8189
