#Acq. time (s)=	45
#Accumulations=	2
#Range (cm-¹)=	200...3150
#Windows=	2
#Auto scanning=	Off
#Autofocus=	Off
#Macrospot=	Off
#AutoExposure=	Off
#Spike filter=	Multiple accum.
#Delay time (s)=	0
#Binning=	1
#Readout mode=	Signal
#DeNoise=	Off
#ICS correction=	On
#Dark correction=	Off
#Inst. Process=	Off
#Detector Gain=	Best Dynamic Range
#Detector ADC=	20 kHz       
#Detector temperature (°C)=	-69.85
#Instrument=	LabRAM HR Evol
#Detector=	Synapse
#Objective=	x100
#Grating=	600 gr/mm
#ND Filter=	100%
#Laser (nm)=	532 
#Hole=	100.021
#Range=	Auto
#Laser Pol.=	No
#Raman. Pol.=	No
#Laser Pol. (°)=	-0.0007625
#Raman Pol. (°)=	89.9995
#Collection=	Microscope
#StageXY=	Marzhauser
#StageZ=	Marzhauser
#X (µm)=	2153.4
#Y (µm)=	1210
#Z (µm)=	442.85
#Full time(mm:ss)=	3:19
#Project=	
#Sample=	
#Site=	
#Title=	Thy_10_08_01_2x_45s_532 nm_x100_100%_600 gr_mm
#Remark=	
#Date=	05.07.2022 14:14
#Acquired=	05.07.2022 14:14:41
#Base:Fit=	10.08.2022 09:45:33
#Base:Fit=	10.08.2022 09:46:03
#Base:Fit=	10.08.2022 09:46:25
#Base:Sub=	10.08.2022 09:46:49
#Filter:Polynom=	16.08.2022 10:24:56
#AxisType[0]=Intens
#AxisUnit[0]=Cnt
#AxisType[1]=Spectr
#AxisUnit[1]=1/cm
200.43	-0.224458
202.244	2.16283
204.059	2.10463
205.873	3.06442
207.688	3.53846
209.501	4.05949
211.314	4.29375
213.127	4.0495
214.941	4.8153
216.753	5.01569
218.564	5.68589
220.375	5.62845
222.186	5.74445
223.999	6.01508
225.809	5.36241
227.618	5.43664
229.428	4.52751
231.236	4.04085
233.045	3.42383
234.855	3.47547
236.663	3.43386
238.471	2.79791
240.278	3.39583
242.085	4.08051
243.891	3.48334
245.698	3.60125
247.503	3.53171
249.309	3.44316
251.116	3.39965
252.921	2.94107
254.725	2.07232
256.529	2.68159
258.333	2.41823
260.136	3.13915
261.939	3.23895
263.742	3.46907
265.544	3.04084
267.346	3.34201
269.148	3.724
270.949	5.11519
272.75	4.38853
274.55	6.18826
276.351	6.07201
278.15	6.18673
279.95	6.20706
281.749	6.14831
283.548	5.42965
285.346	4.69446
287.144	5.93051
288.942	7.17215
290.739	7.59581
292.536	7.93797
294.333	8.93683
296.129	9.44044
297.925	10.4555
299.721	10.6562
301.514	10.5234
303.309	11.1224
305.104	12.0396
306.898	11.9678
308.692	12.9135
310.486	13.0656
312.279	13.5435
314.072	13.3449
315.862	13.5768
317.654	13.7828
319.446	13.4999
321.238	13.6793
323.029	14.6813
324.819	14.97
326.608	15.4413
328.398	15.8074
330.188	16.7186
331.977	16.9094
333.766	16.4061
335.553	16.4522
337.341	16.5011
339.129	16.9342
340.917	16.8181
342.704	16.9326
344.489	17.4278
346.275	18.158
348.062	17.6134
349.845	17.7687
351.631	18.5195
353.416	18.5735
355.201	18.1141
356.984	17.7744
358.768	17.8783
360.552	17.7314
362.333	16.5633
364.116	15.9113
365.899	14.1528
367.68	13.7002
369.462	13.5054
371.243	13.7454
373.023	13.9367
374.804	14.6037
376.585	15.632
378.363	14.5103
380.143	14.1323
381.923	13.4534
383.7	12.8819
385.479	12.5816
387.256	12.2593
389.034	12.7406
390.812	12.3873
392.588	12.2397
394.365	11.7947
396.14	11.3587
397.916	11.3598
399.691	9.78049
401.467	9.02394
403.24	7.89062
405.015	7.87978
406.788	6.54141
408.563	6.65581
410.335	6.23661
412.109	6.52072
413.88	5.63934
415.654	5.41124
417.424	5.10893
419.197	4.46886
420.967	4.06465
422.739	3.94416
424.508	3.79321
426.279	4.5854
428.048	3.96926
429.819	4.16743
431.587	4.63997
433.356	4.37121
435.124	4.13299
436.891	4.2294
438.66	4.62843
440.426	4.85792
442.194	4.16335
443.96	4.4428
445.725	4.82473
447.492	4.65155
449.257	5.36749
451.021	6.16543
452.787	6.76498
454.551	7.75094
456.314	9.12396
458.079	10.8823
459.842	11.2474
461.604	11.7912
463.368	12.2699
465.13	12.8877
466.891	13.595
468.654	15.4282
470.415	16.1582
472.175	17.2672
473.935	18.1296
475.696	18.4015
477.456	18.8941
479.215	17.8827
480.973	17.9073
482.733	17.8015
484.491	17.7135
486.249	17.8405
488.006	16.7101
489.765	17.6725
491.522	17.1649
493.278	17.3448
495.034	17.4287
496.789	17.3439
498.544	16.7028
500.301	16.2924
502.056	16.1019
503.81	15.3689
505.564	15.9526
507.317	15.2747
509.071	15.5906
510.825	15.7666
512.578	14.8428
514.33	14.3741
516.082	14.0694
517.833	14.911
519.585	14.4715
521.335	14.3319
523.086	14.1558
524.836	14.4108
526.586	14.6158
528.335	15.316
530.085	14.7893
531.835	15.3527
533.584	14.9413
535.332	15.1407
537.08	16.04
538.827	16.1753
540.574	16.0026
542.321	15.7738
544.068	16.03
545.814	15.8322
547.56	15.5823
549.305	16.2854
551.05	16.0381
552.795	16.4624
554.54	16.3776
556.282	16.0473
558.025	15.2794
559.769	14.643
561.512	14.0964
563.255	13.6775
564.997	13.7326
566.739	13.2661
568.481	12.6363
570.223	12.1302
571.964	11.2303
573.705	10.4227
575.443	9.07046
577.183	8.85896
578.923	7.85059
580.663	8.04381
582.402	7.11906
584.141	7.16444
585.879	7.23625
587.615	7.38683
589.353	7.62919
591.09	7.50462
592.828	8.04733
594.564	6.97246
596.299	6.78624
598.035	6.53186
599.771	6.36763
601.506	7.08683
603.242	7.3026
604.974	7.33534
606.709	8.19714
608.443	8.46087
610.177	8.90695
611.908	9.58515
613.642	9.95145
615.374	9.44126
617.105	8.98438
618.837	9.85142
620.569	10.8553
622.3	11.3898
624.03	11.7705
625.761	12.0665
627.491	12.8749
629.219	13.7827
630.949	14.2343
632.677	14.9922
634.406	15.852
636.135	16.2302
637.861	16.75
639.59	17.8468
641.318	18.1826
643.043	19.0918
644.77	19.9045
646.495	20.7634
648.222	21.1204
649.948	21.4812
651.672	22.2334
653.398	23.2792
655.121	22.3175
656.846	22.7841
658.569	22.8536
660.293	23.6466
662.015	23.8072
663.738	24.7357
665.46	25.6191
667.183	25.4884
668.903	26.7364
670.626	29.5432
672.346	29.592
674.067	31.2046
675.787	31.1639
677.508	31.9763
679.226	31.3145
680.947	31.7294
682.665	31.3547
684.385	31.8566
686.102	31.9528
687.821	32.3365
689.538	33.2249
691.254	33.7082
692.972	34.6469
694.688	34.3699
696.406	34.1887
698.121	34.626
699.835	34.2466
701.552	34.2046
703.266	34.97
704.98	36.1882
706.695	37.6576
708.409	37.5068
710.121	38.1218
711.836	38.8453
713.548	39.9239
715.26	40.5833
716.973	41.2892
718.685	42.4555
720.396	43.5738
722.108	44.1686
723.818	45.5843
725.528	46.4717
727.238	47.2752
728.949	48.1648
730.658	48.9606
732.367	50.0624
734.075	51.0604
735.785	52.2331
737.493	53.4384
739.2	54.1569
740.907	53.8443
742.614	55.7708
744.322	57.4492
746.028	58.8458
747.734	60.1444
749.439	61.7215
751.144	63.7134
752.849	66.0805
754.555	68.4573
756.26	69.8691
757.963	70.6938
759.667	72.208
761.37	72.1763
763.073	72.9596
764.775	72.7976
766.477	73.8927
768.179	73.6603
769.883	75.5887
771.584	76.0799
773.285	77.4088
774.986	78.1585
776.686	78.6186
778.386	79.4287
780.085	80.2064
781.785	80.2804
783.484	81.6984
785.182	82.4043
786.881	83.8188
788.579	85.4558
790.276	86.9316
791.974	87.755
793.671	88.3379
795.367	89.5643
797.064	90.907
798.76	91.9537
800.456	92.7682
802.151	92.9776
803.846	93.3431
805.541	93.5063
807.234	93.3484
808.928	93.0046
810.622	92.3294
812.315	93.0312
814.008	93.0493
815.701	93.1805
817.394	92.1093
819.086	91.6647
820.778	90.5691
822.468	90.3152
824.159	89.6659
825.85	88.9898
827.541	89.2759
829.231	88.7339
830.921	87.8361
832.609	87.6384
834.298	85.3651
835.987	84.5226
837.676	83.0486
839.364	81.7889
841.051	80.4642
842.738	79.3389
844.426	78.0662
846.113	76.2715
847.798	74.5606
849.484	72.693
851.171	71.6199
852.857	69.9449
854.54	68.9509
856.226	67.2505
857.911	67.3385
859.593	66.5107
861.278	66.8255
862.961	66.165
864.645	65.6432
866.327	64.4746
868.01	64.944
869.692	65.5399
871.373	65.6777
873.055	65.3474
874.735	65.0057
876.416	65.1243
878.097	64.9874
879.776	65.1711
881.457	65.98
883.135	65.8171
884.815	65.5292
886.495	64.1813
888.172	64.0102
889.851	63.9742
891.528	64.1231
893.206	63.8503
894.882	64.7438
896.56	65.033
898.237	64.7118
899.912	63.6496
901.589	62.8278
903.263	62.3128
904.94	61.1628
906.614	61.225
908.289	60.0931
909.962	60.1777
911.635	59.7008
913.31	57.9328
914.982	57.1805
916.656	55.9201
918.328	54.5414
920.001	55.372
921.672	55.0539
923.345	55.6952
925.015	54.2437
926.685	54.0144
928.357	53.588
930.026	52.0423
931.698	51.4089
933.366	50.4085
935.035	50.5227
936.705	49.1966
938.373	48.7646
940.041	48.2905
941.71	47.2687
943.377	46.2564
945.044	46.2428
946.712	45.1684
948.378	45.8423
950.044	46.0394
951.709	46.3089
953.376	46.3086
955.041	45.072
956.706	44.4226
958.372	43.2137
960.036	43.3139
961.699	42.3369
963.362	42.3743
965.027	42.8387
966.69	42.4142
968.352	42.6991
970.014	42.9218
971.676	44.2597
973.339	45.4013
975	44.9254
976.661	45.5672
978.322	45.6976
979.982	44.8737
981.642	44.5745
983.303	43.0124
984.962	42.4268
986.621	41.641
988.28	41.0294
989.938	41.8511
991.596	41.5179
993.254	41.973
994.911	41.6522
996.57	41.058
998.227	41.4405
999.884	41.1003
1001.54	41.2326
1003.2	41.4009
1004.85	41.1809
1006.51	41.5145
1008.16	39.8914
1009.82	39.5073
1011.47	39.2153
1013.12	37.8911
1014.78	36.5367
1016.43	34.6735
1018.08	34.5562
1019.74	32.5308
1021.39	31.9022
1023.04	30.9353
1024.69	29.5845
1026.34	29.0012
1028	28.8364
1029.65	27.217
1031.3	27.2998
1032.95	25.7862
1034.6	24.4844
1036.25	22.86
1037.9	21.7483
1039.54	21.2071
1041.19	20.0681
1042.84	20.2475
1044.49	19.8782
1046.14	20.4312
1047.78	20.9806
1049.43	20.4981
1051.08	20.4959
1052.72	20.9639
1054.37	20.7626
1056.02	20.2248
1057.66	19.6401
1059.31	19.7908
1060.95	19.2513
1062.6	19.0256
1064.24	18.9422
1065.88	19.6197
1067.53	19.7287
1069.17	19.0778
1070.81	19.4551
1072.45	20.3779
1074.1	20.9823
1075.74	20.2268
1077.38	19.4329
1079.02	18.3751
1080.66	18.4057
1082.3	17.6339
1083.94	17.973
1085.58	18.015
1087.22	18.0475
1088.86	17.7979
1090.5	16.409
1092.14	16.5414
1093.78	16.3041
1095.42	16.4986
1097.05	15.7571
1098.69	16.5103
1100.33	17.7447
1101.96	17.0403
1103.6	17.9593
1105.24	17.2878
1106.87	15.9782
1108.51	16.5219
1110.14	16.5965
1111.78	16.0072
1113.41	16.5109
1115.05	15.5213
1116.68	14.2918
1118.31	13.608
1119.95	13.0946
1121.58	12.6842
1123.21	12.3847
1124.85	12.0707
1126.48	11.4143
1128.11	11.3726
1129.74	11.3451
1131.37	10.4962
1133	10.6564
1134.63	10.7166
1136.26	9.62265
1137.89	9.21033
1139.52	9.59795
1141.15	8.93719
1142.78	8.07147
1144.41	7.66869
1146.04	7.93015
1147.66	8.68202
1149.29	8.07092
1150.92	7.60138
1152.55	7.9514
1154.17	7.45252
1155.8	7.02555
1157.43	5.26131
1159.05	5.7958
1160.68	5.56738
1162.3	5.31253
1163.93	5.15013
1165.55	5.88741
1167.17	6.34937
1168.8	6.10435
1170.42	6.84632
1172.05	6.71205
1173.67	8.15617
1175.29	9.49726
1176.91	10.3648
1178.54	10.5636
1180.16	12.4591
1181.78	13.2342
1183.4	13.3218
1185.02	14.0899
1186.64	13.0513
1188.26	12.6378
1189.88	13.639
1191.5	12.8572
1193.12	13.6111
1194.74	14.7448
1196.36	15.1541
1197.97	15.4055
1199.59	15.5529
1201.21	16.1805
1202.83	17.4514
1204.44	17.7863
1206.06	18.5388
1207.68	18.9421
1209.29	20.0219
1210.91	20.0989
1212.52	21.0552
1214.14	22.5958
1215.75	23.4765
1217.37	23.4941
1218.98	25.0603
1220.59	25.7272
1222.21	26.377
1223.82	27.6873
1225.43	29.5137
1227.05	30.8085
1228.66	31.5978
1230.27	31.6301
1231.88	32.2269
1233.49	32.8349
1235.1	33.2749
1236.72	32.5167
1238.33	32.6116
1239.94	34.4218
1241.55	33.9694
1243.16	34.6503
1244.76	36.1958
1246.37	36.2367
1247.98	36.5692
1249.59	36.6978
1251.2	37.0485
1252.8	36.6623
1254.41	37.9677
1256.02	37.782
1257.62	37.8273
1259.23	38.0779
1260.84	37.7232
1262.44	36.7991
1264.05	36.4755
1265.66	36.6432
1267.26	36.1494
1268.86	36.429
1270.47	36.8956
1272.07	37.3928
1273.67	37.9194
1275.28	37.5103
1276.88	36.6415
1278.48	36.469
1280.09	37.1185
1281.69	37.1581
1283.29	37.5345
1284.89	37.9144
1286.49	38.9401
1288.09	38.2347
1289.69	38.9612
1291.29	39.8489
1292.89	40.1721
1294.49	40.1162
1296.09	39.6534
1297.69	39.5861
1299.29	40.6841
1300.89	40.856
1302.49	42.1668
1304.08	42.4362
1305.68	43.5583
1307.28	44.904
1308.88	46.0943
1310.47	46.6313
1312.07	47.3266
1313.66	47.587
1315.26	47.6321
1316.85	47.4908
1318.45	48.6349
1320.04	49.7477
1321.64	49.0488
1323.23	49.6065
1324.83	50.217
1326.42	49.6992
1328.01	49.7983
1329.61	49.1078
1331.2	48.6537
1332.79	49.1394
1334.38	49.5226
1335.97	49.898
1337.56	50.542
1339.16	50.8381
1340.75	50.2374
1342.34	50.2309
1343.93	50.0832
1345.52	49.1821
1347.11	48.5562
1348.7	48.5261
1350.29	48.0839
1351.87	47.7131
1353.46	46.3393
1355.05	45.4796
1356.64	45.3063
1358.22	45.0665
1359.81	44.2955
1361.4	42.8147
1362.98	42.2437
1364.57	41.7862
1366.16	40.1022
1367.74	38.4943
1369.33	38.1217
1370.91	36.8339
1372.5	34.9658
1374.08	34.9145
1375.67	34.1969
1377.25	33.5258
1378.83	33.2859
1380.41	33.35
1382	32.9084
1383.58	32.2711
1385.16	31.7514
1386.74	30.9532
1388.33	29.9931
1389.91	29.2397
1391.49	28.3856
1393.07	27.8015
1394.65	26.7342
1396.23	26.2827
1397.81	25.5965
1399.39	25.2111
1400.97	25.5586
1402.55	25.4768
1404.13	25.057
1405.7	24.8141
1407.28	24.9364
1408.86	25.505
1410.44	26.9855
1412.01	28.3121
1413.59	29.1443
1415.17	30.5702
1416.74	31.0352
1418.32	32.2138
1419.89	32.2855
1421.47	33.5431
1423.04	34.3079
1424.62	35.8057
1426.19	37.8672
1427.77	39.1496
1429.34	40.1481
1430.91	42.2745
1432.49	43.1335
1434.06	44.4742
1435.63	45.8557
1437.2	47.0491
1438.78	47.4283
1440.35	48.8447
1441.92	50.2099
1443.49	51.0551
1445.06	50.4666
1446.63	51.434
1448.2	51.4756
1449.77	51.5619
1451.34	52.3183
1452.91	52.6293
1454.48	51.5245
1456.05	51.4735
1457.62	51.6114
1459.18	51.0474
1460.75	49.7334
1462.32	48.8955
1463.89	47.9094
1465.45	46.4532
1467.02	44.7747
1468.59	43.4845
1470.15	41.8156
1471.72	39.6084
1473.28	37.7622
1474.85	35.9926
1476.41	34.0241
1477.98	32.902
1479.54	31.7174
1481.1	28.8381
1482.67	27.3042
1484.23	26.0983
1485.79	24.9765
1487.36	23.7583
1488.92	22.2734
1490.48	20.4241
1492.04	18.9633
1493.61	17.7945
1495.17	16.5193
1496.73	15.1979
1498.29	13.4615
1499.85	12.8371
1501.41	12.373
1502.97	12.5617
1504.53	12.2206
1506.09	11.6626
1507.65	12.052
1509.2	12.3738
1510.76	11.4885
1512.32	11.4158
1513.88	11.9609
1515.43	12.5228
1516.99	12.2317
1518.55	12.9835
1520.1	13.2406
1521.66	13.5353
1523.22	14.6434
1524.77	16.1068
1526.33	16.1079
1527.88	16.957
1529.44	17.4524
1530.99	17.3725
1532.54	17.7794
1534.1	19.1313
1535.65	19.0842
1537.21	19.0332
1538.76	19.8162
1540.31	20.7011
1541.86	21.6271
1543.42	22.5076
1544.97	23.7234
1546.52	25.3659
1548.07	26.3214
1549.62	26.566
1551.17	27.5951
1552.72	28.9495
1554.27	29.9166
1555.82	31.3926
1557.37	33.2328
1558.92	34.1174
1560.47	35.5293
1562.02	36.7389
1563.56	38.4137
1565.11	39.251
1566.66	40.4099
1568.21	41.0614
1569.75	42.0184
1571.3	43.1197
1572.85	44.7404
1574.39	46.1408
1575.94	47.3547
1577.49	49.2949
1579.03	49.3692
1580.57	50.504
1582.12	50.8551
1583.66	51.636
1585.21	53.4515
1586.75	54.1033
1588.3	54.4851
1589.84	55.4545
1591.38	56.5848
1592.92	56.8171
1594.47	56.1097
1596.01	56.2231
1597.55	56.5529
1599.09	55.8364
1600.63	54.9033
1602.17	53.8615
1603.71	52.4924
1605.25	52.4796
1606.79	51.6822
1608.33	51.4893
1609.87	50.4841
1611.41	50.0949
1612.95	48.8389
1614.49	48.8553
1616.03	48.8613
1617.57	47.8488
1619.1	47.2793
1620.64	47.2929
1622.18	46.4781
1623.72	46.1444
1625.25	45.6354
1626.79	45.9348
1628.32	46.5548
1629.86	47.6101
1631.39	47.5751
1632.93	48.1611
1634.46	48.6361
1636	48.0935
1637.53	48.4583
1639.07	48.7766
1640.6	49.2974
1642.13	49.0541
1643.67	49.992
1645.2	49.7253
1646.73	49.6157
1648.26	49.3707
1649.8	49.8172
1651.33	49.6285
1652.86	49.2866
1654.39	49.1295
1655.92	49.3356
1657.45	50.2919
1658.98	50.2612
1660.51	50.1517
1662.04	50.3429
1663.57	49.2282
1665.1	48.9182
1666.63	47.9952
1668.16	46.1542
1669.68	44.4398
1671.21	42.7977
1672.74	41.3075
1674.27	40.1063
1675.79	38.4178
1677.32	36.3407
1678.85	34.9105
1680.37	33.8094
1681.9	32.6381
1683.42	30.8408
1684.95	29.6709
1686.47	27.898
1688	25.9592
1689.52	24.2886
1691.05	23.7617
1692.57	21.932
1694.09	20.3657
1695.62	20.4606
1697.14	19.8282
1698.66	18.5266
1700.18	17.735
1701.71	17.2651
1703.23	16.7835
1704.75	16.2558
1706.27	14.882
1707.79	14.0618
1709.31	13.6914
1710.83	13.3597
1712.35	12.7845
1713.87	12.6483
1715.39	12.1068
1716.91	11.7708
1718.43	11.3486
1719.95	11.4549
1721.47	10.8507
1722.99	10.5859
1724.5	10.7066
1726.02	11.8687
1727.54	11.406
1729.06	11.4999
1730.57	10.931
1732.09	11.0932
1733.61	10.6899
1735.12	10.629
1736.64	9.98002
1738.15	9.69998
1739.67	8.81597
1741.18	8.72627
1742.7	8.01212
1744.21	7.70654
1745.72	7.16114
1747.24	6.65783
1748.75	6.03074
1750.26	5.9496
1751.77	5.96382
1753.29	5.56122
1754.8	6.05009
1756.31	6.42665
1757.82	5.98292
1759.33	5.97882
1760.84	5.92678
1762.36	5.89997
1763.87	5.69332
1765.38	6.35488
1766.89	6.84089
1768.4	5.90726
1769.91	6.10339
1771.41	6.63059
1772.92	5.86075
1774.43	5.64191
1775.94	5.78457
1777.45	5.91334
1778.95	6.06021
1780.46	6.15924
1781.97	6.10432
1783.48	6.6535
1784.98	7.08472
1786.49	7.62095
1787.99	7.34027
1789.5	7.53237
1791.01	7.16185
1792.51	6.9896
1794.01	6.97651
1795.52	6.89719
1797.02	6.75695
1798.53	6.32012
1800.03	5.81652
1801.53	5.85108
1803.04	4.91487
1804.54	4.48916
1806.04	3.87616
1807.54	4.18159
1809.05	4.56227
1810.55	4.22896
1812.05	4.0318
1813.55	3.82258
1815.05	4.02962
1816.55	4.05159
1818.05	4.0129
1819.55	3.96563
1821.05	3.60775
1822.55	3.699
1824.05	3.07556
1825.55	2.69502
1827.05	2.99395
1828.55	2.72335
1830.04	2.60374
1831.54	2.05233
1833.04	1.43136
1834.54	1.41432
1836.03	1.34908
1837.53	1.70912
1839.03	1.33486
1840.52	1.17701
1842.02	1.09177
1843.51	0.998248
1845.01	1.25562
1846.5	0.964867
1848	0.852199
1849.49	0.500771
1850.99	0.575868
1852.48	0.450465
1853.97	0.74532
1855.47	0.819231
1856.96	1.17754
1858.45	0.832414
1859.94	0.916099
1861.44	0.384065
1862.93	-0.0226832
1864.42	0.472963
1865.91	0.368935
1867.4	-0.0937514
1868.89	-0.0311988
1870.38	-0.120213
1871.87	-0.399503
1873.36	-0.483595
1874.85	-0.797727
1876.34	-0.858828
1877.83	-0.352015
1879.32	0.0715168
1880.81	0.450763
1882.3	0.905745
1882.57	1.1621
1884.07	1.40923
1885.56	1.88611
1887.06	1.86212
1888.55	2.6677
1890.04	2.78867
1891.54	3.04744
1893.03	3.40821
1894.52	3.28303
1896.02	4.232
1897.51	4.5941
1899	4.83345
1900.49	5.18452
1901.98	4.79803
1903.47	4.47907
1904.96	4.32272
1906.45	4.90067
1907.94	5.47812
1909.43	5.63928
1910.92	6.01414
1912.41	5.86835
1913.9	6.20798
1915.39	5.67713
1916.88	5.65708
1918.37	5.43586
1919.85	5.26803
1921.34	5.44191
1922.83	5.15002
1924.32	5.59177
1925.8	5.94892
1927.29	6.15994
1928.78	5.55507
1930.26	5.43666
1931.75	4.89029
1933.23	4.73508
1934.72	5.15009
1936.2	5.32134
1937.69	4.82247
1939.17	4.01856
1940.66	3.18757
1942.14	2.78953
1943.63	2.52739
1945.11	2.35383
1946.59	3.16434
1948.07	3.48652
1949.56	3.56379
1951.04	4.66508
1952.52	4.38516
1954	4.88073
1955.48	4.90991
1956.96	5.04667
1958.45	5.12693
1959.93	5.28111
1961.41	5.12938
1962.89	5.61961
1964.37	5.27155
1965.85	5.45054
1967.32	5.72559
1968.8	5.06802
1970.28	5.31004
1971.76	4.98288
1973.24	4.50844
1974.72	4.37356
1976.19	4.32851
1977.67	4.48482
1979.15	4.54218
1980.63	4.58955
1982.1	4.75873
1983.58	4.90631
1985.05	4.92641
1986.53	4.94222
1988	4.96235
1989.48	4.2873
1990.95	5.09206
1992.43	5.32165
1993.9	5.16735
1995.38	5.44284
1996.85	5.33137
1998.32	5.29777
1999.8	5.72065
2001.27	5.66406
2002.74	5.44852
2004.22	5.89055
2005.69	5.89781
2007.16	5.88471
2008.63	6.47881
2010.1	6.09053
2011.57	5.97364
2013.04	6.02386
2014.51	6.24692
2015.98	6.68473
2017.45	6.75085
2018.92	6.95232
2020.39	7.68409
2021.86	7.62377
2023.33	7.83185
2024.8	8.32852
2026.27	7.5536
2027.74	7.12241
2029.2	6.42209
2030.67	6.78566
2032.14	7.0536
2033.61	6.78696
2035.07	6.65743
2036.54	6.98078
2038.01	6.77223
2039.47	6.79142
2040.94	6.85529
2042.4	6.42266
2043.87	6.92253
2045.33	6.85378
2046.8	6.45472
2048.26	6.08871
2049.72	6.73019
2051.19	6.74557
2052.65	6.87797
2054.12	7.31026
2055.58	8.04098
2057.04	8.01116
2058.5	7.89896
2059.97	8.6862
2061.43	8.54548
2062.89	8.36512
2064.35	9.01219
2065.81	9.23258
2067.27	9.3862
2068.73	9.55516
2070.19	10.0454
2071.65	10.3525
2073.11	10.6588
2074.57	10.8363
2076.03	10.1459
2077.49	10.4354
2078.95	10.5441
2080.41	10.728
2081.87	11.1184
2083.32	10.7394
2084.78	10.3368
2086.24	10.4175
2087.7	10.2288
2089.15	10.4802
2090.61	10.1041
2092.07	10.631
2093.52	10.926
2094.98	10.8794
2096.43	10.5424
2097.89	10.0888
2099.34	10.3195
2100.8	10.441
2102.25	10.8147
2103.71	11.0712
2105.16	10.6333
2106.61	10.4601
2108.07	10.5103
2109.52	10.3113
2110.97	10.4898
2112.43	10.2553
2113.88	10.5448
2115.33	10.9622
2116.78	11.4524
2118.23	12.118
2119.68	12.9365
2121.13	13.428
2122.59	14.0318
2124.04	13.7003
2125.49	13.9496
