#Acq. time (s)=	45
#Accumulations=	2
#Range (cm-¹)=	200...3150
#Windows=	2
#Auto scanning=	Off
#Autofocus=	Off
#Macrospot=	Off
#AutoExposure=	Off
#Spike filter=	Multiple accum.
#Delay time (s)=	0
#Binning=	1
#Readout mode=	Signal
#DeNoise=	Off
#ICS correction=	On
#Dark correction=	Off
#Inst. Process=	Off
#Detector Gain=	Best Dynamic Range
#Detector ADC=	20 kHz       
#Detector temperature (°C)=	-69.85
#Instrument=	LabRAM HR Evol
#Detector=	Synapse
#Objective=	x100
#Grating=	600 gr/mm
#ND Filter=	100%
#Laser (nm)=	532 
#Hole=	100.021
#Range=	Auto
#Laser Pol.=	No
#Raman. Pol.=	No
#Laser Pol. (°)=	-0.0007625
#Raman Pol. (°)=	89.9995
#Collection=	Microscope
#StageXY=	Marzhauser
#StageZ=	Marzhauser
#X (µm)=	-5133.5
#Y (µm)=	1487.6
#Z (µm)=	62.75
#Full time(mm:ss)=	3:18
#Project=	
#Sample=	
#Site=	
#Title=	Thy_50_12_21_2x_45s_532 nm_x100_100%_600 gr_mm
#Remark=	
#Date=	07.07.2022 10:46
#Acquired=	07.07.2022 10:46:46
#Base:Fit=	10.08.2022 10:04:29
#Base:Sub=	10.08.2022 10:04:45
#Filter:Polynom=	16.08.2022 10:20:24
#AxisType[0]=Intens
#AxisUnit[0]=Cnt
#AxisType[1]=Spectr
#AxisUnit[1]=1/cm
200.43	49.9814
202.246	47.5007
204.061	44.216
205.875	43.1438
207.688	41.0127
209.501	38.2473
211.316	35.4718
213.129	33.3495
214.941	30.596
216.753	27.5532
218.566	25.6667
220.377	22.9924
222.188	20.7637
223.999	19.1404
225.809	18.2616
227.618	16.1312
229.43	14.9843
231.239	13.1415
233.047	12.6141
234.855	11.416
236.663	10.0454
238.471	8.02727
240.278	7.93244
242.087	8.0203
243.894	8.36973
245.7	7.74438
247.506	7.0336
249.311	6.11978
251.116	5.61862
252.921	6.324
254.725	6.94029
256.529	6.73567
258.333	6.10201
260.136	6.7405
261.939	6.41839
263.744	7.37826
265.546	7.40355
267.348	7.42945
269.15	7.10501
270.951	6.71351
272.752	5.94804
274.552	6.81489
276.353	7.583
278.152	8.02734
279.952	7.9955
281.751	9.77411
283.55	9.97003
285.348	10.4338
287.146	11.944
288.942	13.0191
290.739	12.5965
292.536	12.804
294.333	12.5994
296.129	11.3054
297.925	12.0336
299.721	13.4295
301.516	13.4367
303.311	14.0882
305.106	13.9224
306.9	13.807
308.694	14.4183
310.486	15.4049
312.279	15.69
314.072	15.5364
315.864	15.3801
317.656	15.5046
319.448	15.7798
321.24	15.4335
323.029	15.0454
324.819	14.8662
326.61	15.0537
328.4	15.4141
330.19	14.8937
331.977	13.179
333.766	13.0176
335.555	11.8408
337.343	11.2224
339.131	10.6423
340.917	12.1006
342.704	12.6614
344.491	13.3582
346.277	14.2014
348.062	15.2934
349.848	16.8872
351.633	17.9645
353.416	19.8581
355.201	19.4273
356.986	19.8376
358.77	20.149
360.552	21.5609
362.335	22.58
364.118	22.9056
365.899	23.041
367.682	22.9865
369.464	24.3984
371.243	24.5995
373.025	23.9357
374.806	23.6147
376.585	24.4731
378.365	23.6223
380.143	23.1494
381.923	23.5209
383.702	23.1085
385.479	23.2609
387.258	23.6841
389.034	23.144
390.812	22.8756
392.59	23.1054
394.365	21.3933
396.142	20.1199
397.916	19.1219
399.693	18.1171
401.467	15.458
403.242	14.2588
405.015	13.7814
406.79	12.5217
408.565	10.0055
410.337	8.88572
412.111	7.60685
413.882	6.27549
415.656	4.42219
417.426	3.11164
419.197	0.419417
420.969	0.522313
422.739	1.56067
424.51	1.8909
426.279	3.11199
428.05	4.4223
429.819	6.41354
431.589	6.20622
433.356	7.62955
435.124	8.09137
436.893	7.99157
438.66	8.00341
440.428	8.66201
442.194	8.99368
443.96	7.88355
445.727	9.07403
447.492	8.62849
449.259	8.90202
451.023	8.26821
452.787	8.40398
454.553	8.08734
456.316	7.80635
458.079	8.45263
459.844	8.18162
461.606	8.87062
463.368	9.04158
465.132	9.50922
466.893	10.7181
468.654	11.1133
470.415	11.5594
472.177	11.5916
473.937	12.7358
475.696	12.9654
477.456	13.9896
479.217	15.3248
480.975	14.7878
482.733	14.5733
484.491	16.2138
486.251	16.2431
488.008	17.3958
489.765	17.8109
491.522	19.3619
493.278	19.9946
495.036	20.3524
496.791	21.034
498.546	22.4358
500.301	22.1424
502.056	21.9274
503.81	22.5779
505.566	23.5389
507.319	24.3121
509.073	25.636
510.825	26.879
512.578	28.3853
514.33	28.7606
516.082	28.7746
517.833	29.2304
519.587	29.1492
521.337	29.0471
523.088	29.0462
524.838	29.4115
526.588	30.3385
528.337	31.1389
530.087	31.0076
531.835	30.3856
533.584	31.0271
535.332	29.695
537.08	29.6761
538.827	28.2782
540.574	27.8698
542.321	26.2867
544.068	26.6576
545.814	26.9825
547.56	26.4903
549.305	25.5189
551.05	25.0081
552.795	24.9928
554.54	25.3201
556.284	24.0129
558.027	24.4422
559.771	23.7562
561.514	23.5988
563.257	22.3712
564.999	22.2767
566.742	20.9872
568.481	18.9067
570.223	18.5355
571.964	17.9714
573.705	15.9692
575.445	14.6059
577.185	14.0202
578.925	13.9663
580.665	12.92
582.402	11.7857
584.141	10.332
585.879	9.89393
587.617	9.87191
589.355	8.79742
591.092	8.99811
592.828	9.46655
594.564	9.27514
596.301	8.5963
598.037	8.75794
599.773	8.1669
601.506	7.85753
603.242	7.72843
604.976	7.59456
606.711	7.90903
608.443	8.01021
610.177	9.17462
611.91	9.96996
613.644	10.1109
615.374	10.1241
617.107	10.9239
618.839	10.7653
620.569	11.9904
622.3	11.5388
624.032	12.3696
625.761	12.9544
627.491	14.3658
629.221	15.6358
630.949	17.3221
632.679	18.2091
634.408	19.2518
636.135	20.21
637.863	21.2275
639.592	22.2294
641.318	22.4622
643.045	22.485
644.77	23.0086
646.497	22.8885
648.224	23.9408
649.948	24.1895
651.674	24.084
653.398	23.6562
655.123	23.7823
656.846	25.1494
658.57	25.6791
660.293	25.5911
662.017	25.6106
663.738	26.8887
665.462	26.1225
667.185	25.9213
668.905	25.4766
670.628	26.1056
672.348	27.4731
674.067	27.638
675.789	28.0125
677.508	29.4651
679.228	30.6834
680.947	31.3391
682.667	31.8413
684.385	32.8422
686.104	33.0946
687.821	35.1508
689.538	35.7397
691.256	37.1319
692.972	38.5403
694.69	39.9472
696.406	41.6554
698.121	43.394
699.837	44.0783
701.552	45.2612
703.268	46.1089
704.982	46.3614
706.695	48.6658
708.41	49.4177
710.123	51.0801
711.836	51.9043
713.55	52.2176
715.262	52.9385
716.973	53.8195
718.685	54.2685
720.398	55.6861
722.108	55.9163
723.818	56.5807
725.53	57.1574
727.24	57.9163
728.949	58.749
730.658	60.7063
732.369	61.5638
734.077	62.3712
735.785	61.7374
737.493	63.5689
739.2	64.5509
740.909	65.4491
742.616	66.4558
744.322	66.7179
746.028	67.4784
747.734	68.1144
749.441	68.9286
751.146	70.2586
752.851	72.5409
754.555	74.3231
756.26	76.0767
757.963	78.0914
759.667	79.9497
761.372	82.1946
763.075	82.9847
764.777	85.0724
766.479	85.2443
768.181	86.0997
769.883	87.3905
771.584	87.5282
773.285	89.6283
774.986	89.3081
776.686	90.4097
778.386	91.4585
780.085	91.3968
781.785	91.0843
783.484	90.9196
785.182	91.4659
786.881	91.5182
788.579	90.5162
790.276	90.8608
791.974	91.3034
793.671	91.8563
795.367	91.8449
797.064	91.2372
798.76	90.724
800.456	91.3227
802.151	91.4806
803.846	91.1356
805.541	90.3124
807.236	89.4516
808.93	89.2995
810.624	88.4602
812.317	87.882
814.01	88.0176
815.703	88.3866
817.394	87.3466
819.086	86.9833
820.778	86.371
822.47	86.7798
824.161	85.6606
825.852	84.872
827.543	84.0142
829.231	82.9318
830.921	81.3206
832.611	79.9511
834.3	79.645
835.989	79.482
837.676	78.2075
839.364	77.2008
841.053	76.6891
842.74	76.3239
844.426	75.6502
846.113	74.4787
847.8	73.1349
849.486	72.4068
851.171	70.4981
852.857	71.0383
854.542	70.7514
856.227	70.7535
857.911	70.5464
859.595	69.4642
861.279	69.2628
862.961	69.461
864.645	68.3912
866.329	68.7154
868.01	68.8384
869.692	68.5616
871.375	67.1695
873.055	66.4982
874.737	67.5829
876.418	68.6266
878.097	68.906
879.778	68.5493
881.457	66.9477
883.137	66.0446
884.817	66.4952
886.495	65.3703
888.174	64.4876
889.851	63.419
891.53	62.5517
893.206	62.2303
894.884	61.1407
896.562	60.6557
898.237	60.0289
899.914	58.8027
901.589	57.5615
903.265	56.9785
904.94	55.6675
906.615	54.1659
908.289	52.3322
909.964	49.8992
911.637	48.0557
913.31	46.2738
914.984	44.4591
916.656	44.6654
918.33	44.6378
920.001	42.7583
921.674	40.9974
923.345	39.9802
925.015	38.4906
926.687	37.4843
928.357	36.5571
930.028	35.2219
931.698	34.435
933.366	33.6269
935.037	33.6709
936.705	33.9334
938.373	32.7742
940.043	32.0765
941.71	30.0477
943.379	30.0057
945.046	29.3922
946.712	29.1831
948.378	29.1152
950.046	29.0894
951.711	29.7494
953.376	29.9385
955.043	30.3246
956.708	31.0621
958.372	30.8954
960.036	31.7563
961.701	31.1746
963.364	31.6827
965.027	31.6212
966.69	32.4852
968.354	33.8426
970.016	32.7685
971.678	33.5175
973.339	33.726
975	33.6068
976.661	34.7324
978.324	34.37
979.984	34.8483
981.644	35.3098
983.303	35.0005
984.962	35.2769
986.621	34.8906
988.282	34.8009
989.94	34.4088
991.598	34.9079
993.256	34.7582
994.913	35.067
996.57	34.9531
998.227	35.1939
999.884	35.7846
1001.54	35.0852
1003.2	34.1214
1004.85	34.037
1006.51	34.0573
1008.16	34.2645
1009.82	35.171
1011.47	35.3478
1013.12	35.178
1014.78	35.4225
1016.43	36.1332
1018.08	37.2905
1019.74	37.2761
1021.39	37.5257
1023.04	36.826
1024.69	36.1451
1026.34	36.9642
1028	37.3402
1029.65	37.3891
1031.3	37.8543
1032.95	38.019
1034.6	37.8996
1036.25	37.1407
1037.9	36.624
1039.55	36.4173
1041.19	36.165
1042.84	36.4728
1044.49	35.7315
1046.14	36.2299
1047.79	35.2663
1049.43	34.3099
1051.08	33.3434
1052.73	32.0027
1054.37	31.3259
1056.02	30.7023
1057.66	30.0477
1059.31	28.7442
1060.95	27.8471
1062.6	27.0289
1064.24	25.9103
1065.88	25.1039
1067.53	25.0464
1069.17	24.1123
1070.81	24.035
1072.46	22.8668
1074.1	23.303
1075.74	21.9648
1077.38	22.4496
1079.02	21.6665
1080.66	21.1876
1082.3	21.0529
1083.94	20.7971
1085.58	20.2924
1087.22	19.4866
1088.86	19.3748
1090.5	19.0666
1092.14	18.9429
1093.78	18.6989
1095.42	17.7816
1097.05	17.9089
1098.69	17.7557
1100.33	17.0199
1101.97	16.1338
1103.6	14.7086
1105.24	13.5989
1106.87	12.898
1108.51	12.9719
1110.15	11.9294
1111.78	11.0844
1113.41	10.6227
1115.05	10.5915
1116.68	9.57977
1118.31	8.59415
1119.95	7.10248
1121.58	6.80048
1123.21	5.89708
1124.85	5.37718
1126.48	5.80032
1128.11	4.91928
1129.74	4.65319
1131.37	4.17443
1133	3.49512
1134.63	4.31005
1136.26	3.21121
1137.89	3.22168
1139.52	2.46986
1141.15	1.34703
1142.78	1.94874
1144.41	2.13188
1146.04	1.90556
1147.66	2.15363
1149.29	1.23912
1150.92	2.24292
1152.55	3.02656
1154.17	3.86197
1155.8	4.20346
1157.43	3.44491
1159.05	4.878
1160.68	5.27666
1162.3	4.59224
1163.93	4.70688
1165.55	3.99415
1167.17	3.95515
1168.8	4.29181
1170.42	4.90031
1172.05	4.3766
1173.67	5.26017
1175.29	4.95878
1176.91	4.59768
1178.54	3.76756
1180.16	2.65994
1181.78	2.55275
1183.4	1.65068
1185.02	1.73864
1186.64	2.35168
1188.26	2.15861
1189.88	2.4025
1191.5	2.66259
1193.12	3.56283
1194.74	3.72986
1196.36	4.40012
1197.97	4.11479
1199.59	4.68684
1201.21	6.04146
1202.83	7.03369
1204.44	7.4402
1206.06	8.47933
1207.68	9.61916
1209.29	10.5464
1210.91	12.9225
1212.52	12.7918
1214.14	14.8807
1215.75	16.8145
1217.37	17.3723
1218.98	19.8677
1220.6	20.9308
1222.21	22.9836
1223.82	25.4055
1225.44	27.3744
1227.05	29.0735
1228.66	31.0807
1230.27	32.1738
1231.88	34.9427
1233.49	36.5157
1235.1	38.1511
1236.72	39.4868
1238.33	41.2923
1239.94	43.7577
1241.55	45.1082
1243.16	45.8346
1244.76	48.343
1246.37	49.2293
1247.98	50.4269
1249.59	52.0488
1251.2	52.6573
1252.8	52.4491
1254.41	53.9169
1256.02	54.4554
1257.63	54.1992
1259.23	54.7029
1260.84	56.3457
1262.44	59.1717
1264.05	60.2677
1265.66	62.1637
1267.26	62.5954
1268.87	62.8806
1270.47	64.3055
1272.07	65.6842
1273.68	66.4141
1275.28	67.3615
1276.88	68.5586
1278.48	69.085
1280.09	70.3134
1281.69	71.5515
1283.29	73.1796
1284.89	73.9509
1286.49	75.4424
1288.09	77.7506
1289.69	80.2088
1291.3	81.9041
1292.9	83.1279
1294.49	84.5631
1296.09	84.514
1297.69	84.2165
1299.29	83.6554
1300.89	83.8673
1302.49	84.8655
1304.09	85.3367
1305.68	85.6947
1307.28	85.5882
1308.88	84.8917
1310.47	84.9184
1312.07	86.5622
1313.66	86.5848
1315.26	86.9216
1316.86	86.2397
1318.45	85.5797
1320.05	85.2224
1321.64	84.9372
1323.23	83.5905
1324.83	82.8771
1326.42	80.8645
1328.01	79.7892
1329.61	79.2134
1331.2	76.5526
1332.79	74.9725
1334.38	74.6481
1335.98	72.7949
1337.57	70.9217
1339.16	70.4575
1340.75	69.9887
1342.34	69.1093
1343.93	66.6692
1345.52	64.8126
1347.11	62.7416
1348.7	62.2198
1350.29	61.2655
1351.87	59.221
1353.46	58.6191
1355.05	57.5753
1356.64	56.4476
1358.23	55.0791
1359.81	54.619
1361.4	54.172
1362.99	53.5483
1364.57	51.4024
1366.16	51.8721
1367.74	51.8453
1369.33	51.3314
1370.91	49.8702
1372.5	48.6212
1374.08	46.8614
1375.67	45.9257
1377.25	45.2166
1378.83	45.3133
1380.42	46.0907
1382	45.7032
1383.58	45.4125
1385.16	44.6241
1386.75	43.8227
1388.33	43.115
1389.91	43.177
1391.49	43.1288
1393.07	41.3292
1394.65	40.9826
1396.23	39.7122
1397.81	39.6971
1399.39	40.043
1400.97	39.6226
1402.55	38.8477
1404.13	39.6647
1405.7	39.9254
1407.28	40.5187
1408.86	41.2972
1410.44	41.791
1412.01	43.599
1413.59	45.6316
1415.17	46.4758
1416.74	48.1344
1418.32	49.9382
1419.89	52.3317
1421.47	54.38
1423.05	56.2457
1424.62	58.1044
1426.19	61.1481
1427.77	64.2501
1429.34	66.6582
1430.92	70.0963
1432.49	73.0008
1434.06	74.6978
1435.63	76.5803
1437.2	78.9481
1438.78	80.4225
1440.35	81.9035
1441.92	83.5627
1443.49	84.8799
1445.06	86.6661
1446.63	87.7804
1448.2	88.6304
1449.77	88.0976
1451.34	88.3546
1452.91	88.1374
1454.48	87.7371
1456.05	86.9846
1457.62	85.6021
1459.18	84.1548
1460.75	82.1919
1462.32	80.1577
1463.89	77.2513
1465.45	75.4461
1467.02	73.5077
1468.59	71.3529
1470.15	68.7853
1471.72	65.8232
1473.28	63.1875
1474.85	59.6443
1476.41	56.8935
1477.98	53.646
1479.54	49.7933
1481.11	47.4325
1482.67	44.4293
1484.23	41.7928
1485.8	39.6097
1487.36	37.3107
1488.92	35.1178
1490.48	33.4614
1492.05	31.8803
1493.61	29.9514
1495.17	29.4354
1496.73	28.2109
1498.29	27.4563
1499.85	26.8363
1501.41	26.424
1502.97	25.7092
1504.53	25.6667
1506.09	25.5959
1507.65	25.2592
1509.2	24.552
1510.76	23.7523
1512.32	23.7054
1513.88	23.7982
1515.44	24.2185
1516.99	24.2987
1518.55	24.8679
1520.1	25.6111
1521.66	26.2711
1523.22	26.7215
1524.77	27.5191
1526.33	28.5815
1527.88	28.9122
1529.44	29.5272
1530.99	30.4022
1532.55	30.7341
1534.1	31.7405
1535.65	33.4902
1537.21	35.0172
1538.76	36.8614
1540.31	38.7662
1541.86	40.8938
1543.42	43.7992
1544.97	45.6397
1546.52	47.0447
1548.07	48.4034
1549.62	50.8356
1551.17	52.8735
1552.72	55.1921
1554.27	57.4676
1555.82	58.0717
1557.37	59.6998
1558.92	62.2478
1560.47	64.0719
1562.02	66.1922
1563.57	67.9651
1565.11	69.6031
1566.66	71.7898
1568.21	73.659
1569.75	75.5009
1571.3	77.2093
1572.85	78.3441
1574.39	78.9715
1575.94	80.5693
1577.49	80.6085
1579.03	82.1841
1580.58	82.0001
1582.12	83.3953
1583.67	84.628
1585.21	84.8486
1586.75	85.2714
1588.3	86.1467
1589.84	87.0713
1591.38	87.1661
1592.93	86.7866
1594.47	86.5858
1596.01	86.3095
1597.55	85.5732
1599.09	84.4503
1600.63	83.1115
1602.18	82.1573
1603.72	81.555
1605.26	79.8478
1606.8	78.8265
1608.34	79.0957
1609.87	78.8158
1611.41	78.9763
1612.95	79.0633
1614.49	78.8235
1616.03	79.9235
1617.57	80.4274
1619.11	81.6441
1620.64	82.3324
1622.18	82.7676
1623.72	84.4307
1625.25	86.063
1626.79	87.5075
1628.32	87.3147
1629.86	87.6991
1631.4	87.3991
1632.93	88.1688
1634.47	90.1498
1636	91.2072
1637.53	92.3194
1639.07	93.5658
1640.6	94.958
1642.14	96.6388
1643.67	97.8011
1645.2	98.8268
1646.73	99.2879
1648.27	100.005
1649.8	99.9718
1651.33	100.165
1652.86	100.234
1654.39	100.333
1655.92	101.113
1657.45	99.8026
1658.98	99.5761
1660.51	98.3402
1662.04	96.3572
1663.57	94.5684
1665.1	92.2669
1666.63	90.1728
1668.16	87.2313
1669.69	84.7098
1671.21	81.9258
1672.74	78.8837
1674.27	74.3656
1675.79	71.7313
1677.32	68.7898
1678.85	66.2158
1680.37	62.9017
1681.9	59.2453
1683.42	56.9088
1684.95	54.1496
1686.47	51.3217
1688	48.0473
1689.52	45.6458
1691.05	43.1449
1692.57	40.1837
1694.1	37.7349
1695.62	35.4377
1697.14	32.8787
1698.66	31.5888
1700.19	29.3444
1701.71	27.1093
1703.23	25.2172
1704.75	22.9991
1706.27	22.2066
1707.79	21.0224
1709.32	20.2326
1710.83	19.4782
1712.35	18.2213
1713.88	17.9936
1715.39	17.1837
1716.91	15.9138
1718.43	15.8401
1719.95	14.7717
1721.47	14.5052
1722.99	14.0663
1724.5	14.4056
1726.02	13.5825
1727.54	12.5068
1729.06	12.3584
1730.57	11.9883
1732.09	11.3181
1733.61	10.9758
1735.12	10.5879
1736.64	10.1483
1738.15	9.67529
1739.67	9.38093
1741.18	8.5603
1742.7	9.11519
1744.21	9.10454
1745.72	8.91009
1747.24	8.73441
1748.75	8.8756
1750.26	8.62615
1751.78	9.50449
1753.29	8.61631
1754.8	8.24975
1756.31	7.98855
1757.82	7.87674
1759.34	8.1392
1760.85	7.84266
1762.36	7.74854
1763.87	7.20261
1765.38	7.36051
1766.89	6.90582
1768.4	6.82718
1769.91	7.62069
1771.41	7.54887
1772.92	7.51212
1774.43	7.52847
1775.94	7.07251
1777.45	7.45825
1778.96	6.75987
1780.46	6.28319
1781.97	6.48889
1783.48	5.99366
1784.98	5.78921
1786.49	5.81036
1788	4.86506
1789.5	4.90294
1791.01	4.25992
1792.51	3.84613
1794.01	3.80707
1795.52	3.5351
1797.02	4.05191
1798.53	3.70058
1800.03	3.37718
1801.54	2.67002
1803.04	2.58749
1804.54	3.0927
1806.04	2.80474
1807.54	2.83963
1809.05	2.71289
1810.55	2.16113
1812.05	2.27752
1813.55	1.62686
1815.05	1.17234
1816.55	0.792026
1818.05	1.37504
1819.55	1.69288
1821.05	1.68509
1822.55	1.33918
1824.05	1.25625
1825.55	0.868935
1827.05	0.248249
1828.55	-0.330401
1830.04	-0.00537882
1831.54	0.454048
1833.04	0.355925
1834.54	0.914438
1836.03	1.17302
1837.53	0.846959
1839.03	0.617832
1840.52	1.33658
1842.02	1.75296
1843.51	1.97289
1845.01	1.57537
1846.5	1.13051
1848	1.34483
1849.49	2.1246
1850.99	2.32746
1852.48	2.18796
1853.97	2.55399
1855.47	3.21505
1856.96	2.67636
1858.45	2.48194
1859.94	2.51393
1861.44	2.17918
1862.93	1.34987
1864.42	2.06111
1865.91	1.79068
1867.4	1.66206
1868.89	1.6636
1870.38	2.15338
1871.87	2.20774
1873.36	2.28106
1874.85	2.57888
1876.34	2.96736
1877.83	3.10795
1879.32	3.11605
1880.81	3.68798
1882.3	3.71953
1882.56	3.84732
1884.06	3.88226
1885.55	4.05695
1887.04	3.86014
1888.54	4.26987
1890.03	3.84666
1891.52	3.98373
1893.02	4.15104
1894.51	3.49978
1896	2.78739
1897.49	2.98057
1898.99	2.7786
1900.48	2.73667
1901.97	3.12992
1903.46	3.26608
1904.95	3.52841
1906.44	3.4806
1907.93	3.29336
1909.42	3.85478
1910.91	4.39794
1912.4	4.74391
1913.89	4.98937
1915.38	4.44169
1916.86	4.48863
1918.35	4.45183
1919.84	4.85413
1921.33	4.99308
1922.82	5.07111
1924.3	4.59856
1925.79	4.59251
1927.28	4.82444
1928.76	4.6448
1930.25	4.21969
1931.74	4.7337
1933.22	5.19859
1934.71	5.07072
1936.19	4.806
1937.67	5.56375
1939.16	5.08653
1940.64	5.29553
1942.13	5.27068
1943.61	5.48784
1945.09	6.09539
1946.58	6.08385
1948.06	6.3027
1949.54	6.21187
1951.03	5.81151
1952.51	5.95868
1953.99	6.55753
1955.47	5.63039
1956.95	5.39934
1958.43	5.08737
1959.91	4.43689
1961.39	4.41405
1962.87	3.80373
1964.35	3.01106
1965.83	3.48259
1967.31	3.45342
1968.79	2.88087
1970.27	2.28295
1971.75	2.37439
1973.22	1.65769
1974.7	1.35618
1976.18	1.255
1977.66	1.13019
1979.13	1.01121
1980.61	0.701209
1982.09	0.0914007
1983.56	0.640366
1985.04	-0.345669
1986.52	-1.32233
1987.99	-1.71955
1989.47	-1.85626
1990.94	-1.50548
1992.41	-1.13579
1993.89	-1.23252
1995.36	-1.11613
1996.84	-0.490323
1998.31	-0.237561
1999.78	-0.357648
2001.26	0.0540948
2002.73	-0.191246
2004.2	-0.17897
2005.67	0.0583582
2007.15	0.955623
2008.62	0.17702
2010.09	-0.00689989
2011.56	0.30406
2013.03	0.582539
2014.5	1.21925
2015.97	1.69479
2017.44	2.23139
2018.91	2.65701
2020.38	2.98479
2021.85	3.26912
2023.32	3.04171
2024.79	2.85583
2026.25	3.06179
2027.72	3.75702
2029.19	3.37978
2030.66	4.05811
2032.13	4.10616
2033.59	4.40195
2035.06	5.02834
2036.53	5.12147
2037.99	5.59542
2039.46	5.95855
2040.92	6.01517
2042.39	6.21785
2043.85	7.07137
2045.32	7.69096
2046.78	7.80994
2048.25	8.35803
2049.71	8.61806
2051.18	8.50831
2052.64	8.93414
2054.1	9.35504
2055.56	9.73109
2057.03	10.1923
2058.49	10.3767
2059.95	11.0994
2061.42	11.615
2062.88	13.1016
2064.34	13.7265
2065.8	14.9115
2067.26	14.8241
2068.72	15.5619
2070.18	16.3961
2071.64	17.0361
2073.1	17.7093
2074.56	18.5664
2076.02	19.5281
2077.48	20.8252
2078.94	22.1591
2080.39	22.9598
2081.85	23.405
2083.31	24.7702
2084.77	26.8203
2086.22	28.5957
2087.68	29.4944
2089.14	30.7459
2090.6	31.4419
2092.05	33.1788
2093.51	34.8632
2094.96	35.2187
2096.42	36.2046
2097.87	38.1594
2099.33	40.1119
2100.78	42.114
2102.24	43.0373
2103.69	44.9676
2105.15	45.9934
2106.6	47.8995
2108.05	49.5611
2109.51	51.2409
2110.96	53.306
2112.41	54.696
2113.86	57.0795
2115.32	58.8546
2116.77	61.0854
2118.22	62.6587
2119.67	64.8523
2121.12	66.7476
2122.57	68.6112
2124.02	70.1937
2125.47	72.3763
2126.92	74.1357
2128.37	76.2855
2129.82	78.0497
2131.27	80.1153
