#Acq. time (s)=	45
#Accumulations=	2
#Range (cm-¹)=	200...3150
#Windows=	2
#Auto scanning=	Off
#Autofocus=	Off
#Macrospot=	Off
#AutoExposure=	Off
#Spike filter=	Multiple accum.
#Delay time (s)=	0
#Binning=	1
#Readout mode=	Signal
#DeNoise=	Off
#ICS correction=	On
#Dark correction=	Off
#Inst. Process=	Off
#Detector Gain=	Best Dynamic Range
#Detector ADC=	20 kHz       
#Detector temperature (°C)=	-69.85
#Instrument=	LabRAM HR Evol
#Detector=	Synapse
#Objective=	x100
#Grating=	600 gr/mm
#ND Filter=	100%
#Laser (nm)=	532 
#Hole=	100.021
#Range=	Auto
#Laser Pol.=	No
#Raman. Pol.=	No
#Laser Pol. (°)=	-0.0007625
#Raman Pol. (°)=	89.9995
#Collection=	Microscope
#StageXY=	Marzhauser
#StageZ=	Marzhauser
#X (µm)=	-2364.3
#Y (µm)=	230.8
#Z (µm)=	521.55
#Full time(mm:ss)=	3:18
#Project=	
#Sample=	
#Site=	
#Title=	Thy_10_08_41_2x_45s_532 nm_x100_100%_600 gr_mm
#Remark=	
#Date=	06.07.2022 14:43
#Acquired=	06.07.2022 14:43:20
#Base:Fit=	10.08.2022 09:46:25
#Base:Sub=	10.08.2022 09:46:49
#Filter:Polynom=	16.08.2022 10:24:56
#AxisType[0]=Intens
#AxisUnit[0]=Cnt
#AxisType[1]=Spectr
#AxisUnit[1]=1/cm
200.398	21.3685
202.213	19.8674
204.027	19.5483
205.843	18.5694
207.657	17.6151
209.47	16.5898
211.283	15.4541
213.097	14.1651
214.909	13.638
216.721	13.0567
218.533	11.9019
220.344	11.8521
222.157	11.5267
223.967	10.8929
225.777	10.6954
227.587	9.51592
229.396	9.82429
231.205	9.58228
233.016	9.87052
234.824	9.09887
236.632	7.81519
238.439	7.44817
240.247	7.31157
242.053	6.17572
243.86	5.26531
245.666	5.44619
247.474	5.33044
249.279	5.13319
251.085	5.01764
252.889	5.52866
254.694	5.6625
256.498	4.13245
258.301	4.08285
260.105	4.25932
261.908	3.81622
263.71	4.0271
265.513	4.18557
267.315	3.79337
269.116	3.4023
270.918	3.77787
272.718	4.05286
274.519	5.09359
276.319	6.50112
278.119	6.6559
279.918	6.8855
281.718	6.64864
283.516	7.26244
285.315	7.3939
287.113	7.06429
288.911	8.08518
290.708	7.8335
292.505	8.86683
294.302	8.54198
296.098	8.80917
297.894	8.65558
299.69	9.24768
301.485	9.48001
303.278	9.45072
305.073	10.8417
306.867	10.597
308.661	10.5052
310.454	11.8448
312.247	12.1382
314.04	12.2181
315.833	12.5023
317.623	12.0709
319.415	12.553
321.206	12.6118
322.997	12.868
324.788	12.498
326.579	13.249
328.367	13.0389
330.156	13.2999
331.946	12.6087
333.735	13.0726
335.523	14.2409
337.31	13.7271
339.098	14.0831
340.885	14.2683
342.673	14.7183
344.458	15.2871
346.244	14.8939
348.03	14.9082
349.816	14.4997
351.6	14.166
353.385	13.9525
355.17	13.6685
356.953	13.1308
358.737	12.8144
360.521	12.7411
362.304	12.2816
364.085	12.0137
365.868	11.1438
367.65	9.97878
369.431	10.1026
371.212	10.0329
372.994	10.0906
374.773	9.58996
376.554	9.29453
378.332	8.87258
380.112	8.62817
381.892	7.01538
383.669	7.34311
385.448	6.96307
387.225	7.43142
389.003	7.09307
390.781	6.23004
392.557	5.98854
394.334	6.54802
396.109	5.94246
397.885	6.61833
399.66	7.04481
401.436	6.0926
403.211	5.8314
404.984	5.67669
406.759	6.45367
408.532	7.64473
410.306	8.33435
412.078	8.37668
413.851	8.49917
415.623	9.0442
417.395	8.95808
419.166	9.88856
420.938	10.487
422.708	11.2498
424.477	11.0958
426.248	10.3757
428.017	10.5695
429.788	10.8775
431.556	10.8026
433.326	10.4016
435.093	9.57848
436.86	8.32144
438.629	7.75394
440.395	7.18747
442.163	6.1413
443.929	6.00034
445.694	5.62587
447.461	5.68304
449.226	4.63428
450.99	3.99593
452.756	3.5682
454.52	4.36245
456.285	5.27972
458.048	5.88111
459.811	5.91436
461.573	5.8824
463.337	5.8639
465.099	5.48222
466.86	5.52764
468.623	6.46243
470.384	6.83043
472.144	8.01685
473.906	8.13602
475.666	8.47637
477.425	7.83727
479.184	8.05162
480.944	8.81911
482.703	9.64972
484.461	10.5789
486.218	11.8223
487.975	11.9465
489.734	12.8639
491.491	14.1484
493.247	14.321
495.003	15.179
496.759	15.5639
498.516	15.4366
500.271	16.0344
502.025	16.8526
503.779	17.6603
505.533	18.0693
507.287	18.5827
509.042	19.4606
510.795	18.8869
512.547	17.9307
514.299	18.4225
516.051	18.4892
517.803	18.504
519.554	17.8853
521.305	17.4766
523.055	17.6708
524.805	16.5427
526.555	17.0314
528.307	16.7196
530.056	16.9246
531.805	16.7228
533.553	16.634
535.301	15.3093
537.049	14.7621
538.797	16.2558
540.544	16.876
542.291	16.9731
544.037	16.4899
545.783	16.3149
547.529	16.702
549.275	16.4439
551.02	16.5188
552.765	16.4305
554.509	16.2942
556.253	15.7033
557.997	15.2151
559.738	15.3522
561.482	16.0311
563.224	15.4659
564.967	14.7143
566.709	14.0977
568.451	14.372
570.192	14.0015
571.933	13.6967
573.674	12.322
575.415	11.1228
577.153	11.114
578.893	10.7823
580.632	9.95253
582.371	10.14
584.11	9.62388
585.849	9.25019
587.587	9.6191
589.323	9.55984
591.06	9.30169
592.797	9.33535
594.534	9.11516
596.271	7.90582
598.005	7.46575
599.741	7.03838
601.476	7.78931
603.211	7.63226
604.944	7.71174
606.679	8.35021
608.413	8.83538
610.147	8.87019
611.878	8.46982
613.611	8.38222
615.344	7.99332
617.077	8.46774
618.807	8.41753
620.539	8.40265
622.27	8.29924
623.999	10.0388
625.73	11.1406
627.461	11.0111
629.189	11.1319
630.919	11.6714
632.648	12.8353
634.376	13.1733
636.105	13.1734
637.833	13.2718
639.559	13.9032
641.287	13.9437
643.013	14.7779
644.74	17.3008
646.467	17.975
648.192	18.6221
649.918	18.0456
651.642	17.9213
653.368	17.837
655.091	18.7418
656.816	18.7489
658.538	19.5316
660.263	20.1068
661.987	21.6193
663.708	22.594
665.432	22.3355
667.153	22.4562
668.875	23.1102
670.596	23.1344
672.318	24.0157
674.037	24.4716
675.759	24.6266
677.478	25.0852
679.196	25.2463
680.917	25.5056
682.635	26.4495
684.355	27.3922
686.072	27.8248
687.791	28.1728
689.508	27.8846
691.224	28.0109
692.942	29.2113
694.658	29.5423
696.376	29.9937
698.091	30.1534
699.805	30.3159
701.522	31.0935
703.236	32.0406
704.95	32.7627
706.665	33.1495
708.379	34.0042
710.093	35.4581
711.806	36.0211
713.518	36.3782
715.23	38.002
716.943	38.7351
718.655	40.0435
720.366	41.3594
722.078	42.9614
723.788	43.9466
725.498	44.9722
727.208	46.0693
728.919	47.4607
730.628	48.9608
732.337	48.1535
734.045	48.767
735.755	49.2812
737.463	50.4818
739.17	51.2565
740.877	52.7682
742.584	54.2134
744.292	55.3624
745.998	56.6916
747.704	57.6133
749.409	57.9704
751.114	58.9789
752.819	60.5561
754.526	61.0483
756.23	61.7782
757.934	63.5045
759.637	64.1911
761.34	64.5795
763.043	65.6251
764.746	66.653
766.448	67.8411
768.152	69.3212
769.853	69.8365
771.554	70.7488
773.255	71.4403
774.956	72.6801
776.656	73.585
778.356	75.2208
780.056	75.8241
781.755	76.2757
783.454	76.1175
785.153	77.8541
786.851	79.3997
788.549	80.9864
790.247	81.554
791.944	82.4279
793.641	83.2799
795.338	84.8792
797.034	84.9866
798.73	85.6537
800.426	87.0707
802.121	87.2843
803.817	88.4979
805.511	88.7768
807.206	89.1963
808.9	88.1888
810.592	87.2678
812.286	87.237
813.979	86.7252
815.672	87.1115
817.364	86.9082
819.057	86.6731
820.748	88.0822
822.44	87.5314
824.129	87.3028
825.82	86.9099
827.511	86.7384
829.201	85.5633
830.891	84.8333
832.581	83.666
834.269	82.5938
835.958	81.7004
837.646	80.9898
839.335	80.2074
841.023	79.8408
842.709	79.1669
844.396	77.0476
846.084	76.4367
847.77	76.2446
849.455	75.5224
851.141	74.9435
852.827	74.6676
854.513	73.0577
856.196	72.0577
857.881	71.3057
859.566	70.9578
861.248	69.9787
862.932	69.9938
864.616	68.3291
866.297	66.7996
867.98	66.6011
869.663	67.1267
871.343	66.3741
873.026	65.7305
874.707	65.2146
876.387	64.798
878.068	64.7348
879.747	65.1578
881.428	65.0535
883.108	65.5948
884.786	65.959
886.465	65.6052
888.143	65.2767
889.822	64.5729
891.498	64.3804
893.177	63.5748
894.855	63.5725
896.53	63.9391
898.208	64.2137
899.883	64.4627
901.56	64.4365
903.234	64.1413
904.91	63.4911
906.584	62.2137
908.26	62.2809
909.933	61.7781
911.608	61.0043
913.28	60.4516
914.955	60.6388
916.627	60.5616
918.298	59.667
919.972	59.3747
921.643	59.525
923.315	59.5768
924.986	59.1226
926.656	58.8623
928.328	58.9887
929.997	59.0584
931.668	59.0279
933.337	58.8463
935.006	58.6945
936.676	57.1909
938.344	55.8057
940.012	55.2473
941.681	53.8612
943.348	52.4036
945.014	50.2466
946.683	49.4308
948.349	48.3713
950.015	48.3328
951.682	48.2478
953.347	47.5136
955.012	46.299
956.676	45.8863
958.343	45.1333
960.006	44.1909
961.67	44.1834
963.333	45.0195
964.998	45.814
966.661	46.4038
968.323	47.1275
969.985	47.1569
971.649	47.7135
973.31	48.9069
974.971	49.2198
976.632	49.1592
978.293	49.8452
979.953	49.9719
981.615	50.8083
983.274	50.6083
984.933	50.8842
986.592	50.7977
988.251	50.6609
989.909	51.1962
991.567	51.9527
993.225	51.5233
994.884	51.4061
996.541	51.5566
998.198	51.3649
999.855	49.5471
1001.51	48.6125
1003.17	48.343
1004.82	47.8217
1006.48	47.5355
1008.13	46.9848
1009.79	46.7835
1011.44	45.8693
1013.1	44.352
1014.75	43.4978
1016.4	41.6284
1018.06	39.2059
1019.71	36.5592
1021.36	34.7309
1023.01	32.8948
1024.66	31.6906
1026.32	30.6403
1027.97	30.3472
1029.62	29.8932
1031.27	28.2859
1032.92	26.3634
1034.57	25.1095
1036.22	24.344
1037.87	23.706
1039.52	23.1148
1041.16	23.2776
1042.81	24.1627
1044.46	24.842
1046.11	25.9235
1047.76	25.3305
1049.4	25.4099
1051.05	24.8231
1052.7	25.1728
1054.34	25.3994
1055.99	25.2899
1057.63	24.2103
1059.28	23.9793
1060.92	24.2703
1062.57	23.8198
1064.21	23.8234
1065.85	23.1479
1067.5	23.6936
1069.14	24.1295
1070.78	24.3457
1072.43	23.7284
1074.07	24.0121
1075.71	22.9222
1077.35	22.8769
1078.99	23.1494
1080.63	22.2176
1082.27	21.367
1083.91	21.2853
1085.55	21.7222
1087.19	21.898
1088.83	22.234
1090.47	22.1512
1092.11	22.1329
1093.75	21.345
1095.39	21.6112
1097.03	21.2192
1098.66	21.1612
1100.3	21.7552
1101.94	22.4234
1103.57	23.2893
1105.21	23.3581
1106.84	24.0178
1108.48	23.9453
1110.11	24.1628
1111.75	23.656
1113.38	23.1516
1115.02	22.68
1116.65	23.0676
1118.29	23.5083
1119.92	23.4874
1121.55	22.9944
1123.19	22.8933
1124.82	22.2206
1126.45	21.8124
1128.08	21.7121
1129.71	21.2452
1131.34	20.7588
1132.97	19.8821
1134.6	20.5693
1136.23	20.119
1137.86	20.3592
1139.49	20.0624
1141.12	20.3845
1142.75	19.6063
1144.38	19.3364
1146.01	18.7228
1147.64	18.1757
1149.26	18.3141
1150.89	17.2645
1152.52	16.2081
1154.15	14.594
1155.77	14.449
1157.4	13.6133
1159.02	13.4227
1160.65	12.2809
1162.27	10.296
1163.9	9.30179
1165.52	8.67612
1167.15	9.04103
1168.77	7.43527
1170.39	8.48357
1172.02	8.65412
1173.64	8.89769
1175.26	8.42665
1176.89	9.40268
1178.51	9.09555
1180.13	9.74663
1181.75	9.25573
1183.37	8.56736
1184.99	8.26637
1186.61	8.54037
1188.23	10.4554
1189.85	11.114
1191.47	11.3055
1193.09	12.1615
1194.71	13.4738
1196.33	14.9332
1197.94	17.2924
1199.56	18.8266
1201.18	20.5069
1202.8	21.4358
1204.41	23.4385
1206.03	26.2093
1207.65	28.7623
1209.26	31.0456
1210.88	32.9126
1212.49	35.4271
1214.11	38.5388
1215.72	41.2729
1217.34	43.3045
1218.95	45.1724
1220.57	46.9428
1222.18	48.7418
1223.79	49.5619
1225.41	50.8875
1227.02	51.3645
1228.63	52.4924
1230.24	53.5249
1231.85	53.1928
1233.47	53.8561
1235.08	53.7228
1236.69	54.0154
1238.3	54.0784
1239.91	53.941
1241.52	53.1452
1243.13	53.2628
1244.74	53.6946
1246.34	54.2839
1247.95	54.839
1249.56	54.1393
1251.17	54.9371
1252.78	53.519
1254.38	52.691
1255.99	51.8455
1257.6	51.5713
1259.2	50.1742
1260.81	49.6581
1262.42	49.5047
1264.02	49.8846
1265.63	50.0711
1267.23	50.5447
1268.84	51.6074
1270.44	50.5908
1272.04	50.1379
1273.65	50.9742
1275.25	51.0437
1276.85	51.2845
1278.46	51.6024
1280.06	52.0894
1281.66	53.2018
1283.26	53.836
1284.86	55.3126
1286.46	56.1408
1288.07	56.845
1289.67	57.6183
1291.27	58.0095
1292.87	59.1895
1294.47	59.6323
1296.06	59.6198
1297.66	60.3708
1299.26	61.2122
1300.86	62.0844
1302.46	62.2784
1304.06	63.3314
1305.65	63.7738
1307.25	63.4581
1308.85	63.9977
1310.44	64.2652
1312.04	64.4643
1313.64	64.7846
1315.23	64.765
1316.83	65.8295
1318.42	66.6528
1320.02	66.7853
1321.61	67.5935
1323.2	67.8143
1324.8	67.4303
1326.39	67.0064
1327.99	66.101
1329.58	65.391
1331.17	64.9858
1332.76	64.4364
1334.36	65.0918
1335.95	64.0262
1337.54	63.6168
1339.13	63.1108
1340.72	63.3791
1342.31	63.0976
1343.9	62.0189
1345.49	60.7622
1347.08	59.4728
1348.67	59.4483
1350.26	57.4038
1351.85	56.4275
1353.43	56.2233
1355.02	55.0847
1356.61	54.3393
1358.2	53.748
1359.78	52.6255
1361.37	51.6237
1362.96	50.2189
1364.54	48.8504
1366.13	48.0041
1367.71	47.4725
1369.3	46.4636
1370.88	45.4756
1372.47	44.6007
1374.05	44.107
1375.64	43.8681
1377.22	44.205
1378.8	44.0098
1380.39	43.7599
1381.97	44.1417
1383.55	43.5242
1385.13	42.0808
1386.72	41.6253
1388.3	42.0643
1389.88	41.7348
1391.46	41.2434
1393.04	40.5445
1394.62	40.0758
1396.2	40.5297
1397.78	39.9511
1399.36	39.4295
1400.94	39.3275
1402.52	38.7121
1404.1	39.2836
1405.68	39.695
1407.25	39.7665
1408.83	41.1393
1410.41	41.9814
1411.98	43.2342
1413.56	44.6403
1415.14	44.5754
1416.71	46.1843
1418.29	48.5602
1419.87	50.9565
1421.44	52.205
1423.02	54.2334
1424.59	56.1724
1426.16	58.6227
1427.74	61.3189
1429.31	62.3832
1430.89	63.85
1432.46	66.126
1434.03	67.8068
1435.6	69.2781
1437.18	70.1062
1438.75	70.8198
1440.32	71.9891
1441.89	73.4396
1443.46	74.9019
1445.03	75.0382
1446.6	74.6659
1448.17	74.5597
1449.74	74.3132
1451.31	74.0175
1452.88	73.8421
1454.45	72.2924
1456.02	71.3099
1457.59	69.7321
1459.16	67.6823
1460.72	65.8898
1462.29	62.6704
1463.86	60.5612
1465.43	57.676
1466.99	54.3702
1468.56	50.8742
1470.13	47.7162
1471.69	44.5712
1473.26	41.2076
1474.82	39.0184
1476.38	35.5031
1477.95	33.3289
1479.51	31.4527
1481.08	28.8248
1482.64	26.3458
1484.2	23.323
1485.77	21.2668
1487.33	20.074
1488.89	18.61
1490.46	17.0848
1492.02	16.1789
1493.58	15.5419
1495.14	15.1392
1496.7	15.3859
1498.26	15.0171
1499.82	14.0138
1501.38	13.8338
1502.94	13.8423
1504.5	13.087
1506.06	13.0405
1507.62	12.8669
1509.18	13.3626
1510.73	13.4629
1512.29	13.6613
1513.85	13.8563
1515.41	14.2937
1516.96	15.6533
1518.52	16.6296
1520.08	17.8939
1521.63	17.9921
1523.19	18.1759
1524.75	19.2901
1526.3	20.7413
1527.85	21.8658
1529.41	23.0307
1530.96	24.306
1532.52	24.8604
1534.07	26.1586
1535.62	26.4205
1537.18	27.0964
1538.73	28.575
1540.28	29.5416
1541.84	29.7632
1543.39	30.4303
1544.94	31.7337
1546.49	32.9371
1548.04	34.8696
1549.59	37.0802
1551.14	38.359
1552.69	39.8682
1554.25	41.4951
1555.79	43.3726
1557.34	44.2794
1558.89	44.8278
1560.44	45.1621
1561.99	46.7682
1563.54	48.1087
1565.08	49.3437
1566.63	50.5304
1568.18	51.626
1569.73	53.5229
1571.27	55.2529
1572.82	56.4339
1574.37	57.8944
1575.91	58.4564
1577.46	59.1856
1579	59.8899
1580.55	60.3677
1582.09	60.763
1583.64	61.951
1585.18	62.6633
1586.73	63.153
1588.27	63.7906
1589.81	64.9881
1591.35	65.256
1592.9	65.1016
1594.44	65.0643
1595.98	64.5906
1597.52	64.1095
1599.06	63.1665
1600.61	63.483
1602.15	63.6116
1603.69	62.7475
1605.23	62.7526
1606.77	61.828
1608.31	61.4872
1609.85	60.1664
1611.39	60.0068
1612.93	59.2495
1614.46	58.9997
1616	58.8456
1617.54	58.8502
1619.08	57.9829
1620.61	58.3064
1622.15	58.8928
1623.69	59.6381
1625.23	59.6057
1626.76	59.6431
1628.3	59.08
1629.83	59.7316
1631.37	59.9052
1632.9	60.2704
1634.44	60.7858
1635.97	61.7806
1637.51	62.4503
1639.04	63.6777
1640.57	64.2331
1642.11	66.0214
1643.64	67.1588
1645.17	68.1953
1646.71	69.2612
1648.24	70.3737
1649.77	69.7804
1651.3	69.9742
1652.83	69.8064
1654.36	70.5531
1655.89	70.2297
1657.42	70.5644
1658.96	71.1446
1660.48	70.8251
1662.01	70.3191
1663.54	68.7886
1665.07	67.5126
1666.6	65.8535
1668.13	64.9389
1669.66	63.3027
1671.19	62.1745
1672.71	60.2835
1674.24	59.2138
1675.77	57.5466
1677.29	56.479
1678.82	54.3143
1680.35	51.8436
1681.87	50.3804
1683.4	47.9143
1684.92	46.09
1686.45	44.0756
1687.97	42.5737
1689.5	40.3519
1691.02	38.3913
1692.54	36.4574
1694.07	34.1832
1695.59	31.0528
1697.11	29.2279
1698.64	27.5066
1700.16	25.4419
1701.68	23.2311
1703.2	22.2087
1704.72	20.1104
1706.25	18.4934
1707.77	16.5304
1709.29	16.1405
1710.81	14.7761
1712.33	13.9327
1713.85	12.2873
1715.37	11.4153
1716.89	10.7383
1718.41	9.96052
1719.92	9.17295
1721.44	8.80737
1722.96	8.35877
1724.48	7.54936
1725.99	6.0064
1727.51	6.04109
1729.03	5.91518
1730.55	6.01426
1732.06	5.69933
1733.58	6.08271
1735.09	5.69986
1736.61	4.8829
1738.13	4.73467
1739.64	4.40864
1741.15	5.01907
1742.67	5.85833
1744.18	6.37799
1745.7	6.12795
1747.21	6.17013
1748.72	5.77954
1750.24	5.82698
1751.75	5.644
1753.26	5.77199
1754.77	5.42382
1756.29	5.7617
1757.8	6.16252
1759.31	6.24515
1760.82	6.44707
1762.33	6.52875
1763.84	5.93544
1765.35	5.66382
1766.86	5.06831
1768.37	4.5236
1769.88	3.82344
1771.39	3.27815
1772.9	3.14247
1774.4	2.76505
1775.91	2.77354
1777.42	2.0936
1778.93	1.6287
1780.44	0.952085
1781.94	1.15486
1783.45	1.02371
1784.96	1.0779
1786.46	0.606292
1787.97	0.516625
1789.47	0.126086
1790.98	0.146494
1792.48	-0.159124
1793.99	-0.0434419
1795.49	-0.187773
1797	-1.02406
1798.5	-1.46842
1800.01	-1.9052
1801.51	-1.81029
1803.01	-1.7192
1804.51	-1.67384
1806.02	-1.88938
1807.52	-1.87047
1809.02	-1.83435
1810.52	-1.43269
1812.02	-1.10937
1813.52	-0.310754
1815.02	0.0988412
1816.53	0.629305
1818.03	0.755274
1819.52	0.806118
1821.02	1.11311
1822.52	1.24888
1824.02	1.72364
1825.52	2.15071
1827.02	3.1596
1828.52	3.35688
1830.02	3.52731
1831.51	4.37214
1833.01	4.5974
1834.51	4.61265
1836.01	5.07193
1837.5	5.00173
1839	5.35478
1840.49	5.77405
1841.99	5.66569
1843.49	5.75491
1844.98	5.64889
1846.48	5.46643
1847.97	5.72673
1849.47	6.35639
1850.96	6.55834
1852.45	6.21303
1853.95	6.2554
1855.44	5.57001
1856.93	5.29857
1858.42	4.90138
1859.92	4.33684
1861.41	4.45675
1862.9	4.13701
1864.39	4.32659
1865.88	4.02518
1867.38	3.76152
1868.87	3.44651
1870.36	3.43626
1871.85	3.25755
1873.34	3.43048
1874.83	3.1675
1876.32	2.94614
1877.81	2.90667
1879.29	3.06429
1880.78	2.93164
1882.27	3.09186
1882.53	3.64938
1884.03	4.01177
1885.52	3.5781
1887.01	4.1869
1888.51	4.413
1890	4.00681
1891.5	3.90008
1892.99	3.74954
1894.48	3.90196
1895.97	4.02286
1897.47	3.78527
1898.96	3.7364
1900.45	4.10033
1901.94	3.94235
1903.43	3.87565
1904.92	3.78819
1906.41	3.78446
1907.9	3.69114
1909.39	4.1207
1910.88	4.03472
1912.37	4.2782
1913.86	3.96549
1915.35	3.96498
1916.84	3.48693
1918.33	3.40637
1919.81	3.25716
1921.3	3.80203
1922.79	3.01245
1924.28	2.62854
1925.76	2.06452
1927.25	2.34104
1928.73	2.57625
1930.22	3.17563
1931.71	3.95995
1933.19	4.23074
1934.68	4.93785
1936.16	5.46207
1937.65	6.40911
1939.13	6.45836
1940.62	6.91786
1942.1	7.28703
1943.58	7.41453
1945.07	7.18272
1946.55	6.92883
1948.03	6.74869
1949.51	6.69692
1951	6.60319
1952.48	5.84005
1953.96	5.89329
1955.44	5.98248
1956.92	6.21426
1958.4	6.08907
1959.88	5.89758
1961.36	6.20264
1962.84	5.22991
1964.32	4.62275
1965.8	4.62545
1967.28	4.50532
1968.76	4.89224
1970.24	4.55168
1971.72	4.59057
1973.2	4.43377
1974.67	3.69088
1976.15	2.76074
1977.63	2.27861
1979.1	2.07212
1980.58	1.90218
1982.06	2.26538
1983.54	1.95576
1985.01	1.85259
1986.49	1.89537
1987.96	1.43932
1989.44	1.60824
1990.91	1.37536
1992.39	1.60368
1993.86	1.80285
1995.33	2.14278
1996.81	2.03545
1998.28	2.95511
1999.75	3.9123
2001.23	4.93699
2002.7	4.73603
2004.17	5.064
2005.65	5.7736
2007.12	5.75863
2008.59	6.15558
2010.06	6.82174
2011.53	7.00641
2013	6.33035
2014.47	6.5174
2015.94	6.4923
2017.41	6.37572
2018.88	6.80071
2020.35	6.69081
2021.82	6.99561
2023.29	7.00184
2024.76	6.72825
2026.23	7.29771
2027.69	7.78372
2029.16	7.89962
2030.63	8.52963
2032.1	9.22125
2033.56	9.31007
2035.03	9.26519
2036.5	9.22682
2037.96	10.0502
2039.43	10.2646
2040.89	10.6042
2042.36	10.8485
2043.83	10.4975
2045.29	10.5639
2046.75	10.2319
2048.22	10.1004
2049.68	10.4561
2051.15	10.5365
2052.61	10.4877
2054.07	10.5491
2055.54	11.2883
2057	11.162
2058.46	11.5368
2059.92	11.4021
2061.39	11.3409
2062.85	11.7097
2064.31	12.0385
2065.77	11.8063
2067.23	12.1084
2068.69	12.9076
2070.15	13.2981
2071.61	13.1138
2073.07	13.2965
2074.53	12.8757
2075.99	12.3459
2077.45	12.9269
2078.91	12.7723
2080.37	13.0335
2081.82	12.8107
2083.28	13.1741
2084.74	12.8999
2086.2	13.4056
2087.65	13.8135
2089.11	13.9137
2090.57	13.91
2092.02	14.2854
2093.48	13.5229
2094.94	13.0087
2096.39	13.0876
2097.85	13.05
2099.3	13.3054
2100.76	12.786
2102.21	13.1664
2103.66	13.3702
2105.12	13.2448
2106.57	12.9746
2108.03	13.2454
2109.48	13.325
2110.93	14.0485
2112.38	13.6215
2113.84	13.5113
2115.29	13.41
2116.74	13.2383
2118.19	13.381
2119.64	12.9967
2121.09	12.4466
2122.54	12.9454
2123.99	13.3385
2125.45	13.7835
2126.89	14.5187
2128.34	14.979
2129.79	15.1883
2131.24	15.9545
2132.69	16.3828
2134.14	16.9551
