#Acq. time (s)=	45
#Accumulations=	2
#Range (cm-¹)=	200...3150
#Windows=	2
#Auto scanning=	Off
#Autofocus=	Off
#Macrospot=	Off
#AutoExposure=	Off
#Spike filter=	Multiple accum.
#Delay time (s)=	0
#Binning=	1
#Readout mode=	Signal
#DeNoise=	Off
#ICS correction=	On
#Dark correction=	Off
#Inst. Process=	Off
#Detector Gain=	Best Dynamic Range
#Detector ADC=	20 kHz       
#Detector temperature (°C)=	-69.85
#Instrument=	LabRAM HR Evol
#Detector=	Synapse
#Objective=	x100
#Grating=	600 gr/mm
#ND Filter=	100%
#Laser (nm)=	532 
#Hole=	100.021
#Range=	Auto
#Laser Pol.=	No
#Raman. Pol.=	No
#Laser Pol. (°)=	-0.0007625
#Raman Pol. (°)=	89.9995
#Collection=	Microscope
#StageXY=	Marzhauser
#StageZ=	Marzhauser
#X (µm)=	-5131.1
#Y (µm)=	1523.7
#Z (µm)=	63.4
#Full time(mm:ss)=	3:18
#Project=	
#Sample=	
#Site=	
#Title=	Thy_50_12_38_2x_45s_532 nm_x100_100%_600 gr_mm
#Remark=	
#Date=	07.07.2022 12:03
#Acquired=	07.07.2022 12:03:13
#Base:Fit=	10.08.2022 10:04:30
#Base:Sub=	10.08.2022 10:04:45
#Filter:Polynom=	16.08.2022 10:20:25
#AxisType[0]=Intens
#AxisUnit[0]=Cnt
#AxisType[1]=Spectr
#AxisUnit[1]=1/cm
200.43	36.4682
202.246	32.3498
204.061	31.3395
205.875	30.2857
207.688	29.2539
209.501	27.9862
211.316	27.0703
213.129	25.885
214.941	24.5772
216.753	23.5263
218.566	21.9687
220.377	20.0931
222.188	17.6712
223.999	16.3192
225.809	15.5635
227.618	15.083
229.43	13.2453
231.239	12.048
233.047	11.8566
234.855	10.8677
236.663	10.4248
238.471	9.42636
240.278	9.10723
242.087	8.50192
243.894	7.55912
245.7	7.10663
247.506	7.47852
249.311	7.17214
251.116	6.89183
252.921	6.1326
254.725	5.36277
256.529	3.73773
258.333	4.84259
260.136	5.4326
261.939	5.17222
263.744	5.76588
265.546	6.591
267.348	5.20564
269.15	5.70147
270.951	5.8273
272.752	5.69473
274.552	5.92341
276.353	6.61573
278.152	5.22607
279.952	5.90426
281.751	7.59615
283.55	8.78845
285.348	8.85657
287.146	8.61463
288.942	10.0256
290.739	11.0445
292.536	12.1045
294.333	11.6272
296.129	12.4794
297.925	13.4181
299.721	14.2788
301.516	15.1023
303.311	14.6524
305.106	14.5628
306.9	15.0816
308.694	15.0094
310.486	15.2687
312.279	15.7012
314.072	16.1612
315.864	17.0426
317.656	17.4068
319.448	17.6739
321.24	18.2825
323.029	18.74
324.819	17.7392
326.61	17.1405
328.4	17.1628
330.19	16.786
331.977	15.8772
333.766	14.9027
335.555	15.0239
337.343	15.3334
339.131	13.9862
340.917	13.6383
342.704	13.5167
344.491	13.0925
346.277	13.1226
348.062	13.2741
349.848	12.1499
351.633	11.0267
353.416	10.0132
355.201	8.84745
356.986	7.41944
358.77	7.1402
360.552	6.44354
362.335	6.39396
364.118	5.88516
365.899	4.46185
367.682	4.35132
369.464	4.63189
371.243	4.44073
373.025	4.47197
374.806	4.37932
376.585	4.31072
378.365	5.00787
380.143	4.92836
381.923	4.84517
383.702	4.68194
385.479	4.44159
387.258	4.71031
389.034	4.40542
390.812	3.91828
392.59	3.91587
394.365	4.00357
396.142	4.60293
397.916	5.39501
399.693	6.01334
401.467	6.48146
403.242	7.11281
405.015	8.98381
406.79	9.44456
408.565	10.2024
410.337	9.9782
412.111	9.69831
413.882	8.97768
415.656	8.82186
417.426	9.12533
419.197	8.93157
420.969	8.97058
422.739	9.69777
424.51	10.7149
426.279	10.8253
428.05	10.2631
429.819	10.7081
431.589	11.0261
433.356	10.8532
435.124	11.0121
436.893	11.4289
438.66	11.7117
440.428	11.405
442.194	11.5243
443.96	12.1997
445.727	12.316
447.492	12.144
449.259	12.383
451.023	13.0211
452.787	11.5243
454.553	11.0276
456.316	11.9388
458.079	11.9459
459.844	12.4614
461.606	12.4596
463.368	12.811
465.132	12.8506
466.893	13.0585
468.654	13.1056
470.415	14.0306
472.177	14.1585
473.937	14.8667
475.696	16.1603
477.456	17.3316
479.217	18.2734
480.975	19.6318
482.733	20.7865
484.491	22.5677
486.251	24.3133
488.008	23.6702
489.765	24.4779
491.522	25.1649
493.278	25.5451
495.036	25.0051
496.791	24.8638
498.546	23.5566
500.301	22.9138
502.056	22.1703
503.81	21.7433
505.566	22.3322
507.319	22.6337
509.073	22.7087
510.825	22.3319
512.578	21.2402
514.33	21.1019
516.082	21.2243
517.833	21.4448
519.587	21.1559
521.337	20.1705
523.088	20.3589
524.838	20.2658
526.588	19.4041
528.337	18.5146
530.087	18.1334
531.835	17.5061
533.584	16.0418
535.332	16.0091
537.08	16.4349
538.827	15.5221
540.574	14.4173
542.321	15.3371
544.068	14.7735
545.814	14.0604
547.56	13.5443
549.305	13.4837
551.05	14.2305
552.795	14.1592
554.54	13.0563
556.284	13.8748
558.027	13.9602
559.771	13.8731
561.514	13.0145
563.257	13.2848
564.999	12.6589
566.742	11.7028
568.481	11.1186
570.223	10.8123
571.964	10.3485
573.705	9.50969
575.445	8.29546
577.185	8.70036
578.925	8.01115
580.665	6.77524
582.402	5.50117
584.141	5.07154
585.879	3.72061
587.617	3.26672
589.355	3.07532
591.092	3.43203
592.828	4.21922
594.564	3.70264
596.301	3.15792
598.037	2.44628
599.773	2.33483
601.506	1.93136
603.242	0.893025
604.976	1.06625
606.711	1.01625
608.443	0.373533
610.177	1.78359
611.91	2.24958
613.644	2.8537
615.374	3.91134
617.107	4.76133
618.839	5.31357
620.569	6.84295
622.3	7.50587
624.032	8.24899
625.761	7.23507
627.491	7.80186
629.221	8.36321
630.949	8.21358
632.679	8.67726
634.408	9.21336
636.135	10.663
637.863	10.8112
639.592	11.377
641.318	12.0644
643.045	12.6282
644.77	10.5809
646.497	10.4829
648.224	9.24877
649.948	10.5572
651.674	10.2495
653.398	11.1094
655.123	11.6954
656.846	12.5108
658.57	13.597
660.293	13.1424
662.017	12.5578
663.738	12.0503
665.462	11.1222
667.185	11.5805
668.905	11.7591
670.628	12.6966
672.348	13.1093
674.067	14.894
675.789	15.3941
677.508	14.7841
679.228	14.2687
680.947	13.8042
682.667	13.6978
684.385	13.8601
686.104	13.556
687.821	14.0658
689.538	14.8461
691.256	16.2631
692.972	16.2452
694.69	16.5701
696.406	17.3324
698.121	18.7185
699.837	20.2934
701.552	20.9113
703.268	21.7473
704.982	23.161
706.695	24.0924
708.41	24.446
710.123	25.3617
711.836	25.6648
713.55	26.6294
715.262	27.6646
716.973	29.6424
718.685	29.7418
720.398	29.7326
722.108	30.8253
723.818	31.4468
725.53	32.6081
727.24	33.4331
728.949	32.882
730.658	33.8644
732.369	36.4272
734.077	37.4853
735.785	39.3274
737.493	40.1372
739.2	41.0941
740.909	42.3781
742.616	43.8043
744.322	44.8486
746.028	45.6539
747.734	47.3342
749.441	49.6413
751.146	51.612
752.851	54.2113
754.555	55.7569
756.26	57.2255
757.963	58.2591
759.667	59.3055
761.372	59.4238
763.075	60.3751
764.777	62.5155
766.479	63.9327
768.181	64.6012
769.883	66.4471
771.584	67.5651
773.285	68.4044
774.986	68.5661
776.686	70.0969
778.386	70.3973
780.085	71.7829
781.785	72.8433
783.484	75.2839
785.182	76.4272
786.881	75.5219
788.579	75.5161
790.276	75.4724
791.974	75.2211
793.671	75.6784
795.367	75.5382
797.064	77.0708
798.76	77.4056
800.456	79.04
802.151	79.7488
803.846	78.8039
805.541	79.4518
807.236	80.5441
808.93	80.7192
810.624	80.2721
812.317	79.8867
814.01	79.2601
815.703	79.5702
817.394	79.5486
819.086	78.5221
820.778	78.0644
822.47	77.7254
824.161	77.6955
825.852	77.4399
827.543	77.5358
829.231	76.7962
830.921	76.427
832.611	75.5632
834.3	75.5458
835.989	74.6058
837.676	73.5012
839.364	71.9369
841.053	69.3378
842.74	68.1608
844.426	66.9956
846.113	65.9501
847.8	64.8891
849.486	63.4595
851.171	63.0252
852.857	61.4058
854.542	59.9476
856.227	57.751
857.911	56.0911
859.595	54.5773
861.279	53.6442
862.961	52.483
864.645	51.6176
866.329	50.7947
868.01	49.8727
869.692	49.1398
871.375	47.0172
873.055	46.0891
874.737	47.0249
876.418	47.7188
878.097	48.1495
879.778	48.5746
881.457	49.6841
883.137	48.1404
884.817	48.1625
886.495	47.1296
888.174	47.6444
889.851	47.3359
891.53	47.2128
893.206	47.6051
894.884	47.0433
896.562	47.5743
898.237	47.5076
899.914	47.2523
901.589	48.008
903.265	47.0476
904.94	46.8851
906.615	46.8897
908.289	46.5644
909.964	45.9367
911.637	45.9542
913.31	45.4231
914.984	45.4778
916.656	45.7902
918.33	44.6064
920.001	43.1838
921.674	41.3215
923.345	40.2492
925.015	40.0067
926.687	40.3658
928.357	40.1575
930.028	40.0371
931.698	39.3172
933.366	37.8898
935.037	38.1881
936.705	36.0089
938.373	35.636
940.043	35.8011
941.71	34.8225
943.379	34.1687
945.046	33.8691
946.712	34.386
948.378	33.8605
950.046	35.0848
951.711	35.4332
953.376	36.0275
955.043	35.9911
956.708	36.0765
958.372	36.0011
960.036	35.8468
961.701	35.2811
963.364	35.1844
965.027	35.4153
966.69	34.5355
968.354	35.1921
970.016	34.8558
971.678	35.5686
973.339	34.7726
975	34.5323
976.661	34.1834
978.324	33.5912
979.984	33.7493
981.644	33.2766
983.303	32.7964
984.962	32.5586
986.621	30.5096
988.282	29.1512
989.94	29.3824
991.598	29.0369
993.256	28.5778
994.913	27.6185
996.57	27.0574
998.227	25.8596
999.884	24.8443
1001.54	23.8253
1003.2	23.4638
1004.85	23.1787
1006.51	24.0799
1008.16	23.448
1009.82	23.7423
1011.47	23.6378
1013.12	23.9521
1014.78	23.6203
1016.43	23.5925
1018.08	25.303
1019.74	25.3514
1021.39	26.0234
1023.04	26.2292
1024.69	26.29
1026.34	27.6464
1028	28.027
1029.65	30.3295
1031.3	31.229
1032.95	32.1847
1034.6	32.6037
1036.25	32.5688
1037.9	33.0406
1039.55	32.7989
1041.19	33.8811
1042.84	34.8395
1044.49	34.9843
1046.14	35.5282
1047.79	36.1101
1049.43	35.9453
1051.08	36.5189
1052.73	36.7351
1054.37	37.5933
1056.02	36.354
1057.66	35.8798
1059.31	34.8773
1060.95	34.5843
1062.6	33.4732
1064.24	32.0432
1065.88	31.2005
1067.53	30.9403
1069.17	30.397
1070.81	30.4141
1072.46	30.4068
1074.1	28.4216
1075.74	26.9468
1077.38	25.9411
1079.02	24.7315
1080.66	23.4218
1082.3	23.2306
1083.94	22.1782
1085.58	21.0429
1087.22	19.6995
1088.86	18.7708
1090.5	18.0276
1092.14	18.4093
1093.78	17.7417
1095.42	17.477
1097.05	17.4066
1098.69	17.0267
1100.33	16.9992
1101.97	16.5054
1103.6	16.3016
1105.24	15.9155
1106.87	16.3547
1108.51	17.143
1110.15	17.1309
1111.78	17.8602
1113.41	16.9878
1115.05	16.3606
1116.68	16.5478
1118.31	16.1379
1119.95	16.7514
1121.58	15.6551
1123.21	16.3034
1124.85	15.6267
1126.48	15.8452
1128.11	15.8386
1129.74	16.056
1131.37	15.508
1133	15.0081
1134.63	14.2661
1136.26	13.4399
1137.89	12.3465
1139.52	12.5211
1141.15	12.0934
1142.78	11.288
1144.41	11.1796
1146.04	11.2762
1147.66	11.4763
1149.29	11.0699
1150.92	10.4004
1152.55	9.18627
1154.17	7.41577
1155.8	7.14837
1157.43	7.4888
1159.05	6.48254
1160.68	5.70586
1162.3	5.93736
1163.93	5.62762
1165.55	4.27837
1167.17	4.37329
1168.8	4.04373
1170.42	4.04551
1172.05	3.52999
1173.67	3.39212
1175.29	3.94855
1176.91	3.89025
1178.54	4.48172
1180.16	3.73517
1181.78	4.14752
1183.4	4.27728
1185.02	4.02473
1186.64	3.53663
1188.26	3.72176
1189.88	3.22799
1191.5	2.01869
1193.12	1.24538
1194.74	0.64807
1196.36	0.616629
1197.97	0.963103
1199.59	1.35139
1201.21	1.56975
1202.83	1.45282
1204.44	3.11502
1206.06	3.01386
1207.68	3.80069
1209.29	4.17183
1210.91	4.87059
1212.52	5.63527
1214.14	6.62084
1215.75	7.51004
1217.37	7.98968
1218.98	9.17519
1220.6	10.5566
1222.21	11.7896
1223.82	13.336
1225.44	15.6007
1227.05	17.5504
1228.66	19.2874
1230.27	21.5773
1231.88	23.0405
1233.49	24.5313
1235.1	25.9339
1236.72	27.9586
1238.33	29.1328
1239.94	30.2852
1241.55	32.9786
1243.16	34.5217
1244.76	35.1082
1246.37	36.0877
1247.98	38.0559
1249.59	38.7842
1251.2	40.0157
1252.8	41.0466
1254.41	42.5585
1256.02	43.4241
1257.63	44.0253
1259.23	45.606
1260.84	46.4238
1262.44	47.2555
1264.05	48.365
1265.66	49.5583
1267.26	49.9412
1268.87	51.2647
1270.47	51.2023
1272.07	51.7234
1273.68	52.9269
1275.28	53.8718
1276.88	56.1227
1278.48	57.3325
1280.09	58.3678
1281.69	58.7435
1283.29	59.1312
1284.89	60.165
1286.49	60.5495
1288.09	61.0149
1289.69	60.9315
1291.3	62.1538
1292.9	62.6887
1294.49	62.5756
1296.09	63.0435
1297.69	63.2861
1299.29	64.4703
1300.89	65.3641
1302.49	65.4685
1304.09	65.7013
1305.68	66.452
1307.28	66.9012
1308.88	66.8064
1310.47	66.2666
1312.07	65.1186
1313.66	64.9523
1315.26	64.5835
1316.86	63.7879
1318.45	63.86
1320.05	64.1077
1321.64	63.7933
1323.23	63.2234
1324.83	62.1639
1326.42	61.9648
1328.01	61.1952
1329.61	59.8054
1331.2	58.2098
1332.79	57.1174
1334.38	56.382
1335.98	56.2167
1337.57	56.2891
1339.16	55.7269
1340.75	55.5326
1342.34	53.9449
1343.93	53.6484
1345.52	53.2139
1347.11	52.2021
1348.7	52.1943
1350.29	50.6196
1351.87	50.726
1353.46	51.1276
1355.05	51.0132
1356.64	50.1342
1358.23	48.6639
1359.81	47.3521
1361.4	45.8611
1362.99	45.1524
1364.57	44.4499
1366.16	42.7046
1367.74	40.9756
1369.33	40.5378
1370.91	40.6551
1372.5	40.2558
1374.08	39.7163
1375.67	40.572
1377.25	39.8364
1378.83	39.7895
1380.42	39.5701
1382	39.6799
1383.58	39.2874
1385.16	39.525
1386.75	38.6412
1388.33	38.2697
1389.91	37.6369
1391.49	37.9045
1393.07	37.8247
1394.65	37.4047
1396.23	37.1268
1397.81	38.3534
1399.39	38.412
1400.97	38.4498
1402.55	39.5967
1404.13	39.4503
1405.7	39.7435
1407.28	39.8701
1408.86	39.9111
1410.44	39.7851
1412.01	40.3759
1413.59	40.9788
1415.17	42.6446
1416.74	44.0406
1418.32	45.2178
1419.89	46.9355
1421.47	47.2757
1423.05	49.9817
1424.62	51.6647
1426.19	53.4157
1427.77	54.9549
1429.34	56.6886
1430.92	59.66
1432.49	61.5331
1434.06	62.2516
1435.63	63.258
1437.2	64.9502
1438.78	65.9117
1440.35	66.9719
1441.92	67.6893
1443.49	68.3698
1445.06	69.9211
1446.63	70.6603
1448.2	71.2373
1449.77	71.9429
1451.34	71.7699
1452.91	70.6969
1454.48	70.1866
1456.05	68.6706
1457.62	68.2208
1459.18	67.2502
1460.75	65.3233
1462.32	62.8646
1463.89	60.8137
1465.45	59.1018
1467.02	56.7344
1468.59	54.0095
1470.15	51.4876
1471.72	49.2948
1473.28	46.3908
1474.85	44.2235
1476.41	42.047
1477.98	39.5966
1479.54	37.0218
1481.11	34.9564
1482.67	31.1447
1484.23	28.7919
1485.8	26.7061
1487.36	24.4256
1488.92	22.2225
1490.48	20.9128
1492.05	20.2211
1493.61	19.4343
1495.17	17.752
1496.73	16.6927
1498.29	15.6188
1499.85	14.7589
1501.41	15.2756
1502.97	14.7169
1504.53	14.4907
1506.09	15.2405
1507.65	16.0899
1509.2	16.1212
1510.76	16.1117
1512.32	16.93
1513.88	17.729
1515.44	18.0717
1516.99	19.265
1518.55	20.0657
1520.1	20.4394
1521.66	21.6766
1523.22	23.0475
1524.77	22.5602
1526.33	22.8937
1527.88	23.5948
1529.44	24.3174
1530.99	24.5393
1532.55	26.0212
1534.1	27.1982
1535.65	27.5646
1537.21	27.3831
1538.76	28.0288
1540.31	28.7853
1541.86	29.587
1543.42	31.1239
1544.97	32.519
1546.52	33.6795
1548.07	35.5472
1549.62	37.2923
1551.17	38.5973
1552.72	40.283
1554.27	41.9927
1555.82	44.0128
1557.37	45.4126
1558.92	47.4052
1560.47	48.5073
1562.02	50.6509
1563.57	51.5478
1565.11	52.2845
1566.66	53.5386
1568.21	54.4527
1569.75	55.578
1571.3	56.2794
1572.85	56.9128
1574.39	58.0045
1575.94	58.1946
1577.49	59.6422
1579.03	60.8854
1580.58	61.9018
1582.12	62.9728
1583.67	64.777
1585.21	64.913
1586.75	65.0645
1588.3	65.3196
1589.84	65.9425
1591.38	66.07
1592.93	66.2281
1594.47	65.9753
1596.01	65.1002
1597.55	64.2822
1599.09	64.615
1600.63	63.0637
1602.18	61.0486
1603.72	59.9699
1605.26	60.0724
1606.8	60.2573
1608.34	59.3012
1609.87	58.7968
1611.41	57.9601
1612.95	57.0065
1614.49	57.1225
1616.03	57.2838
1617.57	56.3052
1619.11	56.8453
1620.64	57.6498
1622.18	57.2047
1623.72	57.0976
1625.25	57.7849
1626.79	58.5429
1628.32	59.3855
1629.86	60.1822
1631.4	61.4285
1632.93	62.3626
1634.47	62.8396
1636	63.7624
1637.53	64.1401
1639.07	64.8803
1640.6	66.0065
1642.14	66.8633
1643.67	67.4687
1645.2	67.9488
1646.73	68.9753
1648.27	69.3717
1649.8	69.7936
1651.33	69.8191
1652.86	70.1404
1654.39	70.3496
1655.92	70.5251
1657.45	70.8219
1658.98	70.0732
1660.51	69.2836
1662.04	67.7767
1663.57	66.036
1665.1	65.1664
1666.63	63.9682
1668.16	62.3314
1669.69	60.4129
1671.21	58.8123
1672.74	58.0071
1674.27	56.3527
1675.79	54.0621
1677.32	51.6897
1678.85	50.718
1680.37	49.3393
1681.9	47.76
1683.42	44.8457
1684.95	42.0631
1686.47	40.1828
1688	38.3752
1689.52	36.3106
1691.05	34.0236
1692.57	31.3003
1694.1	29.5917
1695.62	28.4476
1697.14	26.3494
1698.66	24.3436
1700.19	23.9305
1701.71	22.5546
1703.23	21.8128
1704.75	20.6211
1706.27	19.3307
1707.79	17.3736
1709.32	16.6784
1710.83	15.8036
1712.35	14.7762
1713.88	13.5708
1715.39	13.1328
1716.91	12.7423
1718.43	11.3394
1719.95	11.0364
1721.47	10.7848
1722.99	9.67148
1724.5	8.6086
1726.02	7.29289
1727.54	7.03114
1729.06	6.39071
1730.57	5.75338
1732.09	5.97577
1733.61	4.96326
1735.12	3.89345
1736.64	3.31522
1738.15	3.07769
1739.67	3.04645
1741.18	2.97141
1742.7	2.64476
1744.21	2.96436
1745.72	2.83001
1747.24	3.07051
1748.75	3.27046
1750.26	2.15664
1751.78	1.90475
1753.29	2.6004
1754.8	2.38788
1756.31	2.28612
1757.82	1.94535
1759.34	1.86626
1760.85	2.26159
1762.36	2.429
1763.87	1.82896
1765.38	1.46854
1766.89	1.23712
1768.4	1.13522
1769.91	2.03755
1771.41	1.56241
1772.92	1.66237
1774.43	1.90003
1775.94	1.98178
1777.45	1.98326
1778.96	2.19995
1780.46	2.1144
1781.97	2.23871
1783.48	2.62737
1784.98	3.03555
1786.49	2.91462
1788	2.76759
1789.5	3.19589
1791.01	3.42509
1792.51	3.64404
1794.01	3.91746
1795.52	4.35834
1797.02	4.38796
1798.53	4.09599
1800.03	4.03121
1801.54	3.67937
1803.04	4.14721
1804.54	3.28242
1806.04	3.05421
1807.54	2.98632
1809.05	2.68344
1810.55	2.69555
1812.05	2.66304
1813.55	2.52423
1815.05	2.31278
1816.55	1.89697
1818.05	1.90361
1819.55	2.0739
1821.05	2.23648
1822.55	2.36029
1824.05	2.25472
1825.55	1.92241
1827.05	2.53096
1828.55	3.09782
1830.04	3.50871
1831.54	3.80228
1833.04	3.55352
1834.54	3.499
1836.03	3.61557
1837.53	3.64389
1839.03	2.93879
1840.52	3.24451
1842.02	3.54697
1843.51	3.5536
1845.01	4.09952
1846.5	3.91076
1848	3.81629
1849.49	3.65051
1850.99	4.1735
1852.48	3.78755
1853.97	3.79917
1855.47	4.18479
1856.96	3.9827
1858.45	3.82832
1859.94	3.57023
1861.44	4.29702
1862.93	4.14239
1864.42	4.10031
1865.91	3.91063
1867.4	4.06174
1868.89	4.11974
1870.38	3.40496
1871.87	2.45893
1873.36	1.48688
1874.85	0.91797
1876.34	0.654674
1877.83	0.557585
1879.32	-0.261704
1880.81	0.115366
1882.3	0.0609209
1882.56	0.048273
1884.06	-0.339674
1885.55	-0.769457
1887.04	-0.917109
1888.54	-0.999087
1890.03	-0.819984
1891.52	-1.03452
1893.02	-0.64386
1894.51	-0.255007
1896	-0.663722
1897.49	0.411301
1898.99	1.2146
1900.48	1.74195
1901.97	1.90117
1903.46	1.93223
1904.95	2.02815
1906.44	2.30165
1907.93	2.86792
1909.42	3.07115
1910.91	3.20137
1912.4	3.21332
1913.89	3.27892
1915.38	2.80876
1916.86	3.3438
1918.35	3.80985
1919.84	3.94932
1921.33	3.52055
1922.82	4.07155
1924.3	4.46439
1925.79	4.40672
1927.28	5.23565
1928.76	5.17211
1930.25	4.86905
1931.74	5.04964
1933.22	5.29294
1934.71	5.34765
1936.19	5.57435
1937.67	5.62404
1939.16	5.69364
1940.64	5.17403
1942.13	5.12778
1943.61	4.65357
1945.09	4.49035
1946.58	5.34865
1948.06	5.18398
1949.54	4.62718
1951.03	4.17937
1952.51	4.45403
1953.99	4.75839
1955.47	4.41703
1956.95	3.75471
1958.43	3.67826
1959.91	3.64675
1961.39	3.57515
1962.87	3.80372
1964.35	4.01998
1965.83	4.26927
1967.31	4.80767
1968.79	4.63192
1970.27	4.06139
1971.75	4.28607
1973.22	4.02492
1974.7	3.42951
1976.18	3.69273
1977.66	3.43497
1979.13	3.39175
1980.61	3.44492
1982.09	2.56414
1983.56	2.12158
1985.04	1.48207
1986.52	1.74252
1987.99	1.53154
1989.47	1.53271
1990.94	2.27149
1992.41	1.76613
1993.89	1.63242
1995.36	2.43713
1996.84	3.27666
1998.31	3.60951
1999.78	4.02654
2001.26	3.41296
2002.73	3.15264
2004.2	3.74809
2005.67	3.99883
2007.15	4.18652
2008.62	4.85958
2010.09	4.6671
2011.56	4.54118
2013.03	4.77084
2014.5	5.67409
2015.97	6.16241
2017.44	6.43381
2018.91	6.84888
2020.38	7.48701
2021.85	6.91596
2023.32	6.75252
2024.79	6.80403
2026.25	7.37299
2027.72	6.83557
2029.19	6.71071
2030.66	6.37279
2032.13	6.91221
2033.59	7.09859
2035.06	7.15493
2036.53	7.45904
2037.99	7.13552
2039.46	7.02816
2040.92	6.65015
2042.39	5.89021
2043.85	5.87607
2045.32	6.56
2046.78	6.67461
2048.25	7.02113
2049.71	7.13051
2051.18	7.31079
2052.64	8.05135
2054.1	7.81816
2055.56	7.10495
2057.03	8.17168
2058.49	8.34919
2059.95	9.66942
2061.42	9.34183
2062.88	9.34979
2064.34	10.8638
2065.8	10.8713
2067.26	12.0421
2068.72	13.2092
2070.18	13.4871
2071.64	14.0918
2073.1	14.5912
2074.56	14.8243
2076.02	15.7781
2077.48	16.8297
2078.94	17.8385
2080.39	18.7341
2081.85	19.4998
2083.31	20.3393
2084.77	22.392
2086.22	23.0571
2087.68	24.4447
2089.14	24.7129
2090.6	25.5803
2092.05	26.8341
2093.51	27.0714
2094.96	26.9156
2096.42	27.8322
2097.87	29.0919
2099.33	29.7746
2100.78	30.303
2102.24	31.7723
2103.69	32.2421
2105.15	33.7124
2106.6	34.4297
2108.05	34.9052
2109.51	35.99
2110.96	37.0699
2112.41	37.9078
2113.86	39.2247
2115.32	39.7287
2116.77	42.0818
2118.22	43.2999
2119.67	44.3217
2121.12	45.8251
2122.57	46.4982
2124.02	48.2397
2125.47	49.3839
2126.92	50.7724
2128.37	52.6745
2129.82	54.8459
2131.27	56.2437
2132.72	57.8677
