#Acq. time (s)=	45
#Accumulations=	2
#Range (cm-¹)=	200...3150
#Windows=	2
#Auto scanning=	Off
#Autofocus=	Off
#Macrospot=	Off
#AutoExposure=	Off
#Spike filter=	Multiple accum.
#Delay time (s)=	0
#Binning=	1
#Readout mode=	Signal
#DeNoise=	Off
#ICS correction=	On
#Dark correction=	Off
#Inst. Process=	Off
#Detector Gain=	Best Dynamic Range
#Detector ADC=	20 kHz       
#Detector temperature (°C)=	-69.85
#Instrument=	LabRAM HR Evol
#Detector=	Synapse
#Objective=	x100
#Grating=	600 gr/mm
#ND Filter=	100%
#Laser (nm)=	532 
#Hole=	100.021
#Range=	Auto
#Laser Pol.=	No
#Raman. Pol.=	No
#Laser Pol. (°)=	-0.0007625
#Raman Pol. (°)=	89.9995
#Collection=	Microscope
#StageXY=	Marzhauser
#StageZ=	Marzhauser
#X (µm)=	-5128.4
#Y (µm)=	1529.7
#Z (µm)=	63.4
#Full time(mm:ss)=	3:18
#Project=	
#Sample=	
#Site=	
#Title=	Thy_50_12_39_2x_45s_532 nm_x100_100%_600 gr_mm
#Remark=	
#Date=	07.07.2022 12:07
#Acquired=	07.07.2022 12:07:46
#Base:Fit=	10.08.2022 10:04:30
#Base:Sub=	10.08.2022 10:04:45
#Filter:Polynom=	16.08.2022 10:20:25
#AxisType[0]=Intens
#AxisUnit[0]=Cnt
#AxisType[1]=Spectr
#AxisUnit[1]=1/cm
200.43	45.9324
202.246	40.9301
204.061	36.506
205.875	32.3559
207.688	28.6837
209.501	25.8448
211.316	23.6561
213.129	22.4711
214.941	20.6321
216.753	18.7734
218.566	16.71
220.377	14.9475
222.188	14.3183
223.999	13.7257
225.809	13.8422
227.618	13.7736
229.43	12.6817
231.239	12.2555
233.047	11.9389
234.855	11.3111
236.663	10.4225
238.471	9.08265
240.278	8.72109
242.087	8.00472
243.894	7.64122
245.7	7.55994
247.506	7.53741
249.311	7.63455
251.116	7.43409
252.921	7.61471
254.725	8.13007
256.529	8.11551
258.333	8.79752
260.136	9.17229
261.939	8.29302
263.744	7.54616
265.546	8.24339
267.348	8.05484
269.15	7.97426
270.951	6.22781
272.752	5.02558
274.552	5.01492
276.353	5.59706
278.152	5.6168
279.952	6.06642
281.751	5.8907
283.55	5.55158
285.348	5.66511
287.146	5.94734
288.942	7.96936
290.739	7.8148
292.536	8.25952
294.333	10.277
296.129	11.898
297.925	13.1404
299.721	15.0534
301.516	15.6655
303.311	16.3386
305.106	15.9726
306.9	16.3705
308.694	16.8607
310.486	17.0895
312.279	17.343
314.072	17.6454
315.864	18.3183
317.656	17.9851
319.448	17.4525
321.24	17.9724
323.029	17.0907
324.819	16.8197
326.61	17.3985
328.4	17.1684
330.19	17.2358
331.977	17.1818
333.766	17.8447
335.555	18.0416
337.343	18.5898
339.131	17.5273
340.917	17.0204
342.704	16.7674
344.491	16.9387
346.277	16.7393
348.062	17.3795
349.848	16.5609
351.633	16.1089
353.416	15.9678
355.201	15.5192
356.986	14.8179
358.77	14.8331
360.552	13.9125
362.335	14.2693
364.118	14.7449
365.899	14.1805
367.682	13.7209
369.464	13.5454
371.243	13.8977
373.025	13.604
374.806	13.7656
376.585	14.0168
378.365	14.6308
380.143	14.5246
381.923	15.1566
383.702	15.9688
385.479	15.0432
387.258	14.5941
389.034	14.5489
390.812	13.3146
392.59	12.4663
394.365	11.3358
396.142	10.6773
397.916	9.39969
399.693	8.6457
401.467	9.41485
403.242	10.6283
405.015	10.5162
406.79	10.7182
408.565	11.0553
410.337	12.0717
412.111	12.2663
413.882	13.1685
415.656	13.5604
417.426	12.5496
419.197	13.9278
420.969	15.0808
422.739	15.7277
424.51	16.4729
426.279	16.5595
428.05	15.8746
429.819	17.0182
431.589	17.0314
433.356	17.7477
435.124	18.028
436.893	18.8432
438.66	18.8855
440.428	18.6479
442.194	19.1329
443.96	18.8878
445.727	19.7126
447.492	20.3153
449.259	20.1667
451.023	20.0259
452.787	20.1835
454.553	19.9485
456.316	19.7781
458.079	19.2121
459.844	19.5012
461.606	18.4528
463.368	19.7656
465.132	20.5485
466.893	20.7043
468.654	20.9753
470.415	20.1429
472.177	20.8003
473.937	21.2557
475.696	22.2045
477.456	22.6517
479.217	22.5307
480.975	21.7133
482.733	21.5954
484.491	22.291
486.251	22.9653
488.008	23.9077
489.765	25.0822
491.522	25.5845
493.278	25.3289
495.036	25.9615
496.791	26.3096
498.546	26.7835
500.301	26.1585
502.056	26.013
503.81	26.128
505.566	25.8082
507.319	26.8164
509.073	25.7001
510.825	25.7379
512.578	25.6044
514.33	25.3617
516.082	25.2091
517.833	24.4604
519.587	23.6806
521.337	23.7295
523.088	24.433
524.838	24.5584
526.588	24.0954
528.337	22.8982
530.087	22.5184
531.835	20.9783
533.584	20.5771
535.332	20.8368
537.08	19.7113
538.827	19.3057
540.574	19.9439
542.321	19.411
544.068	18.3656
545.814	18.5298
547.56	18.3914
549.305	18.1494
551.05	18.4222
552.795	17.2737
554.54	15.7027
556.284	15.1458
558.027	14.1503
559.771	14.5486
561.514	13.4012
563.257	12.6281
564.999	11.3111
566.742	10.2663
568.481	9.90547
570.223	9.67678
571.964	9.83133
573.705	9.96669
575.445	9.65032
577.185	8.97371
578.925	9.01002
580.665	8.88733
582.402	9.25452
584.141	9.76942
585.879	9.46397
587.617	8.64294
589.355	8.11507
591.092	7.3933
592.828	6.48374
594.564	6.71367
596.301	5.57174
598.037	6.5022
599.773	7.34245
601.506	7.44009
603.242	7.43304
604.976	7.13054
606.711	7.7228
608.443	8.05467
610.177	8.4306
611.91	7.41501
613.644	7.26949
615.374	7.0897
617.107	8.08617
618.839	8.35524
620.569	8.84956
622.3	9.93803
624.032	9.91524
625.761	10.0854
627.491	10.4952
629.221	9.36499
630.949	9.51351
632.679	9.48574
634.408	8.77285
636.135	8.86256
637.863	8.69151
639.592	8.42569
641.318	8.4843
643.045	8.71778
644.77	9.25684
646.497	9.61061
648.224	10.4361
649.948	10.7704
651.674	10.6886
653.398	11.226
655.123	12.1455
656.846	13.085
658.57	13.1828
660.293	13.8565
662.017	13.4263
663.738	13.8571
665.462	15.361
667.185	15.8217
668.905	17.25
670.628	18.3355
672.348	18.6087
674.067	18.6107
675.789	19.2793
677.508	19.8767
679.228	20.8372
680.947	22.4465
682.667	23.845
684.385	26.6011
686.104	27.4999
687.821	27.408
689.538	28.6213
691.256	29.4545
692.972	30.0268
694.69	31.0878
696.406	32.5096
698.121	34.5725
699.837	35.8351
701.552	37.2991
703.268	38.5729
704.982	39.9833
706.695	41.5471
708.41	42.4803
710.123	43.9187
711.836	45.0932
713.55	46.3634
715.262	47.0426
716.973	47.793
718.685	48.1691
720.398	48.7635
722.108	49.4068
723.818	49.5016
725.53	49.7618
727.24	50.1082
728.949	50.1013
730.658	51.1046
732.369	51.3764
734.077	50.9071
735.785	50.413
737.493	51.0992
739.2	52.6578
740.909	53.1106
742.616	53.5205
744.322	52.9215
746.028	54.2845
747.734	55.2092
749.441	56.8431
751.146	57.3757
752.851	58.3238
754.555	59.7493
756.26	61.0362
757.963	61.4587
759.667	62.5231
761.372	63.4084
763.075	63.58
764.777	64.5984
766.479	65.166
768.181	65.2294
769.883	66.1081
771.584	65.9902
773.285	66.086
774.986	66.6187
776.686	66.6885
778.386	66.9904
780.085	68.314
781.785	69.9116
783.484	70.8531
785.182	71.1359
786.881	72.7678
788.579	74.1968
790.276	75.6222
791.974	76.9145
793.671	77.9948
795.367	79.0993
797.064	79.2624
798.76	79.6629
800.456	79.456
802.151	78.0029
803.846	78.6002
805.541	78.8088
807.236	78.8845
808.93	78.2483
810.624	78.3392
812.317	78.0922
814.01	78.4077
815.703	78.9555
817.394	78.5352
819.086	78.612
820.778	79.3377
822.47	79.1056
824.161	78.9646
825.852	78.3647
827.543	78.7318
829.231	77.9438
830.921	78.3427
832.611	78.6247
834.3	78.0999
835.989	77.4801
837.676	77.5695
839.364	77.5518
841.053	76.8365
842.74	74.5445
844.426	72.6628
846.113	70.58
847.8	68.5433
849.486	66.7232
851.171	64.3991
852.857	62.2066
854.542	61.3862
856.227	59.1673
857.911	57.5282
859.595	56.5042
861.279	55.5195
862.961	54.7926
864.645	54.5892
866.329	54.1191
868.01	53.5969
869.692	53.7543
871.375	53.0487
873.055	52.7309
874.737	52.1245
876.418	50.6981
878.097	49.8322
879.778	47.987
881.457	46.8961
883.137	46.9901
884.817	46.6214
886.495	45.9079
888.174	45.6829
889.851	45.1146
891.53	44.7781
893.206	44.1728
894.884	45.4795
896.562	44.9426
898.237	46.006
899.914	46.7111
901.589	46.3588
903.265	46.6064
904.94	46.4318
906.615	46.7743
908.289	47.7431
909.964	48.3879
911.637	48.0216
913.31	47.5397
914.984	47.5773
916.656	47.1839
918.33	46.5482
920.001	46.432
921.674	46.3926
923.345	45.6018
925.015	44.6081
926.687	44.1017
928.357	44.2167
930.028	44.4638
931.698	43.8422
933.366	43.0877
935.037	42.7676
936.705	42.7637
938.373	42.7687
940.043	41.7868
941.71	40.5341
943.379	40.213
945.046	39.5187
946.712	40.0789
948.378	41.3631
950.046	41.367
951.711	42.4859
953.376	41.0545
955.043	40.2351
956.708	40.3584
958.372	39.0788
960.036	37.8226
961.701	38.5194
963.364	37.3498
965.027	38.991
966.69	39.8092
968.354	40.2607
970.016	39.8175
971.678	40.2479
973.339	41.332
975	40.9974
976.661	40.669
978.324	40.4994
979.984	38.6455
981.644	39.1811
983.303	38.2366
984.962	37.6501
986.621	38.3555
988.282	38.0463
989.94	37.4251
991.598	36.111
993.256	34.1887
994.913	33.2721
996.57	33.6436
998.227	33.8084
999.884	33.9823
1001.54	34.5791
1003.2	34.5429
1004.85	34.6737
1006.51	34.2931
1008.16	34.246
1009.82	34.7346
1011.47	35.9743
1013.12	35.5508
1014.78	35.7379
1016.43	34.9056
1018.08	34.8181
1019.74	34.8605
1021.39	34.7448
1023.04	35.5681
1024.69	36.3702
1026.34	37.6792
1028	38.6292
1029.65	40.4515
1031.3	41.6085
1032.95	41.7368
1034.6	41.7093
1036.25	40.7148
1037.9	41.8526
1039.55	41.4545
1041.19	41.6136
1042.84	41.9662
1044.49	43.783
1046.14	45.5443
1047.79	47.4006
1049.43	47.964
1051.08	47.3498
1052.73	46.8625
1054.37	46.2863
1056.02	44.7061
1057.66	43.5085
1059.31	42.8422
1060.95	43.1425
1062.6	42.3886
1064.24	42.1644
1065.88	41.6998
1067.53	41.3457
1069.17	39.9543
1070.81	38.848
1072.46	37.084
1074.1	35.4173
1075.74	35.972
1077.38	36.372
1079.02	36.6665
1080.66	35.9824
1082.3	35.0882
1083.94	34.4041
1085.58	33.5011
1087.22	32.213
1088.86	31.1829
1090.5	30.7278
1092.14	31.2061
1093.78	31.0823
1095.42	29.3873
1097.05	29.0836
1098.69	27.616
1100.33	27.3268
1101.97	27.3414
1103.6	26.5725
1105.24	25.992
1106.87	25.9272
1108.51	25.1053
1110.15	24.7572
1111.78	25.4401
1113.41	25.6297
1115.05	24.0266
1116.68	23.568
1118.31	23.2987
1119.95	22.484
1121.58	21.408
1123.21	22.1409
1124.85	21.5563
1126.48	21.8661
1128.11	20.5819
1129.74	18.628
1131.37	16.9572
1133	15.5776
1134.63	15.5574
1136.26	13.9201
1137.89	12.5926
1139.52	12.437
1141.15	10.9069
1142.78	10.3782
1144.41	7.99299
1146.04	7.78325
1147.66	7.85127
1149.29	7.25691
1150.92	6.73506
1152.55	7.51956
1154.17	6.55868
1155.8	6.91915
1157.43	7.01004
1159.05	5.2233
1160.68	5.19637
1162.3	4.27134
1163.93	4.47951
1165.55	4.3637
1167.17	4.39021
1168.8	4.13748
1170.42	4.6192
1172.05	5.44594
1173.67	5.61343
1175.29	5.05699
1176.91	5.13405
1178.54	5.87449
1180.16	6.04391
1181.78	7.38619
1183.4	8.43973
1185.02	9.15182
1186.64	9.81942
1188.26	10.8318
1189.88	10.735
1191.5	12.4367
1193.12	13.7447
1194.74	13.2964
1196.36	11.7612
1197.97	12.5137
1199.59	13.26
1201.21	13.3877
1202.83	14.3885
1204.44	14.9421
1206.06	14.5406
1207.68	14.3895
1209.29	14.9818
1210.91	16.593
1212.52	17.8323
1214.14	19.4058
1215.75	20.4931
1217.37	21.3548
1218.98	22.7995
1220.6	24.4079
1222.21	25.3289
1223.82	27.7183
1225.44	29.237
1227.05	32.2045
1228.66	34.243
1230.27	35.504
1231.88	37.3254
1233.49	38.2823
1235.1	39.2115
1236.72	40.6587
1238.33	41.7652
1239.94	44.3158
1241.55	47.0101
1243.16	47.8314
1244.76	49.7481
1246.37	50.0521
1247.98	51.6169
1249.59	52.8326
1251.2	54.7511
1252.8	56.2629
1254.41	57.4504
1256.02	59.6918
1257.63	61.9876
1259.23	63.5769
1260.84	65.1108
1262.44	67.4286
1264.05	68.2139
1265.66	69.8579
1267.26	69.4939
1268.87	71.2498
1270.47	72.6257
1272.07	73.4062
1273.68	73.7005
1275.28	74.0632
1276.88	74.8372
1278.48	76.4151
1280.09	78.7911
1281.69	79.5405
1283.29	80.0857
1284.89	79.9305
1286.49	80.7378
1288.09	81.4812
1289.69	83.3743
1291.3	83.2616
1292.9	83.7922
1294.49	84.7777
1296.09	85.6479
1297.69	85.9979
1299.29	86.6988
1300.89	85.6143
1302.49	85.6817
1304.09	85.9669
1305.68	85.8838
1307.28	86.6559
1308.88	86.4683
1310.47	86.4548
1312.07	86.3498
1313.66	85.8228
1315.26	85.8269
1316.86	85.1218
1318.45	85.2154
1320.05	85.4177
1321.64	84.3291
1323.23	83.3176
1324.83	83.8302
1326.42	83.8826
1328.01	84.2593
1329.61	83.2278
1331.2	83.0043
1332.79	82.0156
1334.38	82.0022
1335.98	81.8198
1337.57	81.2083
1339.16	80.275
1340.75	80.2087
1342.34	79.299
1343.93	77.4304
1345.52	77.1361
1347.11	74.8344
1348.7	75.1096
1350.29	74.1554
1351.87	72.0254
1353.46	70.7763
1355.05	70.1639
1356.64	68.8443
1358.23	67.8323
1359.81	67.5721
1361.4	66.1074
1362.99	64.0191
1364.57	61.213
1366.16	60.5399
1367.74	59.9953
1369.33	58.3918
1370.91	57.0201
1372.5	56.9181
1374.08	56.0273
1375.67	54.7448
1377.25	53.4968
1378.83	51.6464
1380.42	50.7854
1382	51.1519
1383.58	50.9976
1385.16	51.4625
1386.75	52.3771
1388.33	52.2047
1389.91	52.4489
1391.49	51.7689
1393.07	51.8141
1394.65	51.2216
1396.23	51.4213
1397.81	51.874
1399.39	51.5901
1400.97	52.0025
1402.55	52.3253
1404.13	53.1426
1405.7	53.1881
1407.28	53.7168
1408.86	54.3757
1410.44	56.1361
1412.01	57.259
1413.59	58.7866
1415.17	60.2851
1416.74	60.965
1418.32	62.7559
1419.89	64.8128
1421.47	66.5459
1423.05	69.2451
1424.62	71.8372
1426.19	73.5136
1427.77	76.8875
1429.34	79.8141
1430.92	82.0782
1432.49	85.0851
1434.06	88.2791
1435.63	90.6918
1437.2	92.8458
1438.78	94.4376
1440.35	95.1715
1441.92	95.2262
1443.49	96.2924
1445.06	98.6687
1446.63	99.0577
1448.2	98.9373
1449.77	99.5428
1451.34	99.5375
1452.91	98.6521
1454.48	97.81
1456.05	96.6631
1457.62	95.1759
1459.18	93.6478
1460.75	91.284
1462.32	88.7847
1463.89	86.1001
1465.45	83.0894
1467.02	78.7858
1468.59	75.0417
1470.15	71.2483
1471.72	67.7302
1473.28	63.653
1474.85	60.9719
1476.41	57.3245
1477.98	53.8328
1479.54	50.4071
1481.11	46.4468
1482.67	42.8572
1484.23	38.9291
1485.8	36.976
1487.36	33.6093
1488.92	30.992
1490.48	28.1765
1492.05	26.3424
1493.61	25.0016
1495.17	23.9476
1496.73	24.4995
1498.29	22.5758
1499.85	21.9082
1501.41	22.0735
1502.97	21.7259
1504.53	22.6107
1506.09	23.2139
1507.65	23.6257
1509.2	23.3368
1510.76	23.4346
1512.32	24.0637
1513.88	24.2588
1515.44	24.1694
1516.99	24.4773
1518.55	25.3364
1520.1	26.9554
1521.66	28.9172
1523.22	29.8929
1524.77	31.234
1526.33	32.6859
1527.88	33.6867
1529.44	33.6456
1530.99	33.896
1532.55	34.7089
1534.1	35.0583
1535.65	36.5961
1537.21	37.1222
1538.76	39.6398
1540.31	41.3008
1541.86	42.6736
1543.42	44.6009
1544.97	46.7121
1546.52	48.6996
1548.07	50.0757
1549.62	52.0234
1551.17	53.6387
1552.72	54.9623
1554.27	55.8889
1555.82	57.6126
1557.37	58.6444
1558.92	59.9545
1560.47	61.5628
1562.02	63.5914
1563.57	66.429
1565.11	67.5796
1566.66	68.8549
1568.21	69.9863
1569.75	71.4187
1571.3	72.8992
1572.85	74.4655
1574.39	75.5588
1575.94	75.6753
1577.49	77.7617
1579.03	79.0817
1580.58	79.9954
1582.12	80.6536
1583.67	80.5233
1585.21	80.6819
1586.75	81.0428
1588.3	81.3721
1589.84	81.3715
1591.38	81.0771
1592.93	81.2837
1594.47	81.3125
1596.01	81.1878
1597.55	80.9703
1599.09	79.6577
1600.63	78.2072
1602.18	77.58
1603.72	77.1387
1605.26	76.2647
1606.8	75.7245
1608.34	76.6463
1609.87	75.5999
1611.41	76.1898
1612.95	76.3742
1614.49	76.1998
1616.03	76.7943
1617.57	75.6491
1619.11	74.3361
1620.64	75.0745
1622.18	75.2877
1623.72	75.079
1625.25	76.206
1626.79	77.6249
1628.32	77.492
1629.86	77.447
1631.4	78.6512
1632.93	79.6553
1634.47	80.9064
1636	82.2396
1637.53	83.7506
1639.07	85.2816
1640.6	85.7494
1642.14	86.2607
1643.67	86.0913
1645.2	87.8059
1646.73	88.3038
1648.27	88.5312
1649.8	89.1316
1651.33	88.8877
1652.86	88.1071
1654.39	87.8435
1655.92	87.2983
1657.45	86.3056
1658.98	85.3699
1660.51	84.5966
1662.04	84.1637
1663.57	82.6682
1665.1	80.7221
1666.63	79.081
1668.16	77.0317
1669.69	75.8165
1671.21	73.2772
1672.74	70.1483
1674.27	68.3865
1675.79	66.2572
1677.32	64.5137
1678.85	62.7712
1680.37	60.7161
1681.9	57.5439
1683.42	55.739
1684.95	52.8706
1686.47	49.6063
1688	48.4055
1689.52	45.7604
1691.05	42.6049
1692.57	40.4473
1694.1	37.8703
1695.62	36.603
1697.14	35.7838
1698.66	34.1822
1700.19	33.7267
1701.71	32.3518
1703.23	30.113
1704.75	28.6948
1706.27	27.7066
1707.79	27.0053
1709.32	25.8028
1710.83	24.7695
1712.35	22.6987
1713.88	21.0496
1715.39	19.9758
1716.91	18.1549
1718.43	18.023
1719.95	17.47
1721.47	16.7703
1722.99	15.2736
1724.5	14.6893
1726.02	14.2494
1727.54	13.1267
1729.06	12.7252
1730.57	12.4451
1732.09	11.831
1733.61	11.3862
1735.12	11.2995
1736.64	10.4039
1738.15	9.76978
1739.67	9.17453
1741.18	8.92942
1742.7	9.17248
1744.21	8.96072
1745.72	9.16388
1747.24	8.52245
1748.75	7.2015
1750.26	6.38942
1751.78	6.60557
1753.29	6.5566
1754.8	6.76441
1756.31	7.04815
1757.82	7.85552
1759.34	8.40652
1760.85	8.32778
1762.36	9.09532
1763.87	9.57856
1765.38	9.90539
1766.89	9.45628
1768.4	10.3819
1769.91	10.3694
1771.41	10.9772
1772.92	10.5355
1774.43	10.4195
1775.94	10.7122
1777.45	9.72572
1778.96	9.5499
1780.46	9.38629
1781.97	8.52705
1783.48	8.04486
1784.98	7.66287
1786.49	7.19569
1788	6.95279
1789.5	6.97331
1791.01	7.27581
1792.51	6.92491
1794.01	6.99737
1795.52	6.40516
1797.02	5.64249
1798.53	5.87043
1800.03	5.54906
1801.54	5.06522
1803.04	5.47826
1804.54	4.80497
1806.04	4.08894
1807.54	3.38089
1809.05	3.18505
1810.55	2.41164
1812.05	2.46625
1813.55	2.29243
1815.05	2.0846
1816.55	1.88489
1818.05	1.89967
1819.55	1.15337
1821.05	0.364486
1822.55	0.0422828
1824.05	-0.389232
1825.55	0.563018
1827.05	2.04007
1828.55	2.46633
1830.04	2.88694
1831.54	3.22215
1833.04	3.61427
1834.54	3.18876
1836.03	3.38778
1837.53	3.56836
1839.03	3.65164
1840.52	3.89889
1842.02	3.40157
1843.51	3.92402
1845.01	4.61241
1846.5	4.82491
1848	5.19031
1849.49	5.32456
1850.99	5.35756
1852.48	5.48758
1853.97	5.28859
1855.47	4.90179
1856.96	4.33041
1858.45	4.29644
1859.94	3.57807
1861.44	3.22731
1862.93	3.54934
1864.42	3.40109
1865.91	2.71585
1867.4	3.00111
1868.89	3.41399
1870.38	3.58614
1871.87	3.58089
1873.36	3.73258
1874.85	3.80287
1876.34	4.30664
1877.83	4.24609
1879.32	3.02031
1880.81	2.82121
1882.3	3.03694
1882.56	3.48637
1884.06	3.2495
1885.55	3.78156
1887.04	3.93001
1888.54	4.22114
1890.03	5.14023
1891.52	4.67009
1893.02	4.78064
1894.51	5.59686
1896	5.11344
1897.49	5.10632
1898.99	5.24965
1900.48	5.09861
1901.97	5.30244
1903.46	5.36718
1904.95	5.25418
1906.44	5.17256
1907.93	5.05447
1909.42	5.0854
1910.91	5.29252
1912.4	5.88729
1913.89	4.99382
1915.38	4.76242
1916.86	4.36513
1918.35	4.0009
1919.84	3.36678
1921.33	2.94841
1922.82	2.49404
1924.3	2.24723
1925.79	2.20195
1927.28	1.40814
1928.76	0.749128
1930.25	0.452945
1931.74	0.707547
1933.22	0.595815
1934.71	0.849569
1936.19	1.28973
1937.67	0.779998
1939.16	0.70302
1940.64	1.18184
1942.13	1.52221
1943.61	1.49716
1945.09	1.64306
1946.58	2.627
1948.06	2.68887
1949.54	2.18019
1951.03	1.78947
1952.51	1.51279
1953.99	2.25188
1955.47	3.08251
1956.95	2.89875
1958.43	3.08486
1959.91	3.48329
1961.39	3.66499
1962.87	4.16934
1964.35	4.47556
1965.83	4.54735
1967.31	4.28675
1968.79	4.32125
1970.27	3.30928
1971.75	4.53182
1973.22	4.80188
1974.7	4.67256
1976.18	5.01598
1977.66	5.46614
1979.13	4.57506
1980.61	4.20509
1982.09	4.01292
1983.56	3.98686
1985.04	3.62027
1986.52	3.31911
1987.99	2.50675
1989.47	2.60302
1990.94	2.92904
1992.41	3.63774
1993.89	3.52963
1995.36	4.30706
1996.84	4.60811
1998.31	4.26927
1999.78	4.58962
2001.26	4.4229
2002.73	4.59087
2004.2	5.56328
2005.67	5.79971
2007.15	6.16119
2008.62	6.26092
2010.09	5.76059
2011.56	5.49897
2013.03	5.57385
2014.5	5.62824
2015.97	6.62254
2017.44	6.52989
2018.91	6.74132
2020.38	6.76169
2021.85	6.30171
2023.32	6.25752
2024.79	6.96216
2026.25	7.01985
2027.72	7.49329
2029.19	8.07312
2030.66	8.87387
2032.13	9.13428
2033.59	9.43829
2035.06	10.3788
2036.53	10.8343
2037.99	10.7886
2039.46	10.9152
2040.92	10.249
2042.39	11.4263
2043.85	11.8334
2045.32	12.8622
2046.78	12.8666
2048.25	12.6154
2049.71	12.1165
2051.18	12.0601
2052.64	12.0575
2054.1	12.8043
2055.56	13.1375
2057.03	13.8374
2058.49	13.8762
2059.95	14.4375
2061.42	14.5355
2062.88	14.8062
2064.34	15.9558
2065.8	16.1527
2067.26	16.7616
2068.72	17.5998
2070.18	18.4413
2071.64	19.0406
2073.1	19.7301
2074.56	20.491
2076.02	22.2427
2077.48	23.8472
2078.94	24.4728
2080.39	26.22
2081.85	26.9666
2083.31	27.5808
2084.77	28.9068
2086.22	30.1359
2087.68	32.2072
2089.14	33.541
2090.6	34.3764
2092.05	35.6492
2093.51	37.1899
2094.96	38.6655
2096.42	40.5229
2097.87	42.7758
2099.33	44.8879
2100.78	46.8403
2102.24	48.9567
2103.69	50.3697
2105.15	51.5542
2106.6	53.9699
2108.05	55.5407
2109.51	57.9093
2110.96	59.6351
2112.41	61.4763
2113.86	63.3504
2115.32	65.4971
2116.77	66.4656
2118.22	68.3495
2119.67	69.7353
2121.12	70.5609
2122.57	72.3209
2124.02	74.72
2125.47	77.1873
2126.92	79.0743
2128.37	80.5572
2129.82	82.2681
2131.27	83.89
2132.72	85.567
2134.17	87.1992
2135.62	89.6737
