#Acq. time (s)=	45
#Accumulations=	2
#Range (cm-¹)=	200...3150
#Windows=	2
#Auto scanning=	Off
#Autofocus=	Off
#Macrospot=	Off
#AutoExposure=	Off
#Spike filter=	Multiple accum.
#Delay time (s)=	0
#Binning=	1
#Readout mode=	Signal
#DeNoise=	Off
#ICS correction=	On
#Dark correction=	Off
#Inst. Process=	Off
#Detector Gain=	Best Dynamic Range
#Detector ADC=	20 kHz       
#Detector temperature (°C)=	-69.85
#Instrument=	LabRAM HR Evol
#Detector=	Synapse
#Objective=	x100
#Grating=	600 gr/mm
#ND Filter=	100%
#Laser (nm)=	532 
#Hole=	100.021
#Range=	Auto
#Laser Pol.=	No
#Raman. Pol.=	No
#Laser Pol. (°)=	-0.0007625
#Raman Pol. (°)=	89.9995
#Collection=	Microscope
#StageXY=	Marzhauser
#StageZ=	Marzhauser
#X (µm)=	4766.5
#Y (µm)=	-7711
#Z (µm)=	584.65
#Full time(mm:ss)=	3:19
#Project=	
#Sample=	
#Site=	
#Title=	Thy_30_10_28_2x_45s_532 nm_x100_100%_600 gr_mm
#Remark=	
#Date=	30.06.2022 13:29
#Acquired=	30.06.2022 13:29:11
#Base:Fit=	10.08.2022 09:58:11
#Base:Sub=	10.08.2022 09:58:44
#Filter:Polynom=	16.08.2022 10:22:53
#AxisType[0]=Intens
#AxisUnit[0]=Cnt
#AxisType[1]=Spectr
#AxisUnit[1]=1/cm
200.533	0.534101
202.348	1.70175
204.162	2.34004
205.976	2.51192
207.792	2.87693
209.605	3.25604
211.418	3.66627
213.23	4.78915
215.044	4.95812
216.856	5.48722
218.667	5.8201
220.478	6.7573
222.289	6.99596
224.102	7.92141
225.912	9.0214
227.721	9.37194
229.531	9.11973
231.34	9.57915
233.148	9.30412
234.956	10.709
236.766	12.0529
238.574	12.9371
240.381	13.1395
242.188	13.5788
243.994	13.517
245.801	13.0992
247.606	12.4845
249.412	12.4898
251.217	12.7542
253.024	11.9635
254.828	13.3929
256.632	13.4171
258.436	11.907
260.239	11.5024
262.042	10.6151
263.845	10.6243
265.647	11.3067
267.449	12.0706
269.25	12.2657
271.052	12.0294
272.852	10.3242
274.653	9.39802
276.453	9.47404
278.253	9.1942
280.052	8.93375
281.852	9.20306
283.65	9.02357
285.449	8.98604
287.247	9.3876
289.044	9.17538
290.842	9.77296
292.639	9.42033
294.436	10.351
296.232	10.6421
298.028	10.3713
299.821	10.7403
301.617	11.3216
303.412	12.9832
305.206	12.7719
307	13.7694
308.794	15.0374
310.588	16.4732
312.381	16.2915
314.172	17.0749
315.964	17.5816
317.756	18.5634
319.548	18.6875
321.34	20.2056
323.131	20.8243
324.921	22.8577
326.71	21.9796
328.5	21.4559
330.29	21.4484
332.079	21.6793
333.868	20.9715
335.654	20.7693
337.443	20.3353
339.231	20.226
341.018	20.2946
342.804	19.8918
344.591	20.3313
346.377	18.7919
348.163	18.3421
349.947	18.8897
351.733	17.9932
353.518	18.5103
355.303	18.3853
357.085	17.7106
358.869	16.5341
360.653	16.1155
362.435	15.4672
364.218	16.384
366.001	16.7877
367.781	16.7449
369.563	16.8253
371.345	17.2858
373.124	16.8314
374.905	16.4746
376.686	16.3857
378.464	16.1367
380.244	15.0154
382.022	14.8975
383.801	15.5288
385.58	15.242
387.357	15.4727
389.135	15.6039
390.911	15.2905
392.689	15.3261
394.466	15.5705
396.241	15.8482
398.018	15.2393
399.792	14.3373
401.568	13.5324
403.341	14.1296
405.117	14.3005
406.889	13.8994
408.664	13.6195
410.436	14.5337
412.21	14.2024
413.981	14.3563
415.755	13.3206
417.525	14.673
419.298	14.5302
421.068	14.0655
422.84	13.0912
424.609	12.5672
426.38	11.8246
428.149	11.8263
429.919	12.6207
431.688	12.2563
433.455	12.1654
435.225	11.6926
436.992	11.5758
438.76	11.684
440.527	10.9112
442.293	11.6255
444.06	11.5008
445.826	11.1399
447.593	10.9062
449.357	11.0346
451.122	10.4356
452.888	10.3993
454.651	9.69678
456.415	9.60749
458.18	9.81402
459.942	10.157
461.705	9.3999
463.469	8.74361
465.23	8.81569
466.991	8.73952
468.752	8.709
470.515	8.93364
472.275	8.89241
474.035	9.07114
475.797	9.06575
477.556	9.67197
479.315	9.90697
481.073	10.4011
482.834	11.1344
484.592	10.6021
486.349	11.7325
488.106	12.5471
489.863	13.6983
491.622	14.9514
493.378	15.494
495.134	17.1618
496.889	18.8892
498.645	19.8897
500.401	20.021
502.156	20.7223
503.91	21.4535
505.664	22.4827
507.417	21.9523
509.171	22.9183
510.923	23.3633
512.678	23.6874
514.43	23.8059
516.182	23.8915
517.933	23.9446
519.684	23.0044
521.435	22.332
523.186	23.0032
524.936	22.9921
526.686	23.5703
528.435	22.9597
530.184	22.3849
531.933	22.1128
533.682	21.8793
535.43	21.0345
537.18	19.8857
538.927	18.2656
540.674	17.6133
542.421	15.9526
544.167	15.4948
545.913	14.1245
547.659	12.6945
549.403	11.3716
551.148	10.3509
552.893	10.1501
554.637	9.70673
556.381	9.1366
558.125	8.30704
559.868	7.68933
561.611	7.32019
563.354	6.76131
565.097	6.39191
566.839	4.72465
568.581	5.10889
570.322	5.1516
572.063	5.79953
573.802	5.59945
575.542	4.54413
577.283	4.92291
579.022	5.72102
580.762	6.34934
582.501	7.39163
584.24	7.3393
585.976	7.97326
587.714	8.39808
589.452	8.9164
591.19	9.05052
592.927	9.09788
594.663	9.52437
596.398	10.1747
598.134	10.173
599.87	9.9498
601.605	10.4881
603.338	10.8164
605.073	11.3591
606.808	11.4251
608.542	11.4953
610.274	12.3332
612.007	11.9112
613.74	11.6798
615.473	11.1013
617.204	11.0211
618.936	10.7758
620.668	10.3164
622.397	10.3146
624.128	10.2255
625.859	9.64334
627.588	11.0828
629.318	10.7236
631.048	12.1887
632.775	11.9923
634.505	12.4985
636.233	13.165
637.96	13.2375
639.688	13.6681
641.416	14.0699
643.142	14.5252
644.869	14.4319
646.594	14.9571
648.32	15.6628
650.045	16.2662
651.771	17.0751
653.496	17.8485
655.219	18.721
656.944	19.5842
658.667	20.9968
660.391	21.2847
662.113	22.2803
663.837	23.0747
665.558	24.5389
667.281	25.5128
669.002	26.2872
670.724	27.9912
672.444	28.2612
674.166	28.7085
675.885	29.801
677.606	30.4727
679.325	31.2079
681.045	31.6729
682.763	31.5755
684.483	32.3302
686.2	31.8046
687.917	32.41
689.636	32.1565
691.352	32.3787
693.07	32.4855
694.786	32.3062
696.501	33.1725
698.219	33.7713
699.933	33.6466
701.65	34.0988
703.364	33.5669
705.078	34.028
706.793	34.8633
708.506	35.7455
710.219	35.3819
711.934	36.0155
713.646	38.3885
715.358	38.7752
717.071	39.8244
718.782	40.3402
720.493	41.467
722.204	42.7319
723.916	43.7674
725.626	45.4254
727.336	46.2241
729.045	46.9571
730.756	47.7556
732.464	50.0002
734.173	51.194
735.881	52.7751
737.59	53.6209
739.297	54.4424
741.004	55.1626
742.711	57.6325
744.417	58.8552
746.125	59.5799
747.831	61.0811
749.537	62.7193
751.242	64.5589
752.946	66.5999
754.651	68.3153
756.357	69.8722
758.061	70.3213
759.764	71.8719
761.467	72.8718
763.17	72.4974
764.872	72.7402
766.575	73.7202
768.276	75.771
769.978	76.9073
771.679	76.978
773.382	78.5201
775.083	78.6569
776.783	79.3591
778.483	79.1252
780.182	79.0303
781.882	79.0963
783.581	78.5401
785.279	78.0561
786.978	78.2704
788.676	78.2342
790.373	79.3988
792.071	79.5488
793.768	80.7469
795.464	81.4307
797.161	82.6072
798.857	83.5421
800.552	83.1978
802.248	82.9225
803.941	83.728
805.636	83.5864
807.33	83.2765
809.024	83.4604
810.718	83.0112
812.412	81.8174
814.105	81.8767
815.798	81.4286
817.49	81.1569
819.183	80.3024
820.873	79.6278
822.564	78.9789
824.256	78.7741
825.947	78.7113
827.637	79.462
829.328	78.0629
831.016	78.0843
832.705	77.5157
834.395	77.4604
836.084	77.149
837.772	76.6203
839.459	76.5957
841.147	75.7175
842.835	74.1742
844.522	74.049
846.209	73.9838
847.894	73.308
849.581	73.0241
851.267	72.2866
852.953	71.0077
854.637	69.1413
856.322	67.6405
858.007	67.1028
859.689	65.611
861.374	64.7308
863.058	63.9611
864.739	62.6476
866.423	60.9385
868.106	60.2455
869.787	59.949
871.469	59.4754
873.151	59.2907
874.831	58.3718
876.512	57.4892
878.193	56.72
879.872	55.5162
881.553	54.777
883.231	53.7728
884.911	53.0891
886.591	52.8175
888.268	53.0253
889.947	52.234
891.623	51.4658
893.302	49.8271
894.978	49.0695
896.656	47.9709
898.331	48.1164
900.008	47.8071
901.683	48.2143
903.359	47.8874
905.033	47.8376
906.709	48.7179
908.383	48.5681
910.058	48.8373
911.731	49.8084
913.405	49.6463
915.078	50.3844
916.752	49.8399
918.423	50.5877
920.096	50.5468
921.768	50.8254
923.438	51.4706
925.111	50.4615
926.781	50.884
928.452	51.9339
930.122	50.8512
931.791	50.0502
933.462	49.6188
935.13	48.2181
936.799	47.8136
938.468	47.6657
940.136	47.2598
941.803	47.1107
943.472	45.6457
945.139	45.0137
946.805	44.2938
948.473	42.7176
950.139	41.8275
951.804	41.9753
953.471	41.4544
955.136	41.0532
956.801	40.3404
958.465	39.3815
960.131	39.7884
961.794	39.0593
963.458	39.5118
965.12	39.3402
966.785	40.2638
968.447	40.3555
970.109	40.4511
971.771	40.5502
973.432	39.869
975.095	39.5258
976.756	39.2597
978.417	40.6015
980.077	40.8975
981.737	41.4153
983.396	41.8575
985.057	42.0438
986.716	41.6031
988.375	41.3284
990.033	41.4563
991.691	41.3944
993.349	41.3497
995.006	41.5649
996.663	40.3147
998.32	40.5676
999.976	41.3364
1001.63	42.3462
1003.29	42.2901
1004.95	43.1972
1006.6	43.6116
1008.26	43.7955
1009.91	43.5429
1011.56	43.2064
1013.22	42.4849
1014.87	42.1836
1016.53	41.9767
1018.18	41.6621
1019.83	42.1546
1021.48	42.303
1023.14	42.1026
1024.79	41.7102
1026.44	41.3309
1028.09	42.7501
1029.74	42.9504
1031.39	42.9045
1033.04	42.2544
1034.69	42.1202
1036.34	41.5773
1037.99	41.7476
1039.64	40.5803
1041.29	40.3686
1042.94	40.0497
1044.58	38.8094
1046.23	38.1622
1047.88	37.847
1049.52	37.9099
1051.17	36.7486
1052.82	36.5484
1054.46	35.6649
1056.11	33.9154
1057.75	33.3462
1059.4	32.5511
1061.04	31.6145
1062.69	30.2651
1064.33	28.2695
1065.98	27.2887
1067.62	26.7053
1069.26	25.6168
1070.9	24.312
1072.55	24.0885
1074.19	23.9389
1075.83	23.1552
1077.47	23.3784
1079.11	23.0246
1080.76	24.0081
1082.4	24.292
1084.04	23.6873
1085.68	23.3373
1087.32	23.3267
1088.95	22.8169
1090.59	22.8455
1092.23	22.832
1093.87	23.4252
1095.51	24.1891
1097.15	25.135
1098.78	26.1968
1100.42	26.7507
1102.06	27.1045
1103.69	27.4875
1105.33	27.6247
1106.97	27.8585
1108.6	27.9135
1110.24	28.6435
1111.87	27.9579
1113.51	27.2245
1115.14	26.7374
1116.77	27.3658
1118.41	27.4637
1120.04	26.9218
1121.67	26.1021
1123.31	25.471
1124.94	24.6172
1126.57	24.6532
1128.2	24.7097
1129.83	24.2789
1131.47	23.536
1133.1	22.3024
1134.72	20.6972
1136.36	19.4183
1137.98	17.5015
1139.62	17.0056
1141.24	16.4375
1142.87	15.1562
1144.5	14.3453
1146.13	13.8523
1147.76	13.3371
1149.38	12.9651
1151.01	10.5509
1152.64	10.7218
1154.27	11.3241
1155.89	10.9557
1157.52	9.67552
1159.14	8.70809
1160.77	7.15046
1162.39	6.29949
1164.02	5.41111
1165.64	4.5095
1167.27	4.70119
1168.89	4.11387
1170.51	4.10856
1172.14	4.65514
1173.76	4.64319
1175.38	5.13997
1177	5.82716
1178.63	5.95265
1180.25	6.53857
1181.87	7.22348
1183.49	7.07385
1185.11	7.53305
1186.73	7.45314
1188.35	8.21114
1189.97	8.91088
1191.59	10.1411
1193.21	12.0276
1194.83	12.8321
1196.45	15.0148
1198.07	16.1441
1199.68	16.6641
1201.3	17.9857
1202.92	19.0231
1204.53	19.8366
1206.15	21.3368
1207.77	22.5613
1209.38	23.2905
1211	24.5469
1212.62	26.3472
1214.23	26.7139
1215.84	27.9836
1217.46	29.4405
1219.07	30.8314
1220.69	32.8921
1222.3	35.3129
1223.91	36.1186
1225.53	37.4412
1227.14	38.6815
1228.75	39.3943
1230.36	40.7707
1231.97	41.1807
1233.59	43.0242
1235.2	42.6656
1236.81	42.2616
1238.42	42.278
1240.03	42.2079
1241.64	42.7112
1243.25	42.8745
1244.85	43.4077
1246.46	44.4609
1248.07	44.8235
1249.68	45.2731
1251.29	46.2459
1252.9	46.3657
1254.5	46.0458
1256.11	45.6708
1257.72	46.5128
1259.32	47.0636
1260.93	46.8454
1262.54	46.063
1264.14	45.4413
1265.75	46.2604
1267.35	47.0033
1268.96	48.1968
1270.56	49.3979
1272.16	50.8659
1273.77	51.9569
1275.37	51.3981
1276.97	52.6213
1278.57	53.3768
1280.18	55.7696
1281.78	57.1154
1283.38	58.2211
1284.98	59.5492
1286.58	60.0759
1288.18	59.6695
1289.78	59.9212
1291.38	60.0062
1292.99	59.6981
1294.58	61.8083
1296.18	64.1085
1297.78	65.9174
1299.38	68.41
1300.98	70.7211
1302.58	71.975
1304.17	72.2627
1305.77	73.0526
1307.37	74.8941
1308.97	76.3592
1310.56	76.9875
1312.16	76.7244
1313.76	78.2934
1315.35	79.1715
1316.95	79.2907
1318.54	79.8345
1320.14	80.6998
1321.73	81.3546
1323.32	80.4347
1324.92	80.9511
1326.51	81.3225
1328.1	80.3169
1329.7	80.1483
1331.29	79.023
1332.88	77.2447
1334.47	76.6898
1336.07	76.1613
1337.66	76.281
1339.25	74.4905
1340.84	72.7854
1342.43	71.2656
1344.02	70.0846
1345.61	69.3929
1347.2	67.5751
1348.79	66.1186
1350.37	65.2166
1351.96	63.6571
1353.55	61.8545
1355.14	60.8551
1356.73	60.8315
1358.31	59.8683
1359.9	58.1419
1361.49	54.7688
1363.07	52.3823
1364.66	50.1975
1366.25	47.9676
1367.83	46.0512
1369.42	46.0623
1371	45.7831
1372.59	45.5563
1374.17	47.1385
1375.75	45.3681
1377.34	44.311
1378.92	43.7039
1380.5	42.2825
1382.09	40.6513
1383.67	40.1935
1385.25	39.2004
1386.83	38.825
1388.42	37.676
1390	36.6354
1391.58	35.9316
1393.16	36.0887
1394.74	35.7926
1396.32	34.5353
1397.9	33.8233
1399.48	32.6906
1401.06	31.6722
1402.64	31.7778
1404.21	31.5813
1405.79	31.6664
1407.37	31.6838
1408.95	32.2829
1410.53	32.6672
1412.1	33.1229
1413.68	34.4513
1415.26	36.3539
1416.83	37.6517
1418.41	38.7262
1419.98	40.0531
1421.56	41.8373
1423.13	43.9489
1424.71	45.9517
1426.28	48.4968
1427.86	50.9156
1429.43	53.7713
1431	55.5261
1432.58	58.0619
1434.15	60.0986
1435.72	61.3726
1437.29	62.3288
1438.87	63.4156
1440.44	65.2677
1442.01	66.8315
1443.58	68.3827
1445.15	69.6314
1446.72	70.012
1448.29	70.3789
1449.86	70.3271
1451.43	70.4686
1453	70.0174
1454.57	68.3311
1456.14	68.2863
1457.71	67.2178
1459.27	65.62
1460.84	64.0656
1462.41	62.7445
1463.98	60.6624
1465.54	59.0308
1467.11	56.4732
1468.67	54.2289
1470.24	51.706
1471.81	49.175
1473.37	47.0023
1474.94	43.6794
1476.5	40.2462
1478.07	38.4405
1479.63	36.689
1481.19	34.3333
1482.76	31.2259
1484.32	30.4434
1485.88	28.8944
1487.45	26.8737
1489.01	25.654
1490.57	23.6387
1492.13	22.9924
1493.69	22.5774
1495.26	21.0474
1496.82	20.4025
1498.38	19.6268
1499.94	19.2442
1501.5	18.1366
1503.06	18.1765
1504.62	18.304
1506.17	17.033
1507.73	17.0581
1509.29	16.0355
1510.85	16.0374
1512.41	15.2567
1513.97	15.0157
1515.52	15.7182
1517.08	17.0529
1518.64	17.5504
1520.19	17.6301
1521.75	18.42
1523.31	19.6673
1524.86	19.2289
1526.42	20.469
1527.97	20.7636
1529.52	21.7626
1531.08	22.0355
1532.63	23.4367
1534.19	24.9646
1535.74	26.1601
1537.29	27.5319
1538.85	29.1563
1540.4	30.2642
1541.95	31.8517
1543.5	33.8673
1545.06	35.8921
1546.61	38.3762
1548.16	40.0902
1549.71	41.9387
1551.26	44.4076
1552.81	46.0717
1554.36	48.2963
1555.91	51.1953
1557.46	53.3075
1559.01	55.0501
1560.56	57.7589
1562.11	59.7345
1563.65	60.8431
1565.2	62.757
1566.75	64.7642
1568.29	66.3239
1569.84	68.3532
1571.39	69.8349
1572.94	70.8188
1574.48	71.9413
1576.03	72.9526
1577.57	74.1474
1579.12	74.7751
1580.66	75.6723
1582.21	75.5806
1583.75	75.0161
1585.3	74.9303
1586.84	73.876
1588.38	73.776
1589.93	73.1672
1591.47	72.368
1593.01	71.7022
1594.55	70.725
1596.1	69.2397
1597.64	68.4767
1599.18	66.8481
1600.72	65.6673
1602.26	63.8552
1603.8	63.201
1605.34	61.3221
1606.88	60.6243
1608.42	59.4155
1609.96	58.6745
1611.5	58.0484
1613.04	56.6817
1614.58	55.8251
1616.12	55.5265
1617.65	55.309
1619.19	56.5895
1620.73	56.7401
1622.27	57.1732
1623.8	56.6997
1625.34	57.4286
1626.87	58.0637
1628.41	59.189
1629.95	60.185
1631.48	61.3825
1633.02	61.6177
1634.55	62.7594
1636.09	62.9018
1637.62	64.1127
1639.15	64.7491
1640.69	66.1226
1642.22	67.3943
1643.76	68.0723
1645.29	68.7196
1646.82	68.808
1648.35	69.8553
1649.88	70.3604
1651.42	71.3283
1652.95	71.8317
1654.48	72.0705
1656.01	70.914
1657.54	70.1099
1659.07	69.1684
1660.6	67.6161
1662.13	65.7702
1663.66	64.2857
1665.19	62.7535
1666.72	61.4151
1668.24	59.7774
1669.77	58.1066
1671.3	55.863
1672.83	53.6463
1674.35	51.0841
1675.88	48.5373
1677.41	46.3247
1678.93	43.8613
1680.46	41.279
1681.99	38.8037
1683.51	36.3474
1685.04	34.1676
1686.56	31.6552
1688.09	29.0931
1689.61	27.0635
1691.13	25.2897
1692.66	23.6045
1694.18	22.1339
1695.71	20.1702
1697.23	19.1963
1698.75	17.9902
1700.27	16.6304
1701.8	15.6989
1703.32	14.9563
1704.84	14.297
1706.36	13.9838
1707.88	13.0672
1709.4	11.525
1710.92	11.2942
1712.44	10.18
1713.96	10.0401
1715.48	9.69618
1717	8.85969
1718.52	8.28349
1720.04	7.59198
1721.56	6.63233
1723.07	6.36305
1724.59	6.52368
1726.11	6.44909
1727.63	6.0328
1729.14	5.19426
1730.66	4.61066
1732.18	3.97912
1733.69	3.47582
1735.21	3.21734
1736.72	2.65891
1738.24	2.37756
1739.75	3.10782
1741.27	2.65067
1742.78	3.11828
1744.3	2.41187
1745.81	2.04289
1747.32	1.31375
1748.84	0.804343
1750.35	0.802895
1751.86	0.171562
1753.37	-0.218112
1754.89	-0.0316409
1756.4	0.21932
1757.91	0.0816258
1759.42	0.179016
1760.93	0.170551
1762.44	0.249451
1763.95	0.108597
1765.46	0.532964
1766.97	0.107996
1768.48	0.704216
1769.99	1.12102
1771.5	1.40898
1773.01	2.73859
1774.52	2.15843
1776.03	2.57301
1777.53	3.00991
1779.04	4.07213
1780.55	3.86219
1782.06	3.95336
1783.56	2.99266
1785.07	3.18152
1786.57	3.58057
1788.08	3.29759
1789.59	3.24303
1791.09	3.11532
1792.6	2.55041
1794.1	2.62542
1795.6	2.30242
1797.11	2.40605
1798.61	2.59344
1800.12	2.57301
1801.62	2.9151
1803.12	2.44433
1804.63	2.96245
1806.13	2.99907
1807.63	3.50641
1809.13	3.27185
1810.63	4.51231
1812.14	4.6169
1813.64	5.01288
1815.14	4.93293
1816.64	4.93069
1818.14	4.88537
1819.64	4.89798
1821.14	4.97545
1822.64	4.57232
1824.14	4.68469
1825.63	5.33539
1827.13	5.69784
1828.63	5.82658
1830.13	6.13995
1831.63	6.39933
1833.12	6.16288
1834.62	6.12545
1836.12	5.6708
1837.62	5.95992
1839.11	6.03058
1840.61	5.85122
1842.1	5.9086
1843.6	6.44473
1845.09	6.72478
1846.59	6.74544
1848.08	6.86662
1849.58	6.91111
1851.07	7.11431
1852.57	6.71377
1854.06	6.07975
1855.55	5.67077
1857.04	5.4477
1858.54	5.19791
1860.03	5.08331
1861.52	4.64129
1863.01	4.95914
1864.5	4.65891
1866	4.78518
1867.49	4.87059
1868.98	5.17584
1870.47	4.73305
1871.96	4.51206
1873.45	4.71551
1874.94	4.79467
1876.43	5.00388
1877.92	5.39704
1879.41	5.86446
1880.89	5.97129
1882.38	6.52508
1882.48	6.13378
1883.97	6.53161
1885.47	6.19551
1886.96	6.64072
1888.46	6.45507
1889.95	6.93608
1891.44	6.45458
1892.94	7.06399
1894.43	6.83926
1895.92	7.08632
1897.41	7.44756
1898.9	7.46638
1900.4	7.77676
1901.89	7.21536
1903.38	7.61222
1904.87	7.79259
1906.36	7.82715
1907.85	7.81489
1909.34	7.92356
1910.83	8.33342
1912.32	8.77749
1913.81	8.82205
1915.29	9.08463
1916.78	9.15395
1918.27	9.12553
1919.76	9.3793
1921.25	9.80066
1922.74	10.0551
1924.22	9.9497
1925.71	10.0668
1927.2	11.066
1928.68	11.2224
1930.17	10.9587
1931.65	10.9236
1933.14	11.1335
1934.63	11.5507
1936.11	11.6625
1937.59	11.2162
1939.08	11.3625
1940.56	11.5817
1942.05	12.0209
1943.53	11.9048
1945.01	12.4093
1946.5	12.8088
1947.98	12.5161
1949.46	12.6452
1950.94	12.4413
1952.43	12.1505
1953.91	12.1016
1955.39	12.0975
1956.87	11.1521
1958.35	11.1168
1959.83	11.3897
1961.31	11.3181
1962.79	10.3605
1964.27	10.7625
1965.75	10.0715
1967.23	10.1442
1968.71	9.88443
1970.19	10.0822
1971.67	9.96201
1973.14	9.82218
1974.62	9.91036
1976.1	9.43999
1977.58	9.32664
1979.05	9.50551
1980.53	8.96437
1982.01	8.64148
1983.48	8.7026
1984.96	8.5641
1986.43	8.95645
1987.91	8.91184
1989.38	9.10752
1990.86	8.91458
1992.33	9.29959
1993.81	9.99258
1995.28	10.4049
1996.76	10.6318
1998.23	10.4685
1999.7	10.9344
2001.18	11.247
2002.65	10.0916
2004.12	10.7617
2005.59	10.7089
2007.06	10.4307
2008.54	10.7956
2010.01	10.9856
2011.48	11.6257
2012.95	12.3933
2014.42	12.5864
2015.89	12.5726
2017.36	12.3803
2018.83	12.3584
2020.3	12.0801
2021.77	11.8462
2023.24	11.8794
2024.71	11.8233
2026.17	11.9295
2027.64	11.7495
2029.11	11.679
2030.58	11.1351
2032.04	11.551
2033.51	11.8765
2034.98	11.5268
2036.45	11.832
2037.91	12.7833
2039.38	13.0111
2040.84	13.6897
2042.31	14.0117
2043.77	13.9415
2045.24	13.6469
2046.7	14.1104
2048.17	14.6359
2049.63	14.7652
2051.1	14.6952
2052.56	15.1894
2054.02	15.5914
2055.48	16.0581
2056.95	16.5676
2058.41	16.5783
2059.87	17.397
2061.33	17.4278
2062.8	17.8239
2064.26	17.9298
2065.72	18.6565
2067.18	19.1408
2068.64	19.8173
2070.1	20.4543
2071.56	20.6797
2073.02	21.9024
2074.48	21.8646
2075.94	22.1577
2077.4	23.5739
2078.86	23.4621
2080.31	24.1718
2081.77	24.8877
2083.23	25.001
2084.69	24.9575
2086.14	24.7639
2087.6	24.6518
2089.06	24.7489
2090.52	24.4504
2091.97	24.3065
2093.43	24.9732
2094.88	25.2937
2096.34	25.6047
2097.79	25.7566
2099.25	26.4705
2100.7	27.138
2102.16	27.9118
2103.61	28.687
2105.07	29.694
2106.52	30.0187
2107.97	30.2401
2109.43	31.0277
2110.88	31.1678
2112.33	31.4569
2113.78	31.8714
2115.24	32.6031
2116.69	33.41
2118.14	34.6183
2119.59	35.8958
2121.04	36.2243
2122.49	37.2185
2123.94	38.6088
2125.39	40.0921
2126.84	41.6464
2128.29	42.9062
2129.74	44.3741
2131.19	45.2282
2132.64	46.3804
