#Acq. time (s)=	45
#Accumulations=	2
#Range (cm-¹)=	200...3150
#Windows=	2
#Auto scanning=	Off
#Autofocus=	Off
#Macrospot=	Off
#AutoExposure=	Off
#Spike filter=	Multiple accum.
#Delay time (s)=	0
#Binning=	1
#Readout mode=	Signal
#DeNoise=	Off
#ICS correction=	On
#Dark correction=	Off
#Inst. Process=	Off
#Detector Gain=	Best Dynamic Range
#Detector ADC=	20 kHz       
#Detector temperature (°C)=	-69.85
#Instrument=	LabRAM HR Evol
#Detector=	Synapse
#Objective=	x100
#Grating=	600 gr/mm
#ND Filter=	100%
#Laser (nm)=	532 
#Hole=	100.021
#Range=	Auto
#Laser Pol.=	No
#Raman. Pol.=	No
#Laser Pol. (°)=	-0.0007625
#Raman Pol. (°)=	89.9995
#Collection=	Microscope
#StageXY=	Marzhauser
#StageZ=	Marzhauser
#X (µm)=	2192.3
#Y (µm)=	1230.7
#Z (µm)=	442.35
#Full time(mm:ss)=	3:18
#Project=	
#Sample=	
#Site=	
#Title=	Thy_10_08_31_2x_45s_532 nm_x100_100%_600 gr_mm
#Remark=	
#Date=	05.07.2022 16:26
#Acquired=	05.07.2022 16:26:57
#Base:Fit=	10.08.2022 09:46:25
#Base:Sub=	10.08.2022 09:46:49
#Filter:Polynom=	16.08.2022 10:24:56
#AxisType[0]=Intens
#AxisUnit[0]=Cnt
#AxisType[1]=Spectr
#AxisUnit[1]=1/cm
200.43	12.9834
202.244	12.1542
204.059	11.2377
205.873	11.2405
207.688	10.6004
209.501	9.75818
211.314	9.04358
213.127	8.02266
214.941	6.83805
216.753	6.4706
218.564	5.57127
220.375	4.34502
222.186	4.14853
223.999	4.82857
225.809	3.56855
227.618	3.38317
229.428	4.08057
231.236	4.41763
233.045	4.23092
234.855	4.40409
236.663	4.51912
238.471	4.28373
240.278	5.31588
242.085	6.44731
243.891	7.53454
245.698	7.15648
247.503	7.79316
249.309	8.01537
251.116	8.67088
252.921	8.90285
254.725	8.20807
256.529	7.596
258.333	7.61154
260.136	7.16921
261.939	7.24027
263.742	8.63781
265.544	8.95129
267.346	10.8521
269.148	11.5734
270.949	12.1618
272.75	12.8503
274.55	12.0787
276.351	12.452
278.15	11.9203
279.95	11.681
281.749	11.7369
283.548	12.4913
285.346	12.9662
287.144	13.3282
288.942	13.0222
290.739	13.5419
292.536	13.8887
294.333	13.7152
296.129	12.9834
297.925	12.757
299.721	12.4732
301.514	13.3623
303.309	13.2409
305.104	13.4094
306.898	14.0478
308.692	14.3202
310.486	15.0599
312.279	16.4219
314.072	16.6344
315.862	16.9138
317.654	17.7035
319.446	17.9665
321.238	18.197
323.029	17.8584
324.819	17.8812
326.608	18.2336
328.398	18.7052
330.188	19.764
331.977	19.6734
333.766	18.9995
335.553	17.8681
337.341	18.5184
339.129	18.25
340.917	17.7833
342.704	17.0946
344.489	16.6572
346.275	16.8499
348.062	17.0777
349.845	17.5579
351.631	18.3545
353.416	18.4199
355.201	18.1792
356.984	17.1806
358.768	15.988
360.552	14.7081
362.333	13.5647
364.116	13.1526
365.899	13.1175
367.68	12.9055
369.462	13.0648
371.243	13.94
373.023	13.3368
374.804	12.6433
376.585	12.6106
378.363	12.8037
380.143	13.549
381.923	13.2641
383.7	12.5488
385.479	12.496
387.256	13.2128
389.034	13.68
390.812	14.5031
392.588	13.8836
394.365	13.7398
396.14	14.4356
397.916	14.2733
399.691	14.6458
401.467	14.0319
403.24	14.3456
405.015	15.0534
406.788	14.1639
408.563	14.86
410.335	15.1108
412.109	14.7691
413.88	15.1437
415.654	16.1899
417.424	16.2339
419.197	15.632
420.967	14.9678
422.739	14.3845
424.508	15.1403
426.279	14.827
428.048	15.2016
429.819	14.2161
431.587	14.1537
433.356	14.1125
435.124	14.4892
436.891	14.2504
438.66	15.2302
440.426	14.4028
442.194	14.3067
443.96	14.0398
445.725	12.7996
447.492	12.568
449.257	12.3458
451.021	12.9566
452.787	13.1464
454.551	12.6847
456.314	12.2127
458.079	13.0893
459.842	13.6877
461.604	13.7618
463.368	15.0202
465.13	15.9876
466.891	17.0309
468.654	17.559
470.415	17.64
472.175	18.6303
473.935	19.8572
475.696	21.0804
477.456	21.0646
479.215	21.1026
480.973	21.5357
482.733	21.9349
484.491	23.4649
486.249	23.0428
488.006	23.5964
489.765	22.908
491.522	24.4986
493.278	24.4933
495.034	24.0265
496.789	24.3517
498.544	23.4703
500.301	24.4198
502.056	24.6292
503.81	24.4813
505.564	23.8317
507.317	23.5882
509.071	23.9608
510.825	24.2549
512.578	23.9847
514.33	23.4558
516.082	23.4591
517.833	22.3142
519.585	22.6996
521.335	22.3646
523.086	22.1229
524.836	22.5379
526.586	22.4829
528.335	21.3966
530.085	21.1782
531.835	19.9957
533.584	19.956
535.332	19.7905
537.08	19.0636
538.827	18.4007
540.574	16.5449
542.321	16.8102
544.068	16.0792
545.814	16.6416
547.56	16.8238
549.305	17.5309
551.05	17.5956
552.795	17.9314
554.54	17.8158
556.282	17.784
558.025	17.4165
559.769	17.324
561.512	16.7478
563.255	15.988
564.997	14.7412
566.739	13.8016
568.481	13.728
570.223	13.0878
571.964	12.1858
573.705	10.3065
575.443	9.69448
577.183	8.90086
578.923	8.63414
580.663	8.1348
582.402	7.68388
584.141	7.34163
585.879	6.85197
587.615	7.16526
589.353	5.55921
591.09	4.49566
592.828	5.00744
594.564	4.08504
596.299	3.28315
598.035	2.95333
599.771	2.28122
601.506	2.83547
603.242	3.3119
604.974	3.67436
606.709	3.91744
608.443	3.79579
610.177	4.08245
611.908	4.28132
613.642	4.1429
615.374	4.4363
617.105	3.79107
618.837	4.61227
620.569	5.55028
622.3	5.57294
624.03	5.83048
625.761	6.08627
627.491	7.00215
629.219	8.84409
630.949	9.60857
632.677	10.8052
634.406	12.3047
636.135	13.0852
637.861	13.2858
639.59	13.7625
641.318	14.6487
643.043	16.008
644.77	16.4215
646.495	16.853
648.222	18.1838
649.948	18.2713
651.672	19.1527
653.398	19.8022
655.121	20.6226
656.846	21.9077
658.569	22.6188
660.293	23.442
662.015	24.9189
663.738	25.1954
665.46	26.2029
667.183	27.5499
668.903	27.9052
670.626	27.9334
672.346	28.8567
674.067	29.855
675.787	30.0976
677.508	30.7911
679.226	31.5272
680.947	32.2706
682.665	33.1488
684.385	33.7284
686.102	33.658
687.821	34.3814
689.538	35.3894
691.254	34.3382
692.972	35.323
694.688	35.9758
696.406	36.3679
698.121	37.2502
699.835	37.0969
701.552	37.4727
703.266	37.6771
704.98	38.5924
706.695	39.537
708.409	39.9401
710.121	41.0046
711.836	41.7281
713.548	41.9924
715.26	43.0473
716.973	43.6247
718.685	43.887
720.396	44.9405
722.108	45.5179
723.818	46.1135
725.528	46.8173
727.238	48.7354
728.949	49.1178
730.658	49.7728
732.367	50.6635
734.075	51.2417
735.785	51.6874
737.493	53.1023
739.2	53.1419
740.907	53.9697
742.614	54.7854
744.322	55.7304
746.028	56.374
747.734	57.2024
749.439	57.046
751.144	58.6811
752.849	59.2684
754.555	59.6857
756.26	61.2946
757.963	62.7282
759.667	62.8226
761.37	63.7111
763.073	64.2275
764.775	65.6353
766.477	66.8998
768.179	66.8081
769.883	67.1173
771.584	67.6962
773.285	67.749
774.986	67.7287
776.686	68.1494
778.386	69.963
780.085	69.8284
781.785	71.1538
783.484	71.2848
785.182	72.2508
786.881	73.3659
788.579	74.6628
790.276	76.0891
791.974	77.7716
793.671	78.6989
795.367	79.7488
797.064	79.7855
798.76	79.7418
800.456	81.1711
802.151	81.3727
803.846	82.753
805.541	83.1653
807.234	82.6109
808.928	82.8821
810.622	83.0114
812.315	84.0536
814.008	83.6234
815.701	84.1598
817.394	84.737
819.086	84.7493
820.778	84.629
822.468	84.0444
824.159	83.3981
825.85	84.6241
827.541	84.7448
829.231	84.7343
830.921	83.8843
832.609	84.4187
834.298	84.2035
835.987	84.5877
837.676	83.7543
839.364	83.9275
841.051	83.3148
842.738	82.0649
844.426	79.6683
846.113	78.9275
847.798	77.1364
849.484	76.7637
851.171	75.3522
852.857	74.4225
854.54	72.8835
856.226	71.5164
857.911	70.1213
859.593	69.9571
861.278	69.631
862.961	68.3226
864.645	67.0144
866.327	66.3674
868.01	64.0688
869.692	63.9599
871.373	62.41
873.055	61.7722
874.735	61.1379
876.416	60.0171
878.097	58.6541
879.776	58.1816
881.457	56.3219
883.135	56.2247
884.815	55.5518
886.495	55.7999
888.172	55.3606
889.851	54.8812
891.528	54.2599
893.206	55.075
894.882	55.2508
896.56	56.4627
898.237	56.6327
899.912	56.8378
901.589	57.0885
903.263	55.6618
904.94	55.1705
906.614	55.4858
908.289	55.7307
909.962	55.4726
911.635	54.7761
913.31	53.9838
914.982	54.3455
916.656	54.6907
918.328	54.9118
920.001	54.5908
921.672	53.1208
923.345	52.8
925.015	50.9589
926.685	50.0997
928.357	49.3258
930.026	49.5319
931.698	49.075
933.366	49.074
935.035	49.3521
936.705	48.8837
938.373	48.1186
940.041	47.5547
941.71	47.1319
943.377	46.0181
945.044	44.6376
946.712	43.9649
948.378	44.2995
950.044	43.0905
951.709	42.5808
953.376	42.3082
955.041	41.2538
956.706	41.5495
958.372	40.7749
960.036	39.7078
961.699	38.2621
963.362	38.0014
965.027	36.6494
966.69	38.05
968.352	38.2881
970.014	38.3893
971.676	38.4022
973.339	37.63
975	37.0106
976.661	37.5739
978.322	38.0396
979.982	37.4167
981.642	36.3408
983.303	35.9232
984.962	35.8582
986.621	35.7275
988.28	35.7799
989.938	35.679
991.596	35.4434
993.254	35.3578
994.911	35.9614
996.57	36.2922
998.227	36.9855
999.884	36.7709
1001.54	35.8403
1003.2	34.4995
1004.85	33.5701
1006.51	33.596
1008.16	33.0507
1009.82	34.0364
1011.47	34.5636
1013.12	34.3934
1014.78	34.5426
1016.43	35.2303
1018.08	35.0594
1019.74	34.6683
1021.39	35.1668
1023.04	35.1775
1024.69	35.3564
1026.34	34.2746
1028	34.3335
1029.65	33.9011
1031.3	32.6779
1032.95	31.2452
1034.6	30.8976
1036.25	29.5627
1037.9	29.0688
1039.54	28.4477
1041.19	26.5834
1042.84	26.8906
1044.49	26.4692
1046.14	26.5402
1047.78	25.9785
1049.43	25.7318
1051.08	24.3448
1052.72	23.5765
1054.37	23.2082
1056.02	22.26
1057.66	22.6099
1059.31	22.5394
1060.95	21.8863
1062.6	20.8522
1064.24	20.9188
1065.88	20.5067
1067.53	20.0107
1069.17	19.3109
1070.81	18.7043
1072.45	18.1602
1074.1	18.3443
1075.74	17.4515
1077.38	17.7183
1079.02	16.7924
1080.66	15.7089
1082.3	14.42
1083.94	13.5696
1085.58	13.6749
1087.22	13.9943
1088.86	15.1214
1090.5	15.8762
1092.14	16.3173
1093.78	15.9385
1095.42	16.2631
1097.05	15.5991
1098.69	15.8258
1100.33	16.2637
1101.96	16.7148
1103.6	16.7112
1105.24	16.4249
1106.87	15.9256
1108.51	13.9573
1110.14	14.5802
1111.78	13.5491
1113.41	13.6047
1115.05	14.7089
1116.68	14.5562
1118.31	15.1073
1119.95	15.0095
1121.58	14.7478
1123.21	15.0018
1124.85	15.0042
1126.48	13.4519
1128.11	12.9567
1129.74	12.2611
1131.37	12.1434
1133	12.5776
1134.63	13.1812
1136.26	12.8325
1137.89	12.6362
1139.52	12.5984
1141.15	11.822
1142.78	10.6271
1144.41	9.81023
1146.04	9.96578
1147.66	9.8718
1149.29	10.8064
1150.92	11.0351
1152.55	10.7211
1154.17	11.5696
1155.8	10.9857
1157.43	9.83592
1159.05	9.93812
1160.68	7.95124
1162.3	8.22608
1163.93	7.99009
1165.55	8.92581
1167.17	9.47588
1168.8	9.98106
1170.42	9.65569
1172.05	9.09305
1173.67	8.53252
1175.29	8.18957
1176.91	8.1439
1178.54	7.39421
1180.16	8.0667
1181.78	8.17773
1183.4	8.45086
1185.02	8.85027
1186.64	9.15277
1188.26	8.63529
1189.88	8.61707
1191.5	10.5841
1193.12	11.1631
1194.74	12.5568
1196.36	13.8447
1197.97	14.2356
1199.59	14.9798
1201.21	15.2499
1202.83	16.3201
1204.44	17.6068
1206.06	18.4417
1207.68	19.0876
1209.29	20.3741
1210.91	21.1106
1212.52	22.9492
1214.14	23.2282
1215.75	25.3402
1217.37	26.7166
1218.98	28.2036
1220.59	30.5859
1222.21	31.8984
1223.82	34.1784
1225.43	36.9794
1227.05	39.6152
1228.66	41.4103
1230.27	43.7538
1231.88	44.6799
1233.49	45.8494
1235.1	46.6361
1236.72	46.4423
1238.33	47.3634
1239.94	48.5038
1241.55	49.3825
1243.16	51.0856
1244.76	51.0716
1246.37	51.7042
1247.98	51.6885
1249.59	52.1793
1251.2	51.68
1252.8	51.8712
1254.41	52.0991
1256.02	52.0761
1257.62	52.259
1259.23	52.6125
1260.84	52.9617
1262.44	53.2343
1264.05	54.0256
1265.66	53.7169
1267.26	52.9062
1268.86	52.4816
1270.47	52.5527
1272.07	52.9249
1273.67	52.996
1275.28	53.2591
1276.88	53.2134
1278.48	52.9571
1280.09	53.8765
1281.69	54.5575
1283.29	54.7438
1284.89	55.3618
1286.49	55.5379
1288.09	56.0399
1289.69	56.8409
1291.29	57.2197
1292.89	58.1112
1294.49	59.0013
1296.09	61.7772
1297.69	61.8357
1299.29	63.6321
1300.89	65.5642
1302.49	64.3133
1304.08	65.0033
1305.68	65.6099
1307.28	67.3923
1308.88	69.6347
1310.47	72.8117
1312.07	74.5479
1313.66	76.3734
1315.26	77.976
1316.85	79.896
1318.45	81.3911
1320.04	83.9882
1321.64	85.5385
1323.23	86.4792
1324.83	87.3537
1326.42	88.4329
1328.01	89.1516
1329.61	89.6693
1331.2	89.4127
1332.79	90.7864
1334.38	91.3818
1335.97	90.8856
1337.56	90.6918
1339.16	90.2825
1340.75	88.5751
1342.34	87.7212
1343.93	86.8885
1345.52	84.5698
1347.11	82.5044
1348.7	81.754
1350.29	80.4317
1351.87	79.001
1353.46	78.0977
1355.05	76.9068
1356.64	75.3039
1358.22	74.203
1359.81	72.1682
1361.4	69.1988
1362.98	66.9724
1364.57	64.5797
1366.16	62.9586
1367.74	60.4791
1369.33	57.4958
1370.91	55.2339
1372.5	53.6059
1374.08	51.931
1375.67	49.9702
1377.25	47.2873
1378.83	45.7051
1380.41	44.4043
1382	41.7502
1383.58	43.5538
1385.16	43.5204
1386.74	45.0942
1388.33	45.1117
1389.91	44.2126
1391.49	42.0177
1393.07	40.8567
1394.65	40.5488
1396.23	39.3432
1397.81	38.299
1399.39	38.5331
1400.97	37.9076
1402.55	37.0573
1404.13	37.7914
1405.7	37.7031
1407.28	37.5335
1408.86	37.6108
1410.44	38.6673
1412.01	39.1899
1413.59	39.9399
1415.17	41.3206
1416.74	42.8685
1418.32	44.6128
1419.89	46.3722
1421.47	48.5343
1423.04	50.9505
1424.62	53.0279
1426.19	56.5101
1427.77	59.7006
1429.34	63.3871
1430.91	66.2891
1432.49	69.175
1434.06	71.5444
1435.63	74.2103
1437.2	75.1252
1438.78	77.1595
1440.35	79.0242
1441.92	81.7634
1443.49	82.7583
1445.06	84.8467
1446.63	84.7124
1448.2	85.226
1449.77	86.0541
1451.34	86.085
1452.91	86.1058
1454.48	85.1645
1456.05	84.2744
1457.62	82.7027
1459.18	81.1412
1460.75	78.8301
1462.32	77.5072
1463.89	74.1612
1465.45	70.8794
1467.02	67.2171
1468.59	63.4339
1470.15	60.1156
1471.72	57.549
1473.28	54.364
1474.85	50.9562
1476.41	47.4272
1477.98	44.5042
1479.54	40.6171
1481.1	36.5082
1482.67	33.7294
1484.23	30.0745
1485.79	26.8527
1487.36	25.2546
1488.92	23.2194
1490.48	20.7517
1492.04	19.2899
1493.61	17.6604
1495.17	15.9936
1496.73	15.0225
1498.29	14.3751
1499.85	13.5679
1501.41	13.2094
1502.97	12.4967
1504.53	12.3485
1506.09	12.2542
1507.65	12.2246
1509.2	11.6386
1510.76	11.5261
1512.32	10.8782
1513.88	10.3635
1515.43	10.1897
1516.99	11.4246
1518.55	11.5849
1520.1	13.0559
1521.66	13.2645
1523.22	15.2251
1524.77	15.5105
1526.33	16.1917
1527.88	17.2515
1529.44	18.0575
1530.99	19.0451
1532.54	19.8602
1534.1	21.4497
1535.65	21.6657
1537.21	23.5967
1538.76	25.1543
1540.31	25.785
1541.86	26.9036
1543.42	28.2579
1544.97	31.5254
1546.52	33.7055
1548.07	35.3369
1549.62	37.6358
1551.17	39.3387
1552.72	40.5324
1554.27	41.2803
1555.82	42.1574
1557.37	44.2953
1558.92	46.5997
1560.47	48.5256
1562.02	50.7269
1563.56	52.278
1565.11	53.6178
1566.66	54.9506
1568.21	55.7747
1569.75	57.1727
1571.3	59.6088
1572.85	61.6908
1574.39	62.8576
1575.94	63.6188
1577.49	64.0834
1579.03	64.926
1580.57	65.6531
1582.12	66.6676
1583.66	67.4635
1585.21	67.9515
1586.75	68.3387
1588.3	68.6705
1589.84	68.1472
1591.38	69.0033
1592.92	70.2848
1594.47	70.1945
1596.01	70.0715
1597.55	70.3631
1599.09	69.8518
1600.63	68.7996
1602.17	66.811
1603.71	65.6381
1605.25	65.2628
1606.79	65.1052
1608.33	64.968
1609.87	64.7625
1611.41	63.288
1612.95	61.8224
1614.49	62.3644
1616.03	61.6066
1617.57	60.9181
1619.1	61.9495
1620.64	62.2981
1622.18	62.7421
1623.72	62.8061
1625.25	62.6396
1626.79	63.0169
1628.32	63.4101
1629.86	63.3364
1631.39	63.9392
1632.93	64.4186
1634.46	65.3443
1636	66.3732
1637.53	66.2728
1639.07	66.7635
1640.6	66.3728
1642.13	66.6139
1643.67	67.9323
1645.2	68.5496
1646.73	69.7431
1648.26	70.6484
1649.8	70.617
1651.33	71.0037
1652.86	71.3983
1654.39	72.4282
1655.92	73.0443
1657.45	72.8495
1658.98	72.8578
1660.51	72.4971
1662.04	72.0084
1663.57	71.6175
1665.1	70.7405
1666.63	69.3453
1668.16	68.3689
1669.68	66.9167
1671.21	64.9643
1672.74	63.3458
1674.27	61.6777
1675.79	59.9036
1677.32	58.1026
1678.85	56.3736
1680.37	54.8699
1681.9	53.1777
1683.42	51.3401
1684.95	49.6664
1686.47	47.657
1688	45.1749
1689.52	43.6937
1691.05	42.4576
1692.57	40.2436
1694.09	38.5487
1695.62	36.6063
1697.14	34.1995
1698.66	32.1714
1700.18	30.6902
1701.71	28.7755
1703.23	27.4553
1704.75	26.434
1706.27	24.0572
1707.79	22.7298
1709.31	21.2433
1710.83	19.7296
1712.35	19.1915
1713.87	17.4258
1715.39	16.0661
1716.91	15.4517
1718.43	14.7658
1719.95	13.6779
1721.47	13.2579
1722.99	12.6811
1724.5	12.4461
1726.02	11.3553
1727.54	11.2583
1729.06	10.2685
1730.57	9.69387
1732.09	8.66023
1733.61	7.90024
1735.12	6.89782
1736.64	6.23754
1738.15	6.12248
1739.67	5.52337
1741.18	4.32958
1742.7	4.14246
1744.21	4.0268
1745.72	3.65422
1747.24	3.78966
1748.75	3.62777
1750.26	3.61258
1751.77	3.9958
1753.29	3.75974
1754.8	2.94061
1756.31	3.07595
1757.82	3.21154
1759.33	3.25827
1760.84	3.61971
1762.36	2.74396
1763.87	2.11765
1765.38	1.71186
1766.89	1.5258
1768.4	0.957184
1769.91	0.405963
1771.41	-0.0447807
1772.92	0.587581
1774.43	0.802588
1775.94	1.1261
1777.45	1.37169
1778.95	1.26118
1780.46	0.655572
1781.97	0.230002
1783.48	0.79877
1784.98	0.413749
1786.49	0.118214
1787.99	0.503549
1789.5	0.500395
1791.01	0.347086
1792.51	0.149933
1794.01	0.14114
1795.52	-0.0916159
1797.02	-0.0259978
1798.53	-0.726403
1800.03	-0.914488
1801.53	-1.22613
1803.04	-0.394536
1804.54	-0.478829
1806.04	-0.330337
1807.54	-0.526014
1809.05	-0.806397
1810.55	-0.745901
1812.05	-0.559172
1813.55	-0.253264
1815.05	0.402051
1816.55	0.867726
1818.05	1.52406
1819.55	1.59359
1821.05	1.68903
1822.55	1.80219
1824.05	2.29704
1825.55	2.77664
1827.05	2.77285
1828.55	3.11109
1830.04	3.06498
1831.54	3.91205
1833.04	4.2958
1834.54	4.3839
1836.03	4.41223
1837.53	4.30513
1839.03	4.52429
1840.52	4.92542
1842.02	5.16062
1843.51	5.43832
1845.01	5.72382
1846.5	5.77517
1848	5.87885
1849.49	6.27559
1850.99	6.19637
1852.48	6.20138
1853.97	5.58053
1855.47	5.85385
1856.96	5.89534
1858.45	5.50018
1859.94	5.27597
1861.44	5.29199
1862.93	5.52575
1864.42	5.71654
1865.91	5.31358
1867.4	4.81315
1868.89	4.80478
1870.38	4.34028
1871.87	4.33495
1873.36	4.31282
1874.85	4.65325
1876.34	4.35115
1877.83	4.42597
1879.32	3.79276
1880.81	3.49406
1882.3	3.73571
1882.57	3.94372
1884.07	4.30546
1885.56	4.18693
1887.06	4.33436
1888.55	4.25517
1890.04	3.62039
1891.54	3.5492
1893.03	4.09615
1894.52	3.9414
1896.02	3.80399
1897.51	4.52887
1899	3.90645
1900.49	3.27141
1901.98	3.82815
1903.47	3.88521
1904.96	4.33319
1906.45	4.39385
1907.94	4.58413
1909.43	5.05969
1910.92	5.05345
1912.41	5.76866
1913.9	6.61635
1915.39	6.92385
1916.88	7.28951
1918.37	7.28895
1919.85	7.67047
1921.34	8.02703
1922.83	8.02253
1924.32	7.21575
1925.8	7.29279
1927.29	7.04304
1928.78	7.34229
1930.26	6.91946
1931.75	6.82089
1933.23	7.13342
1934.72	7.43522
1936.2	7.4209
1937.69	7.93941
1939.17	7.8671
1940.66	7.5447
1942.14	8.14834
1943.63	8.73231
1945.11	8.80211
1946.59	8.59529
1948.07	8.83464
1949.56	8.71533
1951.04	9.22354
1952.52	9.35807
1954	9.60959
1955.48	9.79333
1956.96	9.49623
1958.45	9.04736
1959.93	8.41536
1961.41	8.03118
1962.89	7.63118
1964.37	8.0211
1965.85	7.40368
1967.32	6.92633
1968.8	5.95144
1970.28	6.41665
1971.76	6.13894
1973.24	5.62235
1974.72	6.25095
1976.19	6.78575
1977.67	7.31856
1979.15	7.77494
1980.63	8.23884
1982.1	8.4381
1983.58	8.45063
1985.05	8.57184
1986.53	9.38328
1988	9.69283
1989.48	10.0234
1990.95	10.2554
1992.43	10.4387
1993.9	10.6329
1995.38	10.244
1996.85	10.3372
1998.32	10.8814
1999.8	11.0442
2001.27	11.4857
2002.74	11.6366
2004.22	12.1426
2005.69	12.3478
2007.16	12.8988
2008.63	14.2512
2010.1	14.3344
2011.57	14.7664
2013.04	15.0423
2014.51	14.6293
2015.98	14.9334
2017.45	14.5706
2018.92	13.8108
2020.39	13.6691
2021.86	14.6764
2023.33	14.8353
2024.8	15.5807
2026.27	15.7007
2027.74	15.5338
2029.2	15.4693
2030.67	15.2006
2032.14	14.598
2033.61	14.4431
2035.07	14.5998
2036.54	14.41
2038.01	14.4867
2039.47	14.2228
2040.94	14.3788
2042.4	14.9633
2043.87	15.2699
2045.33	14.8958
2046.8	15.3554
2048.26	16.2012
2049.72	16.0449
2051.19	16.4554
2052.65	16.4072
2054.12	16.5753
2055.58	16.8767
2057.04	17.5667
2058.5	18.0307
2059.97	18.3005
2061.43	18.5492
2062.89	18.7084
2064.35	18.4459
2065.81	18.621
2067.27	18.3762
2068.73	18.7416
2070.19	19.053
2071.65	19.0375
2073.11	18.6642
2074.57	18.7946
2076.03	18.2444
2077.49	18.4393
2078.95	18.2429
2080.41	18.3518
2081.87	18.5051
2083.32	17.5876
2084.78	17.3861
2086.24	17.482
2087.7	17.2977
2089.15	17.5292
2090.61	17.5767
2092.07	18.3283
2093.52	19.123
2094.98	19.4269
2096.43	19.2727
2097.89	19.3736
2099.34	19.2229
2100.8	18.842
2102.25	18.6489
2103.71	18.2332
2105.16	18.7377
2106.61	18.912
2108.07	19.0986
2109.52	19.7512
2110.97	19.7753
2112.43	20.6153
2113.88	20.5305
2115.33	21.0811
2116.78	21.0881
2118.23	21.033
2119.68	21.7482
2121.13	21.7816
2122.59	21.9719
2124.04	22.7475
2125.49	23.5452
2126.94	23.8559
2128.39	24.2265
2129.83	23.9971
2131.28	23.9021
