#Acq. time (s)=	45
#Accumulations=	2
#Range (cm-¹)=	200...3150
#Windows=	2
#Auto scanning=	Off
#Autofocus=	Off
#Macrospot=	Off
#AutoExposure=	Off
#Spike filter=	Multiple accum.
#Delay time (s)=	0
#Binning=	1
#Readout mode=	Signal
#DeNoise=	Off
#ICS correction=	On
#Dark correction=	Off
#Inst. Process=	Off
#Detector Gain=	Best Dynamic Range
#Detector ADC=	20 kHz       
#Detector temperature (°C)=	-69.85
#Instrument=	LabRAM HR Evol
#Detector=	Synapse
#Objective=	x100
#Grating=	600 gr/mm
#ND Filter=	100%
#Laser (nm)=	532 
#Hole=	100.021
#Range=	Auto
#Laser Pol.=	No
#Raman. Pol.=	No
#Laser Pol. (°)=	-0.0007625
#Raman Pol. (°)=	89.9995
#Collection=	Microscope
#StageXY=	Marzhauser
#StageZ=	Marzhauser
#X (µm)=	-5125.6
#Y (µm)=	1517.7
#Z (µm)=	63.25
#Full time(mm:ss)=	3:18
#Project=	
#Sample=	
#Site=	
#Title=	Thy_50_12_41_2x_45s_532 nm_x100_100%_600 gr_mm
#Remark=	
#Date=	07.07.2022 12:15
#Acquired=	07.07.2022 12:15:57
#Base:Fit=	10.08.2022 10:04:30
#Base:Sub=	10.08.2022 10:04:45
#Filter:Polynom=	16.08.2022 10:20:25
#AxisType[0]=Intens
#AxisUnit[0]=Cnt
#AxisType[1]=Spectr
#AxisUnit[1]=1/cm
200.43	18.0761
202.246	18.593
204.061	17.0321
205.875	15.8115
207.688	14.9421
209.501	14.0193
211.316	13.1811
213.129	12.6587
214.941	12.8053
216.753	11.9863
218.566	11.7748
220.377	11.8941
222.188	11.7862
223.999	12.4706
225.809	11.9757
227.618	13.2384
229.43	12.5649
231.239	12.4667
233.047	12.3848
234.855	12.3675
236.663	11.483
238.471	11.3724
240.278	12.1551
242.087	12.1749
243.894	13.555
245.7	14.3602
247.506	13.9587
249.311	14.4722
251.116	13.8715
252.921	14.6432
254.725	14.4959
256.529	14.8643
258.333	15.9405
260.136	15.7815
261.939	16.4429
263.744	17.6935
265.546	18.4394
267.348	19.155
269.15	19.1296
270.951	18.1092
272.752	17.4755
274.552	18.128
276.353	17.9112
278.152	18.3357
279.952	19.6212
281.751	20.5327
283.55	20.6386
285.348	20.0888
287.146	18.911
288.942	18.5586
290.739	18.9504
292.536	19.4975
294.333	19.6399
296.129	19.8786
297.925	19.9296
299.721	20.3315
301.516	20.3943
303.311	20.3403
305.106	20.542
306.9	20.5298
308.694	20.9861
310.486	21.299
312.279	21.0487
314.072	21.0865
315.864	20.7895
317.656	21.6748
319.448	19.4531
321.24	19.766
323.029	19.4701
324.819	19.0888
326.61	18.7868
328.4	19.9683
330.19	20.3702
331.977	20.0991
333.766	20.2624
335.555	19.0516
337.343	18.4441
339.131	18.1579
340.917	16.759
342.704	16.6885
344.491	16.105
346.277	15.4157
348.062	15.4534
349.848	13.9823
351.633	14.0746
353.416	14.9513
355.201	14.882
356.986	14.4325
358.77	14.4025
360.552	14.7918
362.335	15.0562
364.118	15.1757
365.899	14.4331
367.682	14.8257
369.464	15.3148
371.243	14.7713
373.025	14.1004
374.806	14.2732
376.585	14.1164
378.365	14.4143
380.143	14.5402
381.923	13.6445
383.702	12.7113
385.479	12.3738
387.258	11.4278
389.034	10.9702
390.812	11.1425
392.59	11.5923
394.365	11.5615
396.142	11.0171
397.916	10.1689
399.693	9.6679
401.467	9.5799
403.242	8.59668
405.015	8.46749
406.79	8.65409
408.565	7.99564
410.337	9.13597
412.111	8.22486
413.882	8.06
415.656	7.4728
417.426	7.60079
419.197	7.00707
420.969	6.44178
422.739	6.28531
424.51	6.61222
426.279	7.8394
428.05	7.31703
429.819	6.6178
431.589	6.96644
433.356	6.58334
435.124	5.98413
436.893	7.05159
438.66	7.52016
440.428	8.36233
442.194	8.51926
443.96	7.89588
445.727	7.85587
447.492	8.68243
449.259	10.223
451.023	9.93381
452.787	9.56337
454.553	9.69957
456.316	10.4688
458.079	10.6177
459.844	10.5734
461.606	10.5946
463.368	10.9831
465.132	12.0589
466.893	13.25
468.654	13.3194
470.415	12.8348
472.177	13.8416
473.937	14.206
475.696	15.3006
477.456	16.2856
479.217	17.2119
480.975	17.5474
482.733	17.6616
484.491	18.4917
486.251	19.3222
488.008	19.7142
489.765	20.1311
491.522	19.3166
493.278	20.6446
495.036	21.4528
496.791	21.7568
498.546	21.9177
500.301	21.6388
502.056	22.4595
503.81	23.0972
505.566	24.3332
507.319	24.2074
509.073	24.343
510.825	25.8869
512.578	26.4757
514.33	26.3045
516.082	24.8454
517.833	24.2519
519.587	24.5418
521.337	23.4264
523.088	23.4897
524.838	23.9652
526.588	23.3147
528.337	22.7601
530.087	21.9125
531.835	20.8631
533.584	20.15
535.332	19.4953
537.08	18.7171
538.827	18.0502
540.574	16.4368
542.321	16.1684
544.068	15.4753
545.814	15.1192
547.56	13.7229
549.305	13.2125
551.05	12.4965
552.795	12.7499
554.54	11.5655
556.284	9.77839
558.027	8.6113
559.771	8.7392
561.514	8.01205
563.257	7.88348
564.999	6.60115
566.742	5.66028
568.481	4.20084
570.223	3.60629
571.964	2.31498
573.705	0.944454
575.445	0.383739
577.185	-0.0105631
578.925	-0.536035
580.665	0.377392
582.402	0.736168
584.141	1.12001
585.879	1.11252
587.617	0.928311
589.355	1.18072
591.092	0.85031
592.828	0.247258
594.564	-0.0163456
596.301	1.21818
598.037	2.00923
599.773	2.59302
601.506	3.55927
603.242	4.16465
604.976	4.89934
606.711	5.93414
608.443	7.22476
610.177	9.44393
611.91	9.47201
613.644	9.78741
615.374	9.72977
617.107	9.93828
618.839	10.4884
620.569	10.5874
622.3	10.4779
624.032	10.8057
625.761	11.3973
627.491	10.202
629.221	11.1611
630.949	10.4904
632.679	10.6673
634.408	10.4047
636.135	12.0778
637.863	12.2859
639.592	13.1522
641.318	12.7473
643.045	12.1052
644.77	12.7335
646.497	13.3179
648.224	12.9216
649.948	13.3514
651.674	12.3156
653.398	12.7055
655.123	13.5262
656.846	14.3577
658.57	13.7598
660.293	14.4656
662.017	14.5921
663.738	13.7002
665.462	13.2646
667.185	13.0761
668.905	12.842
670.628	12.0633
672.348	12.5819
674.067	13.2774
675.789	13.8076
677.508	14.2032
679.228	15.3662
680.947	16.8647
682.667	18.9107
684.385	19.744
686.104	21.8328
687.821	22.0195
689.538	22.5068
691.256	23.2603
692.972	24.5678
694.69	24.8457
696.406	25.1254
698.121	23.7583
699.837	24.1109
701.552	24.6518
703.268	24.8689
704.982	25.485
706.695	25.6
708.41	26.6436
710.123	27.2062
711.836	28.5837
713.55	29.7875
715.262	30.369
716.973	31.5613
718.685	32.9517
720.398	34.1293
722.108	35.6138
723.818	34.8115
725.53	35.5235
727.24	35.3597
728.949	35.4907
730.658	36.9925
732.369	37.7812
734.077	38.5112
735.785	39.5546
737.493	40.2024
739.2	41.9421
740.909	43.2085
742.616	44.1446
744.322	44.7169
746.028	45.7203
747.734	45.8188
749.441	47.1475
751.146	48.4551
752.851	49.8008
754.555	51.7998
756.26	54.4691
757.963	57.5925
759.667	58.8317
761.372	59.6375
763.075	60.3252
764.777	61.135
766.479	62.5661
768.181	64.13
769.883	65.603
771.584	66.8327
773.285	67.0097
774.986	68.1413
776.686	67.9451
778.386	69.1706
780.085	69.1174
781.785	70.189
783.484	69.6745
785.182	70.3479
786.881	71.179
788.579	71.9088
790.276	74.4465
791.974	76.101
793.671	76.945
795.367	77.4656
797.064	79.3854
798.76	79.7687
800.456	79.5123
802.151	81.8473
803.846	81.9966
805.541	81.6182
807.236	82.2093
808.93	81.7389
810.624	82.6118
812.317	82.7609
814.01	83.407
815.703	84.5879
817.394	85.0192
819.086	85.6595
820.778	85.279
822.47	85.1192
824.161	85.582
825.852	85.5894
827.543	85.4911
829.231	84.2641
830.921	83.4014
832.611	83.1869
834.3	82.5999
835.989	81.071
837.676	80.7102
839.364	79.697
841.053	79.4165
842.74	76.8773
844.426	74.3119
846.113	72.2663
847.8	70.5347
849.486	68.3413
851.171	67.7208
852.857	66.2585
854.542	63.9894
856.227	61.6502
857.911	59.7048
859.595	57.8028
861.279	55.3841
862.961	54.6099
864.645	51.6553
866.329	50.0473
868.01	48.7821
869.692	48.9115
871.375	49.6655
873.055	50.5753
874.737	50.132
876.418	49.1525
878.097	48.2047
879.778	48.0731
881.457	48.0498
883.137	47.3065
884.817	47.2102
886.495	46.929
888.174	45.6334
889.851	45.3988
891.53	46.2743
893.206	45.9254
894.884	45.4513
896.562	44.9741
898.237	44.1912
899.914	44.2215
901.589	43.4355
903.265	42.6764
904.94	42.0543
906.615	43.4871
908.289	44.0896
909.964	43.532
911.637	43.2376
913.31	42.9626
914.984	42.6307
916.656	42.5253
918.33	42.8731
920.001	42.7406
921.674	41.9271
923.345	40.6086
925.015	39.648
926.687	37.7442
928.357	37.458
930.028	36.9982
931.698	36.0906
933.366	35.7005
935.037	36.2009
936.705	35.6869
938.373	35.1188
940.043	35.1066
941.71	33.3538
943.379	31.1067
945.046	29.726
946.712	29.2849
948.378	29.0774
950.046	30.7205
951.711	32.1354
953.376	32.979
955.043	33.6681
956.708	33.3882
958.372	31.8492
960.036	31.9483
961.701	31.8973
963.364	31.9836
965.027	32.5888
966.69	33.6472
968.354	33.9575
970.016	33.6501
971.678	34.1672
973.339	35.0412
975	35.3904
976.661	34.8151
978.324	34.497
979.984	34.9253
981.644	35.9243
983.303	36.7153
984.962	36.9476
986.621	38.0728
988.282	38.5519
989.94	38.6383
991.598	38.2426
993.256	39.0755
994.913	39.1047
996.57	39.3173
998.227	38.539
999.884	38.5654
1001.54	37.9868
1003.2	36.2255
1004.85	35.5632
1006.51	36.2532
1008.16	36.8029
1009.82	37.2994
1011.47	38.0915
1013.12	38.0908
1014.78	39.0222
1016.43	40.023
1018.08	40.2716
1019.74	40.8456
1021.39	40.4918
1023.04	39.7054
1024.69	39.8692
1026.34	40.4955
1028	41.616
1029.65	42.8285
1031.3	43.1114
1032.95	43.5175
1034.6	43.4823
1036.25	43.3961
1037.9	42.8101
1039.55	41.9763
1041.19	41.9426
1042.84	42.7025
1044.49	41.8311
1046.14	41.5278
1047.79	41.4465
1049.43	40.3324
1051.08	38.2412
1052.73	37.7148
1054.37	37.6014
1056.02	36.5453
1057.66	35.7392
1059.31	34.418
1060.95	33.3843
1062.6	32.6921
1064.24	31.8228
1065.88	29.58
1067.53	28.9659
1069.17	27.8722
1070.81	25.3684
1072.46	25.1425
1074.1	23.7986
1075.74	22.4744
1077.38	21.4157
1079.02	20.5848
1080.66	20.0119
1082.3	19.208
1083.94	19.1988
1085.58	19.3514
1087.22	19.3688
1088.86	19.449
1090.5	19.9223
1092.14	20.0689
1093.78	21.1895
1095.42	22.1309
1097.05	23.5906
1098.69	24.1366
1100.33	24.7821
1101.97	25.1673
1103.6	25.0129
1105.24	25.1521
1106.87	25.0263
1108.51	24.6075
1110.15	24.9087
1111.78	25.4602
1113.41	25.0334
1115.05	26.1497
1116.68	25.9981
1118.31	25.5488
1119.95	24.5883
1121.58	24.1977
1123.21	23.4377
1124.85	22.6442
1126.48	21.2898
1128.11	21.42
1129.74	21.4127
1131.37	20.5266
1133	19.7093
1134.63	19.621
1136.26	18.3771
1137.89	17.0469
1139.52	16.8381
1141.15	15.6094
1142.78	14.9905
1144.41	14.3733
1146.04	12.0205
1147.66	9.92299
1149.29	9.64253
1150.92	8.83566
1152.55	7.54426
1154.17	7.76323
1155.8	5.53627
1157.43	5.09467
1159.05	4.34906
1160.68	3.21658
1162.3	2.83227
1163.93	1.45985
1165.55	1.74663
1167.17	0.721645
1168.8	0.749716
1170.42	1.46279
1172.05	1.95577
1173.67	2.65658
1175.29	2.75952
1176.91	2.2654
1178.54	2.55012
1180.16	2.64832
1181.78	1.96249
1183.4	2.20769
1185.02	2.4529
1186.64	3.06957
1188.26	3.70379
1189.88	4.60531
1191.5	4.82975
1193.12	5.37184
1194.74	6.05471
1196.36	7.85664
1197.97	8.02977
1199.59	9.63216
1201.21	11.7372
1202.83	12.7817
1204.44	14.2078
1206.06	15.5598
1207.68	16.1013
1209.29	18.1148
1210.91	19.8801
1212.52	21.6966
1214.14	23.7057
1215.75	25.9983
1217.37	26.8122
1218.98	28.9207
1220.6	30.5942
1222.21	31.8866
1223.82	33.5113
1225.44	34.1004
1227.05	35.1719
1228.66	37.6256
1230.27	39.5733
1231.88	41.3244
1233.49	42.273
1235.1	44.3547
1236.72	45.1141
1238.33	47.288
1239.94	48.3241
1241.55	49.6356
1243.16	50.7768
1244.76	52.5238
1246.37	53.3234
1247.98	53.3965
1249.59	54.7379
1251.2	55.3145
1252.8	55.7239
1254.41	56.3628
1256.02	56.6897
1257.63	57.1177
1259.23	59.0926
1260.84	60.4219
1262.44	61.4629
1264.05	63.6142
1265.66	64.7684
1267.26	65.6105
1268.87	66.3638
1270.47	67.7424
1272.07	69.7742
1273.68	71.458
1275.28	72.9665
1276.88	74.302
1278.48	75.3679
1280.09	77.1109
1281.69	78.0111
1283.29	78.863
1284.89	80.3033
1286.49	81.8436
1288.09	83.244
1289.69	85.2769
1291.3	85.9053
1292.9	87.2872
1294.49	87.31
1296.09	87.216
1297.69	87.4053
1299.29	88.6128
1300.89	88.2053
1302.49	88.7351
1304.09	88.1082
1305.68	88.2131
1307.28	88.1655
1308.88	87.8808
1310.47	87.8509
1312.07	88.6351
1313.66	88.9309
1315.26	88.7808
1316.86	87.451
1318.45	87.3078
1320.05	85.3836
1321.64	84.7016
1323.23	84.1087
1324.83	83.3411
1326.42	81.2068
1328.01	80.3121
1329.61	80.2266
1331.2	78.8092
1332.79	77.7139
1334.38	76.0819
1335.98	75.7492
1337.57	74.3155
1339.16	73.1874
1340.75	71.344
1342.34	69.7367
1343.93	67.584
1345.52	65.9805
1347.11	64.217
1348.7	63.6129
1350.29	62.4105
1351.87	61.4283
1353.46	59.6374
1355.05	59.4828
1356.64	58.6219
1358.23	58.2946
1359.81	57.5107
1361.4	56.7138
1362.99	56.3267
1364.57	55.7548
1366.16	54.9447
1367.74	53.6931
1369.33	52.5812
1370.91	51.4466
1372.5	51.5776
1374.08	50.9957
1375.67	50.1734
1377.25	50.3573
1378.83	49.8869
1380.42	49.0165
1382	49.0377
1383.58	48.4941
1385.16	48.1225
1386.75	47.8845
1388.33	48.0773
1389.91	47.9708
1391.49	47.5597
1393.07	46.8274
1394.65	45.9039
1396.23	44.6581
1397.81	44.9379
1399.39	44.1528
1400.97	45.2899
1402.55	45.1842
1404.13	45.4311
1405.7	45.6515
1407.28	46.7589
1408.86	47.4711
1410.44	47.604
1412.01	49.0368
1413.59	49.709
1415.17	51.3573
1416.74	52.7525
1418.32	53.9326
1419.89	55.3587
1421.47	57.6028
1423.05	60.0581
1424.62	62.8958
1426.19	66.139
1427.77	69.2111
1429.34	72.8019
1430.92	76.087
1432.49	79.2058
1434.06	82.9932
1435.63	84.5989
1437.2	87.4796
1438.78	89.3869
1440.35	90.456
1441.92	92.0534
1443.49	93.1657
1445.06	94.3799
1446.63	95.1216
1448.2	95.6169
1449.77	95.5351
1451.34	95.9029
1452.91	94.7444
1454.48	93.7653
1456.05	93.2332
1457.62	91.5615
1459.18	88.8502
1460.75	86.8845
1462.32	84.6764
1463.89	81.3014
1465.45	79.0884
1467.02	75.9918
1468.59	72.9241
1470.15	70.0222
1471.72	67.5837
1473.28	64.854
1474.85	61.8878
1476.41	60.076
1477.98	56.595
1479.54	54.259
1481.11	50.6704
1482.67	48.1011
1484.23	45.5372
1485.8	42.6722
1487.36	39.9616
1488.92	37.8885
1490.48	35.7535
1492.05	33.2097
1493.61	32.3746
1495.17	31.5233
1496.73	29.929
1498.29	29.239
1499.85	29.6352
1501.41	29.5214
1502.97	29.6737
1504.53	30.4054
1506.09	29.0199
1507.65	29.0059
1509.2	27.978
1510.76	28.1602
1512.32	27.2542
1513.88	25.8313
1515.44	26.1857
1516.99	25.5347
1518.55	25.5315
1520.1	25.5167
1521.66	25.6784
1523.22	25.9179
1524.77	25.0955
1526.33	25.4904
1527.88	25.1374
1529.44	25.8928
1530.99	26.7258
1532.55	27.1988
1534.1	27.5823
1535.65	28.347
1537.21	30.0285
1538.76	32.4448
1540.31	33.7996
1541.86	34.6416
1543.42	37.0476
1544.97	39.5396
1546.52	42.1775
1548.07	44.1985
1549.62	46.1783
1551.17	48.5025
1552.72	49.7164
1554.27	51.1727
1555.82	52.9027
1557.37	55.0587
1558.92	55.8798
1560.47	57.4397
1562.02	59.2659
1563.57	60.4542
1565.11	62.3802
1566.66	64.7385
1568.21	67.1281
1569.75	69.9773
1571.3	72.0023
1572.85	74.5163
1574.39	76.6338
1575.94	78.5173
1577.49	80.5859
1579.03	82.0615
1580.58	82.671
1582.12	83.487
1583.67	84.172
1585.21	85.8101
1586.75	86.8315
1588.3	87.1701
1589.84	86.8956
1591.38	86.3732
1592.93	86.7137
1594.47	86.583
1596.01	85.4566
1597.55	84.3767
1599.09	84.2218
1600.63	83.232
1602.18	82.4228
1603.72	81.4796
1605.26	81.3238
1606.8	80.8356
1608.34	80.4565
1609.87	79.0364
1611.41	79.1812
1612.95	79.3389
1614.49	79.5777
1616.03	78.5548
1617.57	78.6875
1619.11	79.3531
1620.64	80.8826
1622.18	81.7083
1623.72	82.3482
1625.25	82.3159
1626.79	83.3533
1628.32	84.0323
1629.86	84.1419
1631.4	85.691
1632.93	86.9622
1634.47	87.9201
1636	88.9768
1637.53	90.4301
1639.07	92.1192
1640.6	92.9557
1642.14	94.7614
1643.67	97.2571
1645.2	98.0957
1646.73	99.9073
1648.27	101.252
1649.8	103.479
1651.33	103.804
1652.86	104.306
1654.39	104.784
1655.92	104.735
1657.45	104.784
1658.98	105.931
1660.51	104.889
1662.04	103.067
1663.57	101.339
1665.1	99.3414
1666.63	97.4364
1668.16	94.9654
1669.69	92.6807
1671.21	89.5331
1672.74	85.9905
1674.27	83.4275
1675.79	80.2248
1677.32	76.7648
1678.85	73.2795
1680.37	69.2081
1681.9	66.0167
1683.42	61.6561
1684.95	57.876
1686.47	54.6781
1688	51.7621
1689.52	48.516
1691.05	46.0816
1692.57	42.9445
1694.1	41.3967
1695.62	38.7458
1697.14	36.3853
1698.66	33.8135
1700.19	31.4332
1701.71	28.6453
1703.23	27.0555
1704.75	25.5224
1706.27	24.418
1707.79	22.683
1709.32	20.4445
1710.83	19.3261
1712.35	17.7919
1713.88	16.2124
1715.39	15.1659
1716.91	14.1292
1718.43	14.314
1719.95	14.3311
1721.47	13.6766
1722.99	14.0929
1724.5	13.6665
1726.02	13.2447
1727.54	12.6507
1729.06	12.2805
1730.57	12.1397
1732.09	12.1987
1733.61	11.7975
1735.12	11.5395
1736.64	10.5441
1738.15	10.1604
1739.67	10.1448
1741.18	9.80364
1742.7	9.33686
1744.21	8.60928
1745.72	8.06388
1747.24	7.01642
1748.75	7.14196
1750.26	6.85235
1751.78	6.49576
1753.29	5.91871
1754.8	5.38369
1756.31	5.53471
1757.82	5.66155
1759.34	5.30048
1760.85	4.72756
1762.36	5.14477
1763.87	5.08651
1765.38	4.69646
1766.89	4.69922
1768.4	3.90955
1769.91	4.21639
1771.41	3.75752
1772.92	3.8635
1774.43	4.03169
1775.94	4.34322
1777.45	4.12213
1778.96	4.149
1780.46	3.8567
1781.97	3.45878
1783.48	2.75055
1784.98	2.77722
1786.49	2.84275
1788	1.98381
1789.5	1.95106
1791.01	2.10107
1792.51	2.11138
1794.01	2.35355
1795.52	1.99952
1797.02	1.73324
1798.53	1.94934
1800.03	2.00939
1801.54	2.10909
1803.04	2.64193
1804.54	2.57702
1806.04	2.88234
1807.54	3.11863
1809.05	2.81696
1810.55	3.15823
1812.05	3.27788
1813.55	3.19074
1815.05	3.55205
1816.55	3.45762
1818.05	3.38674
1819.55	3.46748
1821.05	3.33277
1822.55	3.12555
1824.05	3.44591
1825.55	3.01238
1827.05	3.08619
1828.55	3.16694
1830.04	3.10159
1831.54	2.75467
1833.04	1.96216
1834.54	1.62252
1836.03	1.36687
1837.53	1.97357
1839.03	1.42079
1840.52	0.83564
1842.02	1.00386
1843.51	1.39657
1845.01	1.70461
1846.5	1.84303
1848	1.97886
1849.49	2.10898
1850.99	1.79304
1852.48	0.941978
1853.97	0.783215
1855.47	0.935709
1856.96	1.00443
1858.45	1.28129
1859.94	1.4887
1861.44	1.18363
1862.93	1.42539
1864.42	1.72102
1865.91	1.42872
1867.4	1.5282
1868.89	2.0005
1870.38	1.84526
1871.87	2.51126
1873.36	3.39373
1874.85	3.95219
1876.34	4.18452
1877.83	4.27083
1879.32	3.7997
1880.81	4.41698
1882.3	4.4709
1882.56	4.28087
1884.06	5.06707
1885.55	4.70573
1887.04	4.45356
1888.54	4.39644
1890.03	4.27677
1891.52	4.18289
1893.02	4.01382
1894.51	4.19716
1896	4.12748
1897.49	3.81906
1898.99	4.00314
1900.48	4.13324
1901.97	4.58873
1903.46	4.28869
1904.95	3.96936
1906.44	3.32732
1907.93	3.76236
1909.42	4.01021
1910.91	4.39845
1912.4	3.72982
1913.89	3.96459
1915.38	4.5787
1916.86	4.49058
1918.35	4.73759
1919.84	5.07236
1921.33	5.30121
1922.82	5.6187
1924.3	5.49873
1925.79	5.0646
1927.28	5.59563
1928.76	5.75779
1930.25	6.04719
1931.74	6.12225
1933.22	6.08006
1934.71	5.77971
1936.19	6.38408
1937.67	6.22015
1939.16	6.47668
1940.64	6.32351
1942.13	6.04881
1943.61	5.79322
1945.09	6.30743
1946.58	6.05664
1948.06	5.51247
1949.54	4.83288
1951.03	4.59973
1952.51	3.88885
1953.99	4.12585
1955.47	3.48297
1956.95	3.67335
1958.43	3.82426
1959.91	3.26293
1961.39	3.99783
1962.87	4.27358
1964.35	3.90978
1965.83	3.60794
1967.31	4.12489
1968.79	4.28033
1970.27	3.48117
1971.75	3.58468
1973.22	3.34624
1974.7	2.82725
1976.18	2.91008
1977.66	1.93688
1979.13	1.61721
1980.61	1.65152
1982.09	2.54998
1983.56	2.22832
1985.04	1.98694
1986.52	1.76411
1987.99	2.3278
1989.47	2.94389
1990.94	2.9498
1992.41	3.4759
1993.89	3.35132
1995.36	3.36365
1996.84	3.48667
1998.31	3.54987
1999.78	3.82011
2001.26	4.38524
2002.73	4.52857
2004.2	5.11996
2005.67	5.3563
2007.15	5.69643
2008.62	6.124
2010.09	6.9772
2011.56	6.19835
2013.03	5.66852
2014.5	5.63335
2015.97	5.94015
2017.44	5.9624
2018.91	6.46121
2020.38	7.03582
2021.85	6.69288
2023.32	6.6343
2024.79	6.79273
2026.25	7.34744
2027.72	8.0141
2029.19	8.16878
2030.66	8.34453
2032.13	8.07259
2033.59	8.22856
2035.06	8.48229
2036.53	8.11779
2037.99	8.53882
2039.46	8.49338
2040.92	9.04043
2042.39	8.54063
2043.85	8.30795
2045.32	9.11025
2046.78	8.51649
2048.25	9.31868
2049.71	9.50431
2051.18	9.54878
2052.64	10.6757
2054.1	11.427
2055.56	11.9243
2057.03	12.5382
2058.49	13.234
2059.95	14.0677
2061.42	15.0183
2062.88	15.7887
2064.34	16.0439
2065.8	16.5841
2067.26	17.8697
2068.72	18.6206
2070.18	19.3159
2071.64	20.168
2073.1	21.1807
2074.56	21.9317
2076.02	23.3129
2077.48	24.3566
2078.94	25.0349
2080.39	26.3586
2081.85	27.1882
2083.31	28.3781
2084.77	28.95
2086.22	30.045
2087.68	31.8934
2089.14	32.627
2090.6	33.3999
2092.05	34.9726
2093.51	36.4009
2094.96	36.9217
2096.42	38.4642
2097.87	39.6714
2099.33	42.052
2100.78	43.4978
2102.24	45.0135
2103.69	46.5947
2105.15	48.3864
2106.6	50.4973
2108.05	52.5467
2109.51	54.3099
2110.96	56.2595
2112.41	58.3541
2113.86	60.394
2115.32	62.1939
2116.77	64.2551
2118.22	66.6525
2119.67	68.2326
2121.12	71.498
2122.57	73.5439
2124.02	76.8998
2125.47	79.8488
2126.92	82.0089
2128.37	83.926
2129.82	86.7227
2131.27	89.0675
2132.72	91.4122
2134.17	93.4505
2135.62	95.5293
2137.06	97.9316
