#Acq. time (s)=	45
#Accumulations=	2
#Range (cm-¹)=	200...3150
#Windows=	2
#Auto scanning=	Off
#Autofocus=	Off
#Macrospot=	Off
#AutoExposure=	Off
#Spike filter=	Multiple accum.
#Delay time (s)=	0
#Binning=	1
#Readout mode=	Signal
#DeNoise=	Off
#ICS correction=	On
#Dark correction=	Off
#Inst. Process=	Off
#Detector Gain=	Best Dynamic Range
#Detector ADC=	20 kHz       
#Detector temperature (°C)=	-69.85
#Instrument=	LabRAM HR Evol
#Detector=	Synapse
#Objective=	x100
#Grating=	600 gr/mm
#ND Filter=	100%
#Laser (nm)=	532 
#Hole=	100.021
#Range=	Auto
#Laser Pol.=	No
#Raman. Pol.=	No
#Laser Pol. (°)=	-0.0007625
#Raman Pol. (°)=	89.9995
#Collection=	Microscope
#StageXY=	Marzhauser
#StageZ=	Marzhauser
#X (µm)=	-2366.9
#Y (µm)=	231.2
#Z (µm)=	521
#Full time(mm:ss)=	3:18
#Project=	
#Sample=	
#Site=	
#Title=	Thy_10_08_39_2x_45s_532 nm_x100_100%_600 gr_mm
#Remark=	
#Date=	06.07.2022 14:33
#Acquired=	06.07.2022 14:33:54
#Base:Fit=	10.08.2022 09:46:25
#Base:Sub=	10.08.2022 09:46:49
#Filter:Polynom=	16.08.2022 10:24:56
#AxisType[0]=Intens
#AxisUnit[0]=Cnt
#AxisType[1]=Spectr
#AxisUnit[1]=1/cm
200.398	9.59944
202.213	10.9578
204.027	8.30818
205.843	8.09286
207.657	7.37652
209.47	6.88198
211.283	6.28865
213.097	6.18867
214.909	5.9333
216.721	5.37493
218.533	4.01037
220.344	2.91242
222.157	1.95877
223.967	0.962672
225.777	1.58284
227.587	1.40559
229.396	0.681891
231.205	1.0575
233.016	1.51602
234.824	2.99502
236.632	3.35217
238.439	2.76592
240.247	2.78688
242.053	2.8353
243.86	3.27579
245.666	3.28746
247.474	3.38798
249.279	3.26198
251.085	3.71906
252.889	3.72657
254.694	5.11902
256.498	5.88085
258.301	5.97637
260.105	6.43759
261.908	6.75549
263.71	7.12946
265.513	6.8057
267.315	7.50415
269.116	7.94561
270.918	9.52398
272.718	9.5575
274.519	9.8642
276.319	10.4072
278.119	9.67373
279.918	10.1521
281.718	9.41955
283.516	9.13369
285.315	8.12788
287.113	7.92507
288.911	8.41057
290.708	7.3081
292.505	7.40409
294.302	8.66371
296.098	7.96741
297.894	8.33817
299.69	8.04377
301.485	9.08195
303.278	9.4148
305.073	9.03438
306.867	8.60073
308.661	8.57006
310.454	9.03523
312.247	9.68198
314.04	9.58907
315.833	9.38339
317.623	9.81857
319.415	9.61174
321.206	9.84281
322.997	9.99993
324.788	10.7814
326.579	10.0433
328.367	9.82411
330.156	11.0724
331.946	10.4147
333.735	10.389
335.523	10.167
337.31	10.9364
339.098	11.9098
340.885	13.0695
342.673	13.7585
344.458	14.1987
346.244	14.3999
348.03	14.1041
349.816	13.4811
351.6	12.7613
353.385	12.7145
355.17	12.7299
356.953	12.4491
358.737	11.4019
360.521	12.2239
362.304	10.6001
364.085	9.80771
365.868	9.03192
367.65	8.58187
369.431	8.27998
371.212	7.30357
372.994	7.58812
374.773	8.4607
376.554	9.02594
378.332	9.26432
380.112	8.33786
381.892	8.87627
383.669	9.95893
385.448	10.5723
387.225	10.2425
389.003	10.4966
390.781	11.1327
392.557	10.3419
394.334	10.5988
396.109	10.61
397.885	10.3639
399.66	9.27328
401.436	9.04369
403.211	8.78587
404.984	9.58595
406.759	10.8541
408.532	9.99603
410.306	10.8923
412.078	11.6455
413.851	13.2532
415.623	13.8776
417.395	14.1043
419.166	15.4078
420.938	15.3836
422.708	16.3733
424.477	17.1712
426.248	17.4945
428.017	17.7774
429.788	17.4205
431.556	17.5497
433.326	17.3046
435.093	17.05
436.86	15.8889
438.629	15.6274
440.395	16.6335
442.163	16.6913
443.929	16.8721
445.694	17.1065
447.461	17.0325
449.226	17.4775
450.99	16.6826
452.756	16.0881
454.52	16.9078
456.285	17.0511
458.048	16.3683
459.811	16.3165
461.573	16.5089
463.337	16.7418
465.099	16.2012
466.86	16.6463
468.623	15.8251
470.384	15.9459
472.144	15.706
473.906	15.6361
475.666	14.7365
477.425	15.189
479.184	16.3307
480.944	16.2734
482.703	16.4153
484.461	15.8267
486.218	15.9082
487.975	17.3757
489.734	17.7799
491.491	19.4242
493.247	20.5163
495.003	21.0951
496.759	21.7801
498.516	23.1775
500.271	23.7963
502.025	25.4815
503.779	25.6725
505.533	26.7424
507.287	28.4183
509.042	28.7549
510.795	29.2546
512.547	29.7374
514.299	29.6808
516.051	29.9358
517.803	29.9224
519.554	28.8536
521.305	28.5312
523.055	29.0072
524.805	29.1851
526.555	29.7509
528.307	28.8898
530.056	28.4512
531.805	28.4168
533.553	28.6144
535.301	28.4042
537.049	27.3714
538.797	27.1682
540.544	26.2095
542.291	26.3198
544.037	25.0837
545.783	23.825
547.529	22.7561
549.275	21.6753
551.02	21.1711
552.765	20.8269
554.509	20.9312
556.253	20.8349
557.997	20.758
559.738	21.0154
561.482	20.7481
563.224	19.664
564.967	19.8789
566.709	19.4556
568.451	18.1281
570.192	17.6076
571.933	16.979
573.674	17.2427
575.415	16.81
577.153	14.8287
578.893	15.4267
580.632	14.8654
582.371	14.2339
584.11	13.7755
585.849	13.3627
587.587	13.8792
589.323	13.615
591.06	13.1394
592.797	13.2823
594.534	12.6496
596.271	11.8146
598.005	11.036
599.741	9.28103
601.476	9.28814
603.211	9.19189
604.944	10.0221
606.679	9.90466
608.413	11.0303
610.147	11.602
611.878	11.7263
613.611	12.0594
615.344	12.281
617.077	13.0085
618.807	13.9485
620.539	14.4678
622.27	14.151
623.999	14.4808
625.73	14.5512
627.461	14.6479
629.189	15.0383
630.919	15.5117
632.648	16.8157
634.376	17.6102
636.105	18.8078
637.833	19.8014
639.559	20.2659
641.287	21.177
643.013	22.662
644.74	23.0535
646.467	23.8214
648.192	22.9756
649.918	22.9235
651.642	22.9571
653.368	22.6051
655.091	22.0661
656.816	21.8085
658.538	21.5248
660.263	21.4131
661.987	20.1457
663.708	20.0202
665.432	20.6849
667.153	21.3135
668.875	21.0978
670.596	22.1118
672.318	23.016
674.037	24.4694
675.759	23.8163
677.478	24.2557
679.196	24.8474
680.917	25.5461
682.635	26.2006
684.355	27.6527
686.072	28.5218
687.791	29.8988
689.508	30.6484
691.224	31.9009
692.942	31.7284
694.658	32.7783
696.376	33.1121
698.091	33.3302
699.805	33.9634
701.522	34.4506
703.236	34.6446
704.95	36.4748
706.665	36.3643
708.379	38.0002
710.093	38.5694
711.806	38.8436
713.518	40.0757
715.23	40.8494
716.943	42.807
718.655	43.6513
720.366	43.7216
722.078	44.1213
723.788	44.3404
725.498	46.0711
727.208	47.3147
728.919	48.2603
730.628	48.5686
732.337	48.2512
734.045	48.3239
735.755	49.0334
737.463	48.8779
739.17	48.7378
740.877	48.3511
742.584	49.3487
744.292	49.908
745.998	50.1804
747.704	50.5156
749.409	51.8848
751.114	53.2922
752.819	54.3986
754.526	55.8213
756.23	57.5974
757.934	58.1215
759.637	58.9953
761.34	59.3724
763.043	60.2785
764.746	61.3935
766.448	62.9424
768.152	64.1257
769.853	64.6072
771.554	65.3868
773.255	65.3929
774.956	66.5005
776.656	66.7168
778.356	67.7619
780.056	69.1713
781.755	69.216
783.454	70.4462
785.153	70.8613
786.851	72.3456
788.549	74.5896
790.247	76.4547
791.944	77.5664
793.641	79.332
795.338	80.2253
797.034	81.2575
798.73	82.7156
800.426	84.452
802.121	85.5505
803.817	84.9992
805.511	85.7857
807.206	85.9326
808.9	86.6261
810.592	86.8887
812.286	86.6204
813.979	86.8741
815.672	86.8826
817.364	86.2581
819.057	86.9811
820.748	86.3874
822.44	86.2037
824.129	86.3401
825.82	86.4781
827.511	86.3757
829.201	85.2427
830.891	85.3719
832.581	84.8223
834.269	85.342
835.958	84.718
837.646	84.3726
839.335	83.9977
841.023	83.5255
842.709	82.67
844.396	81.9137
846.084	81.0467
847.77	79.7338
849.455	78.372
851.141	77.0206
852.827	75.6568
854.513	74.0131
856.196	72.191
857.881	70.9472
859.566	70.6114
861.248	70.5235
862.932	70.5471
864.616	69.9599
866.297	69.1475
867.98	68.7634
869.663	68.4737
871.343	69.5436
873.026	69.3309
874.707	68.1692
876.387	67.1725
878.068	66.6657
879.747	66.6733
881.428	66.2522
883.108	66.5528
884.786	66.5063
886.465	66.3539
888.143	64.8023
889.822	64.2785
891.498	63.7239
893.177	62.8245
894.855	62.1027
896.53	63.5617
898.208	64.1426
899.883	64.2761
901.56	64.2015
903.234	64.5297
904.91	64.595
906.584	65.1617
908.26	64.7503
909.933	64.205
911.608	63.9702
913.28	62.9621
914.955	63.2408
916.627	62.0549
918.298	62.4875
919.972	60.5635
921.643	61.2807
923.315	59.9305
924.986	59.9166
926.656	58.6687
928.328	57.4449
929.997	57.0299
931.668	56.7287
933.337	55.6223
935.006	55.2394
936.676	53.9476
938.344	52.7844
940.012	52.474
941.681	53.5278
943.348	53.7493
945.014	53.7693
946.683	52.9635
948.349	52.131
950.015	51.0922
951.682	50.5915
953.347	50.1417
955.012	49.2638
956.676	47.3784
958.343	45.5428
960.006	44.215
961.67	45.4977
963.333	45.9658
964.998	46.1184
966.661	46.5677
968.323	46.96
969.985	47.069
971.649	46.8955
973.31	47.6064
974.971	48.7095
976.632	48.2301
978.293	49.032
979.953	50.0747
981.615	49.191
983.274	47.804
984.933	47.9368
986.592	48.9326
988.251	48.7241
989.909	47.9514
991.567	47.2665
993.225	47.5757
994.884	47.723
996.541	48.1568
998.198	49.3439
999.855	49.0965
1001.51	49.0995
1003.17	48.6498
1004.82	49.2647
1006.48	48.4305
1008.13	48.771
1009.79	48.8953
1011.44	49.3449
1013.1	49.6072
1014.75	48.815
1016.4	47.2861
1018.06	46.0352
1019.71	45.0824
1021.36	46.0668
1023.01	46.1651
1024.66	45.6473
1026.32	44.4624
1027.97	41.9487
1029.62	40.514
1031.27	38.6052
1032.92	37.3223
1034.57	36.4353
1036.22	35.256
1037.87	33.5671
1039.52	32.6231
1041.16	32.2862
1042.81	32.3534
1044.46	32.525
1046.11	31.0582
1047.76	29.8899
1049.4	29.7717
1051.05	29.1404
1052.7	28.2756
1054.34	27.5931
1055.99	26.1205
1057.63	24.0826
1059.28	21.5915
1060.92	20.4526
1062.57	19.8861
1064.21	17.8942
1065.85	17.32
1067.5	17.6811
1069.14	17.3371
1070.78	17.201
1072.43	17.0016
1074.07	17.7576
1075.71	18.6703
1077.35	18.3846
1078.99	18.6531
1080.63	17.5237
1082.27	17.909
1083.91	18.5767
1085.55	18.9173
1087.19	19.5654
1088.83	20.3237
1090.47	21.0235
1092.11	21.6897
1093.75	21.7186
1095.39	21.2504
1097.03	21.1825
1098.66	21.3179
1100.3	21.9308
1101.94	22.9534
1103.57	23.4062
1105.21	22.6393
1106.84	22.8059
1108.48	22.3071
1110.11	22.2414
1111.75	22.3587
1113.38	22.1245
1115.02	23.2347
1116.65	23.1358
1118.29	23.2234
1119.92	22.3822
1121.55	22.5086
1123.19	21.4601
1124.82	20.747
1126.45	19.3668
1128.08	18.6554
1129.71	19.2889
1131.34	18.6593
1132.97	18.2837
1134.6	17.9165
1136.23	18.0878
1137.86	17.5371
1139.49	16.8298
1141.12	16.8443
1142.75	16.9576
1144.38	17.3693
1146.01	16.0832
1147.64	15.9657
1149.26	15.8035
1150.89	15.8539
1152.52	15.4481
1154.15	14.3645
1155.77	13.6876
1157.4	13.0188
1159.02	11.6922
1160.65	11.5504
1162.27	11.6842
1163.9	12.1352
1165.52	11.777
1167.15	11.8812
1168.77	12.3735
1170.39	12.2012
1172.02	12.245
1173.64	12.9224
1175.26	12.9404
1176.89	12.6644
1178.51	12.9558
1180.13	13.258
1181.75	14.3673
1183.37	14.9748
1184.99	16.0132
1186.61	15.8166
1188.23	16.4148
1189.85	16.4944
1191.47	18.2273
1193.09	19.6069
1194.71	21.2476
1196.33	22.9071
1197.94	23.2356
1199.56	24.6722
1201.18	25.3562
1202.8	26.5944
1204.41	27.734
1206.03	28.3823
1207.65	29.5078
1209.26	31.5325
1210.88	34.3622
1212.49	35.8615
1214.11	37.9575
1215.72	39.9542
1217.34	42.0431
1218.95	43.391
1220.57	44.1718
1222.18	45.2404
1223.79	46.6557
1225.41	48.1145
1227.02	47.8406
1228.63	49.7269
1230.24	50.4148
1231.85	50.6231
1233.47	51.0979
1235.08	52.7795
1236.69	53.454
1238.3	55.1915
1239.91	56.4651
1241.52	57.9381
1243.13	58.9218
1244.74	59.8385
1246.34	60.3921
1247.95	61.2019
1249.56	61.1893
1251.17	61.4982
1252.78	62.0589
1254.38	62.186
1255.99	61.6656
1257.6	62.0628
1259.2	62.1825
1260.81	62.2297
1262.42	63.3915
1264.02	62.8733
1265.63	62.6876
1267.23	63.3267
1268.84	64.5369
1270.44	65.765
1272.04	67.1999
1273.65	67.5856
1275.25	67.5769
1276.85	68.6931
1278.46	69.0165
1280.06	69.8802
1281.66	70.419
1283.26	71.9071
1284.86	73.055
1286.46	74.1117
1288.07	75.3481
1289.67	76.3234
1291.27	77.5035
1292.87	76.9366
1294.47	77.5826
1296.06	79.036
1297.66	80.1712
1299.26	80.6988
1300.86	81.2392
1302.46	81.8221
1304.06	82.4589
1305.65	83.7889
1307.25	84.9347
1308.85	85.9788
1310.44	86.9184
1312.04	88.3482
1313.64	89.7537
1315.23	91.2071
1316.83	91.3849
1318.42	91.7187
1320.02	91.9227
1321.61	92.0116
1323.2	91.9397
1324.8	91.4959
1326.39	90.0469
1327.99	89.887
1329.58	88.9911
1331.17	87.8191
1332.76	87.3366
1334.36	85.5005
1335.95	84.0306
1337.54	82.5751
1339.13	81.3394
1340.72	79.6241
1342.31	77.9496
1343.9	75.8972
1345.49	75.0687
1347.08	74.3251
1348.67	72.1072
1350.26	71.3887
1351.85	70.2022
1353.43	68.6953
1355.02	66.8005
1356.61	66.2717
1358.2	64.471
1359.78	62.9568
1361.37	61.1345
1362.96	59.9376
1364.54	57.7202
1366.13	56.3292
1367.71	54.4076
1369.3	53.0598
1370.88	51.8301
1372.47	49.8999
1374.05	49.5638
1375.64	48.7033
1377.22	48.1362
1378.8	46.7717
1380.39	46.2203
1381.97	45.5626
1383.55	45.9327
1385.13	45.3714
1386.72	44.8444
1388.3	43.7585
1389.88	44.5142
1391.46	43.9262
1393.04	43.8091
1394.62	43.6385
1396.2	42.7085
1397.78	42.4057
1399.36	41.7114
1400.94	41.0563
1402.52	41.8666
1404.1	42.0095
1405.68	42.2443
1407.25	44.1717
1408.83	44.9918
1410.41	45.5081
1411.98	47.1191
1413.56	48.0334
1415.14	50.1421
1416.71	52.36
1418.29	54.4931
1419.87	56.7138
1421.44	60.2625
1423.02	64.6972
1424.59	68.7818
1426.16	72.0549
1427.74	74.5153
1429.31	78.4852
1430.89	81.8133
1432.46	84.8044
1434.03	87.4501
1435.6	90.2827
1437.18	91.8696
1438.75	93.7868
1440.32	95.3291
1441.89	97.279
1443.46	98.158
1445.03	98.7471
1446.6	99.0984
1448.17	99.3835
1449.74	98.7232
1451.31	97.3148
1452.88	96.28
1454.45	94.3226
1456.02	92.2111
1457.59	89.9944
1459.16	88.1493
1460.72	85.7339
1462.29	83.3416
1463.86	79.1904
1465.43	76.6633
1466.99	72.6314
1468.56	68.4885
1470.13	63.232
1471.69	59.2778
1473.26	54.7646
1474.82	49.9178
1476.38	46.2502
1477.95	41.5755
1479.51	38.037
1481.08	35.4216
1482.64	31.6526
1484.2	29.0315
1485.77	26.6
1487.33	23.2929
1488.89	20.7142
1490.46	18.0066
1492.02	16.3922
1493.58	15.1461
1495.14	14.1196
1496.7	13.5048
1498.26	13.5396
1499.82	14.0117
1501.38	13.7297
1502.94	13.0857
1504.5	12.8222
1506.06	12.9636
1507.62	14.1403
1509.18	14.2333
1510.73	13.3753
1512.29	13.5964
1513.85	14.0905
1515.41	14.477
1516.96	15.8492
1518.52	17.2966
1520.08	18.2132
1521.63	19.6147
1523.19	20.7913
1524.75	23.063
1526.3	24.8478
1527.85	26.3285
1529.41	28.5913
1530.96	29.5213
1532.52	30.7037
1534.07	32.4276
1535.62	33.8904
1537.18	35.9877
1538.73	37.2169
1540.28	37.9279
1541.84	38.6113
1543.39	40.4234
1544.94	41.5962
1546.49	43.111
1548.04	45.4315
1549.59	47.6419
1551.14	48.087
1552.69	48.2824
1554.25	50.0762
1555.79	51.2647
1557.34	52.3423
1558.89	53.9262
1560.44	54.7263
1561.99	56.2244
1563.54	56.9082
1565.08	58.3503
1566.63	58.7442
1568.18	59.3122
1569.73	61.5933
1571.27	62.9625
1572.82	64.8141
1574.37	66.4979
1575.91	67.8041
1577.46	68.4834
1579	69.0687
1580.55	69.3038
1582.09	70.3547
1583.64	70.7075
1585.18	71.6779
1586.73	72.1542
1588.27	72.6317
1589.81	74.0179
1591.35	74.7051
1592.9	74.5371
1594.44	75.5424
1595.98	75.5978
1597.52	74.8905
1599.06	74.9611
1600.61	74.6244
1602.15	74.4661
1603.69	73.624
1605.23	73.0163
1606.77	71.8075
1608.31	70.5519
1609.85	70.2893
1611.39	69.4612
1612.93	68.8968
1614.46	68.832
1616	68.0723
1617.54	67.8691
1619.08	68.8148
1620.61	68.8476
1622.15	69.301
1623.69	69.0847
1625.23	69.0597
1626.76	68.7149
1628.3	67.975
1629.83	68.4652
1631.37	69.8448
1632.9	69.8479
1634.44	70.0324
1635.97	72.1706
1637.51	74.4143
1639.04	76.5896
1640.57	78.3041
1642.11	79.5341
1643.64	79.8816
1645.17	81.8784
1646.71	83.3711
1648.24	84.5804
1649.77	86.3426
1651.3	86.8622
1652.83	87.8751
1654.36	88.0067
1655.89	88.5138
1657.42	88.5235
1658.96	89.1764
1660.48	88.4057
1662.01	88.1946
1663.54	87.0371
1665.07	85.7161
1666.6	84.6307
1668.13	82.6336
1669.66	80.5876
1671.19	78.8707
1672.71	76.7847
1674.24	74.9558
1675.77	72.6124
1677.29	70.7194
1678.82	68.0608
1680.35	65.3446
1681.87	62.843
1683.4	60.2627
1684.92	57.168
1686.45	53.2807
1687.97	49.0921
1689.5	46.4343
1691.02	43.7573
1692.54	41.5021
1694.07	38.4125
1695.59	35.3335
1697.11	31.8175
1698.64	28.9639
1700.16	26.032
1701.68	23.8664
1703.2	21.5389
1704.72	19.0644
1706.25	17.9716
1707.77	15.6636
1709.29	14.0089
1710.81	13.5981
1712.33	13.0667
1713.85	12.2433
1715.37	10.8881
1716.89	10.0221
1718.41	9.02717
1719.92	7.74854
1721.44	8.20787
1722.96	7.78158
1724.48	8.0391
1725.99	7.62362
1727.51	7.261
1729.03	7.15541
1730.55	6.17194
1732.06	6.26506
1733.58	6.36358
1735.09	6.62502
1736.61	7.07071
1738.13	7.33283
1739.64	7.49534
1741.15	7.40023
1742.67	6.93971
1744.18	6.54986
1745.7	6.63751
1747.21	6.66218
1748.72	7.29456
1750.24	6.15678
1751.75	5.76471
1753.26	5.48042
1754.77	5.1399
1756.29	4.5227
1757.8	5.02374
1759.31	5.2007
1760.82	4.45043
1762.33	3.74559
1763.84	3.56011
1765.35	3.84081
1766.86	3.9181
1768.37	3.2142
1769.88	2.40311
1771.39	2.13293
1772.9	1.94097
1774.4	1.59337
1775.91	1.77717
1777.42	1.82785
1778.93	1.46462
1780.44	0.980243
1781.94	1.16582
1783.45	0.769746
1784.96	1.40354
1786.46	1.52673
1787.97	1.58884
1789.47	2.02904
1790.98	2.18506
1792.48	2.59671
1793.99	2.68321
1795.49	2.26751
1797	2.96285
1798.5	2.79769
1800.01	2.87062
1801.51	2.98674
1803.01	3.88399
1804.51	3.91926
1806.02	3.59668
1807.52	3.73803
1809.02	3.92995
1810.52	3.8464
1812.02	3.25275
1813.52	2.01997
1815.02	1.9862
1816.53	1.16438
1818.03	0.28287
1819.52	0.444393
1821.02	0.266848
1822.52	0.221645
1824.02	-0.278082
1825.52	-0.838474
1827.02	0.330732
1828.52	0.358684
1830.02	0.824551
1831.51	0.796722
1833.01	1.33062
1834.51	1.42477
1836.01	0.959516
1837.5	1.10624
1839	1.41211
1840.49	1.92154
1841.99	2.04832
1843.49	2.12731
1844.98	2.93475
1846.48	3.20236
1847.97	3.2227
1849.47	3.75519
1850.96	3.9156
1852.45	3.83977
1853.95	3.249
1855.44	3.26578
1856.93	3.65395
1858.42	3.53931
1859.92	3.42995
1861.41	3.6708
1862.9	3.56309
1864.39	3.76247
1865.88	3.47913
1867.38	3.29997
1868.87	3.50551
1870.36	3.14434
1871.85	3.86984
1873.34	3.8567
1874.83	4.37159
1876.32	4.96757
1877.81	5.09821
1879.29	4.54414
1880.78	4.42792
1882.27	4.93828
1882.53	5.34026
1884.03	4.7489
1885.52	4.48764
1887.01	5.18028
1888.51	5.63959
1890	5.34261
1891.5	4.86565
1892.99	5.37743
1894.48	5.49501
1895.97	5.56816
1897.47	5.32466
1898.96	5.57501
1900.45	6.06337
1901.94	6.08849
1903.43	5.65148
1904.92	5.63253
1906.41	6.00833
1907.9	5.92214
1909.39	5.69187
1910.88	5.64919
1912.37	6.06735
1913.86	5.88659
1915.35	5.91072
1916.84	6.52489
1918.33	6.69031
1919.81	6.65989
1921.3	6.47917
1922.79	6.58584
1924.28	5.87165
1925.76	5.80944
1927.25	6.59452
1928.73	6.48215
1930.22	6.42795
1931.71	6.56574
1933.19	6.34385
1934.68	6.97397
1936.16	5.81021
1937.65	6.05781
1939.13	5.78062
1940.62	5.93235
1942.1	5.94229
1943.58	6.00359
1945.07	6.39598
1946.55	6.06368
1948.03	6.35007
1949.51	6.37073
1951	6.46982
1952.48	6.60039
1953.96	6.80348
1955.44	6.74124
1956.92	6.26095
1958.4	5.59162
1959.88	5.91812
1961.36	6.23819
1962.84	5.27273
1964.32	4.69099
1965.8	4.69566
1967.28	5.00641
1968.76	4.81521
1970.24	4.41128
1971.72	4.30325
1973.2	4.05127
1974.67	4.23164
1976.15	4.32397
1977.63	4.26447
1979.1	5.02422
1980.58	5.15194
1982.06	5.15508
1983.54	5.24546
1985.01	5.85997
1986.49	6.03085
1987.96	5.61087
1989.44	6.02051
1990.91	6.02584
1992.39	6.17745
1993.86	6.36703
1995.33	6.41542
1996.81	6.56997
1998.28	6.99092
1999.75	7.72416
2001.23	8.10466
2002.7	7.13065
2004.17	7.52937
2005.65	7.99312
2007.12	7.82336
2008.59	7.78553
2010.06	7.50019
2011.53	8.1012
2013	8.29869
2014.47	8.30793
2015.94	8.04406
2017.41	8.38247
2018.88	7.78205
2020.35	7.78167
2021.82	7.7226
2023.29	7.9051
2024.76	7.69962
2026.23	7.56602
2027.69	7.21735
2029.16	7.05126
2030.63	6.55432
2032.1	6.6648
2033.56	7.01288
2035.03	7.05789
2036.5	6.372
2037.96	6.89492
2039.43	8.01888
2040.89	8.74129
2042.36	9.0206
2043.83	9.37918
2045.29	9.7583
2046.75	10.2682
2048.22	11.3192
2049.68	11.739
2051.15	12.5996
2052.61	12.3854
2054.07	11.9015
2055.54	11.971
2057	12.5221
2058.46	12.7291
2059.92	12.5639
2061.39	12.8709
2062.85	12.9466
2064.31	13.6748
2065.77	14.4997
2067.23	15.2744
2068.69	15.2783
2070.15	15.901
2071.61	16.2923
2073.07	16.9525
2074.53	17.3453
2075.99	17.197
2077.45	17.6598
2078.91	18.0989
2080.37	17.796
2081.82	18.1516
2083.28	18.3587
2084.74	17.9323
2086.2	17.8222
2087.65	17.1655
2089.11	17.104
2090.57	16.8891
2092.02	16.8707
2093.48	16.9599
2094.94	16.4965
2096.39	16.6099
2097.85	16.7427
2099.3	17.087
2100.76	16.9987
2102.21	16.757
2103.66	16.8437
2105.12	17.6767
2106.57	18.4156
2108.03	18.6566
2109.48	18.8287
2110.93	19.9326
2112.38	20.633
2113.84	20.58
2115.29	20.444
2116.74	20.7247
2118.19	21.0565
2119.64	22.2602
2121.09	22.6107
2122.54	22.9283
2123.99	23.3425
2125.45	23.1426
2126.89	24.0528
2128.34	24.4278
2129.79	25.0298
2131.24	25.2004
2132.69	25.8371
2134.14	26.0788
