#Acq. time (s)=	45
#Accumulations=	2
#Range (cm-¹)=	200...3150
#Windows=	2
#Auto scanning=	Off
#Autofocus=	Off
#Macrospot=	Off
#AutoExposure=	Off
#Spike filter=	Multiple accum.
#Delay time (s)=	0
#Binning=	1
#Readout mode=	Signal
#DeNoise=	Off
#ICS correction=	On
#Dark correction=	Off
#Inst. Process=	Off
#Detector Gain=	Best Dynamic Range
#Detector ADC=	20 kHz       
#Detector temperature (°C)=	-69.85
#Instrument=	LabRAM HR Evol
#Detector=	Synapse
#Objective=	x100
#Grating=	600 gr/mm
#ND Filter=	100%
#Laser (nm)=	532 
#Hole=	100.021
#Range=	Auto
#Laser Pol.=	No
#Raman. Pol.=	No
#Laser Pol. (°)=	-0.0007625
#Raman Pol. (°)=	89.9995
#Collection=	Microscope
#StageXY=	Marzhauser
#StageZ=	Marzhauser
#X (µm)=	4769.5
#Y (µm)=	-7733.5
#Z (µm)=	584
#Full time(mm:ss)=	3:18
#Project=	
#Sample=	
#Site=	
#Title=	Thy_30_10_02_2x_45s_532 nm_x100_100%_600 gr_mm
#Remark=	
#Date=	30.06.2022 11:32
#Acquired=	30.06.2022 11:32:42
#Base:Fit=	10.08.2022 09:56:48
#Base:Fit=	10.08.2022 09:57:06
#Base:Fit=	10.08.2022 09:57:43
#Base:Fit=	10.08.2022 09:57:50
#Base:Fit=	10.08.2022 09:58:11
#Base:Sub=	10.08.2022 09:58:44
#Filter:Polynom=	16.08.2022 10:22:53
#AxisType[0]=Intens
#AxisUnit[0]=Cnt
#AxisType[1]=Spectr
#AxisUnit[1]=1/cm
200.533	1.7078
202.348	4.94738
204.162	5.73335
205.976	6.4853
207.792	7.05935
209.605	7.51308
211.418	8.09636
213.23	8.42156
215.044	8.55366
216.856	8.69234
218.667	9.35612
220.478	9.61333
222.289	9.6976
224.102	10.2057
225.912	10.9379
227.721	11.8343
229.531	13.5494
231.34	13.3577
233.148	13.6277
234.956	13.6555
236.766	13.7222
238.574	13.5256
240.381	13.7508
242.188	14.0949
243.994	13.2122
245.801	13.5665
247.606	12.0356
249.412	11.8039
251.217	11.1503
253.024	10.7909
254.828	11.2561
256.632	11.5198
258.436	11.0604
260.239	10.3881
262.042	10.3844
263.845	8.69477
265.647	8.98849
267.449	9.46548
269.25	9.30157
271.052	8.01216
272.852	7.3802
274.653	7.11423
276.453	6.75913
278.253	6.1761
280.052	6.13327
281.852	4.7729
283.65	5.34137
285.449	6.41902
287.247	6.08293
289.044	6.10412
290.842	6.24712
292.639	5.82503
294.436	5.88147
296.232	5.89126
298.028	6.04039
299.821	6.63777
301.617	7.75554
303.412	8.44782
305.206	9.57267
307	11.2575
308.794	11.9664
310.588	12.182
312.381	13.9774
314.172	15.4587
315.964	16.625
317.756	18.0768
319.548	19.0486
321.34	19.327
323.131	20.4858
324.921	21.7031
326.71	21.7131
328.5	22.1086
330.29	22.4566
332.079	22.6863
333.868	22.0765
335.654	22.5183
337.443	21.8572
339.231	22.5679
341.018	21.0061
342.804	21.0915
344.591	19.994
346.377	20.2196
348.163	19.3207
349.947	18.2345
351.733	16.9438
353.518	15.7817
355.303	14.5215
357.085	13.0479
358.869	10.8498
360.653	11.4997
362.435	11.6969
364.218	10.896
366.001	9.28534
367.781	9.10658
369.563	8.04043
371.345	7.76853
373.124	8.22343
374.905	7.99767
376.686	7.10888
378.464	6.36925
380.244	5.70696
382.022	4.67718
383.801	5.0112
385.58	5.39115
387.357	5.96317
389.135	6.80158
390.911	6.74516
392.689	6.03178
394.466	5.55875
396.241	5.78007
398.018	5.72453
399.792	6.91114
401.568	7.85223
403.341	7.75381
405.117	8.34462
406.889	9.69625
408.664	10.246
410.436	10.6322
412.21	10.109
413.981	9.70419
415.755	8.68843
417.525	9.15232
419.298	8.93939
421.068	8.36073
422.84	7.51696
424.609	7.28989
426.38	7.51552
428.149	5.80402
429.919	5.81714
431.688	6.15897
433.455	5.55779
435.225	4.55798
436.992	2.74286
438.76	1.83102
440.527	0.586016
442.293	1.38536
444.06	1.49975
445.826	2.80908
447.593	3.43967
449.357	5.23685
451.122	4.76356
452.888	5.61899
454.651	4.93726
456.415	5.45959
458.18	5.78714
459.942	6.72294
461.705	7.6319
463.469	8.42154
465.23	8.61903
466.991	8.87517
468.752	9.01034
470.515	8.88058
472.275	9.51534
474.035	8.85671
475.797	9.41426
477.556	9.55825
479.315	10.4785
481.073	10.6764
482.834	12.4601
484.592	14.7324
486.349	15.7211
488.106	15.8096
489.863	16.0569
491.622	16.5931
493.378	16.896
495.134	17.3212
496.889	16.9063
498.645	15.8267
500.401	16.6693
502.156	17.1309
503.91	17.0421
505.664	16.3431
507.417	16.0404
509.171	16.0698
510.923	16.4947
512.678	15.76
514.43	15.0438
516.182	13.5497
517.933	15.0205
519.684	14.2589
521.435	14.0092
523.186	13.1018
524.936	12.437
526.686	13.8649
528.435	13.2522
530.184	14.9134
531.933	14.263
533.682	13.7573
535.43	13.133
537.18	12.8972
538.927	11.9063
540.674	11.9639
542.421	11.4563
544.167	11.6743
545.913	11.6606
547.659	11.2321
549.403	10.9591
551.148	11.1941
552.893	10.6031
554.637	9.80152
556.381	9.6461
558.125	10.3216
559.868	10.5216
561.611	10.6703
563.354	10.544
565.097	11.8201
566.839	12.2994
568.581	11.4677
570.322	12.0371
572.063	10.9631
573.802	9.26676
575.542	7.54978
577.283	7.39497
579.022	6.78627
580.762	6.96973
582.501	7.21572
584.24	7.67406
585.976	7.8201
587.714	8.76955
589.452	7.22427
591.19	6.14807
592.927	5.75461
594.663	6.44512
596.398	6.13728
598.134	5.42381
599.87	5.23418
601.605	7.09676
603.338	8.28274
605.073	8.77854
606.808	8.50719
608.542	7.9911
610.274	8.14925
612.007	8.78019
613.74	8.82112
615.473	8.27767
617.204	9.0581
618.936	7.96938
620.668	8.66787
622.397	9.04299
624.128	9.62341
625.859	10.2953
627.588	11.3802
629.318	11.9918
631.048	12.6888
632.775	13.4158
634.505	14.3752
636.233	16.3152
637.96	17.401
639.688	17.376
641.416	17.4316
643.142	18.5538
644.869	18.8734
646.594	18.5055
648.32	19.3907
650.045	20.172
651.771	21.5947
653.496	21.703
655.219	21.5914
656.944	21.8873
658.667	20.9427
660.391	21.4405
662.113	22.1883
663.837	24.213
665.558	24.7806
667.281	25.6753
669.002	26.2507
670.724	27.3735
672.444	27.1086
674.166	28.0145
675.885	28.2068
677.606	28.9573
679.325	30.594
681.045	31.8722
682.763	31.9417
684.483	33.7368
686.2	35.2048
687.917	36.7568
689.636	36.6381
691.352	36.9168
693.07	38.9382
694.786	38.5893
696.501	38.9136
698.219	39.5128
699.933	39.8211
701.65	41.4358
703.364	41.8008
705.078	42.5337
706.793	44.5852
708.506	45.3559
710.219	46.9785
711.934	47.1072
713.646	47.4424
715.358	48.516
717.071	49.7722
718.782	49.6987
720.493	50.2844
722.204	52.0128
723.916	51.7802
725.626	53.3578
727.336	53.2963
729.045	53.2397
730.756	52.7555
732.464	53.9359
734.173	54.3087
735.881	54.368
737.59	54.5545
739.297	55.1647
741.004	54.6236
742.711	55.3245
744.417	55.2898
746.125	56.0799
747.831	56.7914
749.537	57.8965
751.242	58.8679
752.946	60.4667
754.651	61.7464
756.357	62.646
758.061	63.6226
759.764	63.2898
761.467	63.6823
763.17	65.199
764.872	66.6166
766.575	68.2521
768.276	69.188
769.978	71.5039
771.679	73.2683
773.382	74.6458
775.083	76.2836
776.783	78.3385
778.483	80.187
780.182	80.7312
781.882	82.7397
783.581	85.5743
785.279	88.0091
786.978	89.4833
788.676	90.8716
790.373	91.8746
792.071	93.3
793.768	94.0794
795.464	94.9808
797.161	96.2904
798.857	98.2953
800.552	100.345
802.248	101.133
803.941	101.053
805.636	102.739
807.33	103.571
809.024	102.319
810.718	101.843
812.412	101.276
814.105	101.388
815.798	101.151
817.49	101.708
819.183	100.907
820.873	101.16
822.564	101.074
824.256	100.533
825.947	99.7537
827.637	99.2136
829.328	98.4981
831.016	97.6276
832.705	97.2011
834.395	96.4422
836.084	95.7785
837.772	93.6374
839.459	91.5623
841.147	90.2623
842.835	89.7392
844.522	88.5027
846.209	89.6604
847.894	89.0528
849.581	88.0928
851.267	86.8432
852.953	84.6552
854.637	83.5525
856.322	82.6155
858.007	81.4557
859.689	80.6034
861.374	78.8169
863.058	78.3696
864.739	76.7137
866.423	75.6734
868.106	74.2957
869.787	73.3323
871.469	70.9611
873.151	70.4445
874.831	69.2984
876.512	69.4373
878.193	67.6351
879.872	67.4619
881.553	66.709
883.231	65.7125
884.911	64.5475
886.591	63.1864
888.268	62.3378
889.947	61.4422
891.623	60.1945
893.302	60.0824
894.978	60.2119
896.656	59.601
898.331	59.2467
900.008	58.167
901.683	59.2406
903.359	58.1049
905.033	57.479
906.709	56.7433
908.383	56.3486
910.058	55.9438
911.731	56.056
913.405	56.0344
915.078	55.6235
916.752	55.7417
918.423	56.3789
920.096	57.15
921.768	57.1568
923.438	57.2741
925.111	57.1923
926.781	57.1929
928.452	56.3875
930.122	56.044
931.791	55.4854
933.462	55.1002
935.13	54.2164
936.799	54.0174
938.468	53.9797
940.136	53.9073
941.803	53.4181
943.472	52.1367
945.139	52.6169
946.805	53.0275
948.473	52.1715
950.139	53.364
951.804	53.7883
953.471	54.7784
955.136	55.0405
956.801	56.5252
958.465	56.1227
960.131	55.7285
961.794	54.9738
963.458	55.6261
965.12	56.0729
966.785	56.3991
968.447	56.3619
970.109	56.5551
971.771	57.8309
973.432	58.8451
975.095	60.0952
976.756	61.0744
978.417	60.5667
980.077	60.3965
981.737	61.7646
983.396	61.4528
985.057	63.3492
986.716	62.4446
988.375	63.5256
990.033	63.9207
991.691	63.8899
993.349	64.7742
995.006	65.7542
996.663	65.6096
998.32	66.0032
999.976	65.7502
1001.63	66.5557
1003.29	66.6615
1004.95	66.4662
1006.6	64.9412
1008.26	64.8305
1009.91	65.3073
1011.56	65.6325
1013.22	66.3434
1014.87	65.4426
1016.53	64.113
1018.18	63.5856
1019.83	63.3374
1021.48	63.0589
1023.14	62.7874
1024.79	61.9429
1026.44	62.0359
1028.09	62.7119
1029.74	62.3153
1031.39	61.7856
1033.04	61.1706
1034.69	59.6675
1036.34	58.4788
1037.99	58.4932
1039.64	57.258
1041.29	55.3197
1042.94	54.1641
1044.58	53.9535
1046.23	53.0808
1047.88	52.2772
1049.52	50.8939
1051.17	50.649
1052.82	50.2865
1054.46	50.5738
1056.11	49.6411
1057.75	48.3798
1059.4	46.131
1061.04	44.368
1062.69	43.9577
1064.33	44.6324
1065.98	44.7893
1067.62	45.4037
1069.26	44.2533
1070.9	43.5703
1072.55	42.3385
1074.19	42.2781
1075.83	42.6465
1077.47	42.0377
1079.11	41.4898
1080.76	41.7537
1082.4	41.6855
1084.04	41.8739
1085.68	42.28
1087.32	42.0106
1088.95	41.8916
1090.59	42.4466
1092.23	42.2148
1093.87	42.8582
1095.51	43.1989
1097.15	42.7094
1098.78	42.4274
1100.42	42.9096
1102.06	43.1375
1103.69	43.5086
1105.33	43.7189
1106.97	43.7486
1108.6	44.2282
1110.24	44.584
1111.87	44.3122
1113.51	43.3617
1115.14	42.4146
1116.77	42.5621
1118.41	42.0137
1120.04	42.1807
1121.67	40.97
1123.31	40.1845
1124.94	38.9226
1126.57	38.6603
1128.2	37.7825
1129.83	37.2647
1131.47	36.7032
1133.1	36.4247
1134.72	36.209
1136.36	35.3367
1137.98	34.5525
1139.62	33.7025
1141.24	32.6695
1142.87	33.3579
1144.5	34.0568
1146.13	33.8527
1147.76	32.5942
1149.38	29.8456
1151.01	28.665
1152.64	26.8655
1154.27	26.619
1155.89	26.4107
1157.52	25.0698
1159.14	24.1895
1160.77	23.4683
1162.39	23.4135
1164.02	22.3341
1165.64	21.5934
1167.27	22.3798
1168.89	21.1506
1170.51	20.2746
1172.14	19.7827
1173.76	20.9009
1175.38	22.2694
1177	23.0057
1178.63	22.5129
1180.25	22.9901
1181.87	23.6589
1183.49	24.976
1185.11	26.3462
1186.73	27.0518
1188.35	27.5689
1189.97	28.6328
1191.59	30.0859
1193.21	30.8575
1194.83	31.6717
1196.45	31.4645
1198.07	33.8626
1199.68	34.4307
1201.3	36.2293
1202.92	37.7292
1204.53	39.7003
1206.15	41.0632
1207.77	43.0694
1209.38	44.7007
1211	46.5116
1212.62	47.8196
1214.23	50.4861
1215.84	52.2118
1217.46	52.7829
1219.07	53.9057
1220.69	55.7103
1222.3	58.1058
1223.91	59.9827
1225.53	61.9157
1227.14	62.2215
1228.75	63.1683
1230.36	64.2187
1231.97	66.9348
1233.59	68.0884
1235.2	70.2507
1236.81	71.4402
1238.42	72.0276
1240.03	73.5653
1241.64	75.3729
1243.25	77.5676
1244.85	78.1084
1246.46	79.938
1248.07	81.4546
1249.68	81.9849
1251.29	83.9906
1252.9	86.4202
1254.5	87.5197
1256.11	88.2814
1257.72	89.2934
1259.32	90.5615
1260.93	91.4834
1262.54	91.8513
1264.14	93.0919
1265.75	93.2607
1267.35	93.0464
1268.96	93.1926
1270.56	93.7042
1272.16	93.3787
1273.77	93.2984
1275.37	92.9282
1276.97	92.1022
1278.57	92.8663
1280.18	92.4023
1281.78	92.5818
1283.38	92.387
1284.98	92.6367
1286.58	91.888
1288.18	92.3562
1289.78	92.8804
1291.38	92.7749
1292.99	93.2236
1294.58	92.878
1296.18	92.2498
1297.78	91.5648
1299.38	91.8818
1300.98	94.0004
1302.58	94.312
1304.17	93.5472
1305.77	93.3857
1307.37	92.9982
1308.97	93.5517
1310.56	94.2086
1312.16	95.1337
1313.76	95.4338
1315.35	95.8655
1316.95	96.4789
1318.54	97.3482
1320.14	98.5813
1321.73	99.4947
1323.32	98.5657
1324.92	97.4111
1326.51	98.2629
1328.1	97.9458
1329.7	98.475
1331.29	98.0008
1332.88	97.1173
1334.47	95.4953
1336.07	95.6838
1337.66	94.6121
1339.25	94.0384
1340.84	92.3245
1342.43	91.9419
1344.02	90.8202
1345.61	88.5663
1347.2	87.4176
1348.79	85.9398
1350.37	84.7081
1351.96	82.707
1353.55	81.7003
1355.14	80.4985
1356.73	78.431
1358.31	76.8839
1359.9	75.8031
1361.49	74.9738
1363.07	73.7568
1364.66	73.7865
1366.25	72.9652
1367.83	72.1408
1369.42	70.4529
1371	69.2029
1372.59	68.5085
1374.17	65.5314
1375.75	65.3456
1377.34	65.018
1378.92	64.0628
1380.5	63.6928
1382.09	63.7262
1383.67	63.2603
1385.25	62.4019
1386.83	61.685
1388.42	61.1445
1390	60.9171
1391.58	59.791
1393.16	59.0944
1394.74	58.2965
1396.32	58.4096
1397.9	58.2862
1399.48	57.5434
1401.06	56.3157
1402.64	55.7187
1404.21	56.6072
1405.79	57.5932
1407.37	56.9744
1408.95	56.8774
1410.53	56.4411
1412.1	56.9218
1413.68	57.1685
1415.26	58.4058
1416.83	59.1248
1418.41	60.312
1419.98	60.9926
1421.56	60.9196
1423.13	61.4749
1424.71	61.7834
1426.28	64.362
1427.86	67.3291
1429.43	70.2356
1431	72.025
1432.58	74.8813
1434.15	77.266
1435.72	78.8923
1437.29	81.5191
1438.87	83.8554
1440.44	85.3719
1442.01	86.3343
1443.58	88.5941
1445.15	89.0498
1446.72	89.6236
1448.29	90.3528
1449.86	91.0127
1451.43	90.7016
1453	89.4239
1454.57	89.767
1456.14	88.7203
1457.71	86.7614
1459.27	85.9554
1460.84	84.1938
1462.41	80.3379
1463.98	76.5659
1465.54	74.9297
1467.11	72.5605
1468.67	69.9336
1470.24	66.3967
1471.81	64.2995
1473.37	61.5984
1474.94	59.4169
1476.5	57.2053
1478.07	53.9112
1479.63	51.4149
1481.19	49.1205
1482.76	46.1625
1484.32	43.3288
1485.88	40.6959
1487.45	37.2325
1489.01	34.597
1490.57	31.8238
1492.13	30.0763
1493.69	28.6914
1495.26	27.5263
1496.82	25.3745
1498.38	24.5683
1499.94	23.428
1501.5	24.2551
1503.06	24.7626
1504.62	26.1626
1506.17	26.5705
1507.73	25.6458
1509.29	24.9849
1510.85	25.346
1512.41	24.5523
1513.97	24.3635
1515.52	24.1419
1517.08	24.0217
1518.64	24.1609
1520.19	25.1825
1521.75	26.3193
1523.31	26.4526
1524.86	27.008
1526.42	27.3471
1527.97	27.5611
1529.52	27.7747
1531.08	29.2078
1532.63	29.997
1534.19	30.7717
1535.74	30.9763
1537.29	32.4707
1538.85	33.2326
1540.4	36.1238
1541.95	37.7436
1543.5	41.6475
1545.06	43.4272
1546.61	45.634
1548.16	47.3737
1549.71	49.8624
1551.26	52.2397
1552.81	54.7257
1554.36	56.2235
1555.91	58.4281
1557.46	60.7095
1559.01	62.0571
1560.56	63.2311
1562.11	64.508
1563.65	65.9817
1565.2	66.7929
1566.75	69.4882
1568.29	72.1926
1569.84	74.3632
1571.39	75.8804
1572.94	77.0136
1574.48	77.7264
1576.03	79.2589
1577.57	80.5747
1579.12	82.0802
1580.66	83.8895
1582.21	84.0321
1583.75	84.4589
1585.3	85.5098
1586.84	85.8933
1588.38	86.2293
1589.93	86.2058
1591.47	86.7563
1593.01	86.3004
1594.55	85.1572
1596.1	84.8348
1597.64	84.4314
1599.18	83.9107
1600.72	82.9913
1602.26	81.8268
1603.8	80.8427
1605.34	79.6582
1606.88	79.2401
1608.42	78.9365
1609.96	77.3331
1611.5	75.9509
1613.04	75.3175
1614.58	75.5378
1616.12	75.0101
1617.65	75.7329
1619.19	74.6082
1620.73	74.922
1622.27	73.8815
1623.8	73.5486
1625.34	73.4953
1626.87	74.0113
1628.41	74.2158
1629.95	74.9802
1631.48	75.5435
1633.02	77.1721
1634.55	78.5177
1636.09	79.3311
1637.62	79.9639
1639.15	82.4653
1640.69	84.6097
1642.22	87.0012
1643.76	89.3703
1645.29	91.5639
1646.82	92.4432
1648.35	94.0839
1649.88	95.6491
1651.42	97.4596
1652.95	98.2251
1654.48	100.208
1656.01	101.134
1657.54	102.04
1659.07	102.267
1660.6	102.892
1662.13	102.284
1663.66	100.792
1665.19	98.8286
1666.72	97.5489
1668.24	95.2984
1669.77	93.1309
1671.3	90.7558
1672.83	89.1374
1674.35	86.6436
1675.88	83.4299
1677.41	80.0269
1678.93	77.2121
1680.46	74.4062
1681.99	70.866
1683.51	67.6125
1685.04	63.9964
1686.56	60.1355
1688.09	56.1565
1689.61	53.1009
1691.13	50.0308
1692.66	47.178
1694.18	44.3852
1695.71	41.0299
1697.23	38.4811
1698.75	35.4284
1700.27	33.4823
1701.8	32.7468
1703.32	31.2063
1704.84	29.5949
1706.36	28.8545
1707.88	26.6804
1709.4	25.0031
1710.92	23.4853
1712.44	21.2991
1713.96	20.1183
1715.48	19.5296
1717	18.2559
1718.52	18.1043
1720.04	17.0175
1721.56	16.5069
1723.07	15.3799
1724.59	14.8714
1726.11	14.0659
1727.63	13.169
1729.14	12.3316
1730.66	12.1007
1732.18	10.9226
1733.69	10.083
1735.21	9.61839
1736.72	8.84701
1738.24	7.86038
1739.75	7.60763
1741.27	7.13504
1742.78	7.27292
1744.3	5.88196
1745.81	5.50477
1747.32	5.162
1748.84	4.78464
1750.35	4.39573
1751.86	3.65473
1753.37	3.69232
1754.89	3.2768
1756.4	2.76945
1757.91	2.27145
1759.42	2.77522
1760.93	3.00312
1762.44	2.50455
1763.95	2.22722
1765.46	3.07587
1766.97	3.03535
1768.48	3.16554
1769.99	2.84217
1771.5	3.08125
1773.01	3.83053
1774.52	3.98831
1776.03	4.87855
1777.53	4.95244
1779.04	4.044
1780.55	3.67807
1782.06	3.0627
1783.56	2.30732
1785.07	2.36395
1786.57	2.35865
1788.08	2.81951
1789.59	3.16487
1791.09	3.02368
1792.6	3.14637
1794.1	3.07374
1795.6	2.52461
1797.11	2.45882
1798.61	2.06176
1800.12	1.6322
1801.62	0.840758
1803.12	0.990456
1804.63	0.836727
1806.13	0.395443
1807.63	0.588795
1809.13	0.746369
1810.63	1.21374
1812.14	1.38502
1813.64	0.636883
1815.14	0.565877
1816.64	0.404688
1818.14	0.317208
1819.64	0.261269
1821.14	0.774862
1822.64	1.03111
1824.14	1.14241
1825.63	1.13022
1827.13	1.32897
1828.63	0.924553
1830.13	0.735308
1831.63	0.829849
1833.12	0.610436
1834.62	0.848645
1836.12	0.878055
1837.62	0.648188
1839.11	0.510315
1840.61	0.762153
1842.1	0.64868
1843.6	1.45666
1845.09	1.75952
1846.59	2.19267
1848.08	2.28735
1849.58	2.45142
1851.07	1.99546
1852.57	2.18712
1854.06	2.40147
1855.55	2.42789
1857.04	2.81948
1858.54	3.66099
1860.03	3.39068
1861.52	3.75398
1863.01	3.64929
1864.5	3.75005
1866	3.26669
1867.49	3.60723
1868.98	3.49015
1870.47	3.02944
1871.96	3.34243
1873.45	3.21383
1874.94	3.18157
1876.43	3.22006
1877.92	3.24734
1879.41	2.78735
1880.89	2.62641
1882.38	2.27416
1882.48	2.0389
1883.97	2.12947
1885.47	2.29694
1886.96	1.82842
1888.46	1.51957
1889.95	1.63215
1891.44	1.06953
1892.94	0.580824
1894.43	0.540797
1895.92	0.575151
1897.41	0.591557
1898.9	-0.419461
1900.4	-0.693738
1901.89	-0.752804
1903.38	-0.638075
1904.87	-0.481533
1906.36	0.185622
1907.85	0.190737
1909.34	0.37178
1910.83	0.0626052
1912.32	0.487713
1913.81	0.655429
1915.29	1.7123
1916.78	1.98808
1918.27	1.94979
1919.76	2.57954
1921.25	2.05447
1922.74	2.2667
1924.22	1.94888
1925.71	2.17972
1927.2	2.33991
1928.68	2.71029
1930.17	2.89981
1931.65	3.17975
1933.14	3.02218
1934.63	3.40775
1936.11	2.80918
1937.59	3.46351
1939.08	3.67018
1940.56	4.0454
1942.05	4.01916
1943.53	3.9641
1945.01	4.52767
1946.5	4.52302
1947.98	4.38129
1949.46	4.42457
1950.94	4.25218
1952.43	4.57839
1953.91	3.93591
1955.39	4.21616
1956.87	4.29493
1958.35	4.53563
1959.83	4.4919
1961.31	4.02599
1962.79	3.87652
1964.27	4.47743
1965.75	4.5315
1967.23	5.04573
1968.71	5.15312
1970.19	5.07733
1971.67	4.74913
1973.14	4.85362
1974.62	4.97376
1976.1	4.67675
1977.58	4.29642
1979.05	4.38906
1980.53	4.54062
1982.01	4.18921
1983.48	5.2376
1984.96	4.74046
1986.43	4.48001
1987.91	4.6045
1989.38	4.49654
1990.86	3.78093
1992.33	3.3573
1993.81	3.74096
1995.28	2.99643
1996.76	2.69316
1998.23	1.85729
1999.7	2.05332
2001.18	1.85158
2002.65	1.91645
2004.12	1.37659
2005.59	1.50602
2007.06	1.52823
2008.54	0.882605
2010.01	0.960201
2011.48	2.1672
2012.95	2.38496
2014.42	2.39134
2015.89	3.00574
2017.36	3.2471
2018.83	3.51884
2020.3	3.90302
2021.77	3.80723
2023.24	4.20363
2024.71	4.21422
2026.17	3.71568
2027.64	3.7368
2029.11	4.92059
2030.58	5.02773
2032.04	5.07242
2033.51	5.39455
2034.98	6.21451
2036.45	6.53735
2037.91	6.93238
2039.38	6.9489
2040.84	7.34799
2042.31	7.41736
2043.77	8.25904
2045.24	9.38026
2046.7	10.204
2048.17	9.47483
2049.63	9.68347
2051.1	10.5204
2052.56	11.3205
2054.02	11.7313
2055.48	11.6656
2056.95	12.7283
2058.41	12.4953
2059.87	13.4603
2061.33	14.1797
2062.8	13.7207
2064.26	14.4528
2065.72	14.0421
2067.18	14.4241
2068.64	13.8191
2070.1	13.2113
2071.56	13.884
2073.02	14.9837
2074.48	15.0989
2075.94	15.7297
2077.4	16.4085
2078.86	17.0915
2080.31	16.898
2081.77	17.545
2083.23	18.0888
2084.69	18.6149
2086.14	18.7192
2087.6	19.1834
2089.06	19.6351
2090.52	19.5342
2091.97	19.5364
2093.43	19.9027
2094.88	19.5613
2096.34	20.1784
2097.79	20.6071
2099.25	20.8926
2100.7	22.0579
2102.16	22.191
2103.61	22.9975
2105.07	24.0022
2106.52	25.011
2107.97	25.579
2109.43	25.8339
2110.88	27.0356
2112.33	28.1786
2113.78	29.2008
2115.24	30.222
2116.69	31.5641
2118.14	32.8972
2119.59	33.8083
