#Acq. time (s)=	45
#Accumulations=	2
#Range (cm-¹)=	200...3150
#Windows=	2
#Auto scanning=	Off
#Autofocus=	Off
#Macrospot=	Off
#AutoExposure=	Off
#Spike filter=	Multiple accum.
#Delay time (s)=	0
#Binning=	1
#Readout mode=	Signal
#DeNoise=	Off
#ICS correction=	On
#Dark correction=	Off
#Inst. Process=	Off
#Detector Gain=	Best Dynamic Range
#Detector ADC=	20 kHz       
#Detector temperature (°C)=	-69.85
#Instrument=	LabRAM HR Evol
#Detector=	Synapse
#Objective=	x100
#Grating=	600 gr/mm
#ND Filter=	100%
#Laser (nm)=	532 
#Hole=	100.021
#Range=	Auto
#Laser Pol.=	No
#Raman. Pol.=	No
#Laser Pol. (°)=	-0.0007625
#Raman Pol. (°)=	89.9995
#Collection=	Microscope
#StageXY=	Marzhauser
#StageZ=	Marzhauser
#X (µm)=	-5910.3
#Y (µm)=	2881.4
#Z (µm)=	-223.55
#Full time(mm:ss)=	3:18
#Project=	
#Sample=	
#Site=	
#Title=	Thy_20_09_25_2x_45s_532 nm_x100_100%_600 gr_mm
#Remark=	
#Date=	29.06.2022 12:25
#Acquired=	29.06.2022 12:25:16
#Base:Fit=	10.08.2022 09:52:02
#Base:Fit=	10.08.2022 09:52:12
#Base:Sub=	10.08.2022 09:54:21
#Filter:Polynom=	16.08.2022 10:24:04
#AxisType[0]=Intens
#AxisUnit[0]=Cnt
#AxisType[1]=Spectr
#AxisUnit[1]=1/cm
200.523	-5.51805
202.339	-3.3519
204.154	-0.990748
205.967	1.16063
207.781	2.28296
209.596	2.49242
211.409	2.50802
213.222	2.93777
215.034	3.17966
216.848	3.69515
218.659	4.40284
220.47	4.88314
222.281	4.61174
224.091	5.34373
225.903	5.52279
227.713	5.6288
229.522	5.59423
231.331	4.92196
233.14	4.72041
234.948	5.40003
236.756	4.96978
238.566	5.42669
240.373	6.48042
242.18	7.20261
243.986	7.22153
245.792	7.17094
247.598	7.16059
249.403	6.76572
251.208	6.48923
253.013	5.9304
254.818	6.00089
256.624	6.00567
258.427	5.65593
260.231	4.18307
262.034	5.27477
263.836	4.38544
265.638	4.47206
267.44	4.3537
269.242	3.82181
271.043	5.48779
272.844	6.2138
274.645	5.83976
276.445	5.8245
278.245	6.11475
280.044	6.96434
281.843	7.70612
283.642	7.32081
285.44	8.55501
287.238	8.04611
289.036	8.20982
290.833	8.0261
292.63	7.30666
294.425	6.83569
296.221	6.35978
298.017	6.59413
299.813	7.33279
301.608	8.63931
303.403	8.58791
305.198	9.42339
306.992	9.84463
308.786	10.6421
310.579	10.871
312.371	11.8479
314.163	12.9433
315.956	12.9496
317.748	13.5718
319.54	13.2571
321.331	13.7077
323.122	14.9313
324.911	15.5138
326.701	15.4044
328.491	15.6264
330.281	16.3232
332.071	15.7773
333.857	15.962
335.646	15.7445
337.434	15.8785
339.222	14.8669
341.008	14.8411
342.795	14.2082
344.582	13.5164
346.369	13.147
348.153	12.1921
349.939	12.4116
351.724	13.1282
353.51	11.7257
355.292	11.8109
357.077	12.175
358.861	12.4828
360.643	12.8543
362.426	12.4072
364.21	11.5886
365.99	11.639
367.773	11.971
369.555	11.7557
371.335	11.2523
373.116	9.83768
374.897	9.6039
376.676	8.60353
378.456	7.75748
380.236	6.69389
382.014	6.58278
383.793	5.99673
385.57	5.41456
387.349	6.0116
389.127	5.34135
390.903	4.99533
392.681	4.89204
394.456	5.66176
396.233	5.24329
398.007	5.49465
399.784	5.61306
401.56	5.82702
403.333	5.34042
405.108	4.16473
406.881	4.58667
408.656	3.90288
410.428	4.05347
412.202	4.30562
413.973	4.35099
415.746	4.52281
417.517	5.82001
419.29	6.82945
421.06	7.27921
422.831	8.22019
424.601	7.95167
426.37	7.31517
428.141	7.0677
429.909	6.94109
431.679	6.54376
433.447	6.9785
435.216	8.38167
436.983	9.26447
438.75	9.82762
440.519	9.97704
442.285	10.3471
444.052	11.6185
445.818	12.4256
447.583	11.9535
449.349	12.0054
451.114	11.9405
452.878	11.3875
454.643	12.0048
456.407	11.9624
458.169	12.2438
459.934	12.2401
461.696	11.7882
463.458	12.0392
465.222	12.8877
466.983	12.8114
468.744	12.5195
470.507	13.1825
472.267	13.3227
474.027	13.6937
475.787	14.0364
477.548	13.5364
479.307	14.3735
481.065	15.2791
482.823	15.321
484.583	15.4147
486.341	15.3025
488.098	15.3287
489.855	15.8291
491.612	16.2035
493.37	16.4633
495.126	17.6282
496.881	17.809
498.636	18.8523
500.391	21.2178
502.148	22.4337
503.902	23.5628
505.656	24.7795
507.409	23.9344
509.162	24.0062
510.915	22.7856
512.668	22.186
514.42	21.3892
516.174	21.8653
517.925	21.3971
519.676	21.7803
521.427	21.633
523.178	21.3144
524.928	20.6156
526.678	20.4397
528.427	19.9106
530.176	18.6499
531.925	18.0961
533.673	16.7294
535.422	16.1095
537.169	16.6918
538.917	15.5313
540.664	15.8433
542.411	14.9469
544.157	13.8934
545.903	13.8207
547.649	12.2941
549.395	12.869
551.14	12.3074
552.884	11.7501
554.629	10.7528
556.373	9.90063
558.117	8.79569
559.86	7.51451
561.603	6.81664
563.346	6.57105
565.089	5.40465
566.831	4.5694
568.573	4.57365
570.314	3.69117
572.053	2.3088
573.794	2.13969
575.534	2.75118
577.274	3.49429
579.014	3.92213
580.754	4.52077
582.493	4.71006
584.23	5.91113
585.968	5.59861
587.706	5.90194
589.444	5.18415
591.181	5.03437
592.919	4.41575
594.653	3.62554
596.39	3.6262
598.126	4.11001
599.862	5.32939
601.595	5.39531
603.33	6.0483
605.065	6.6974
606.8	6.41329
608.532	6.59129
610.266	7.00427
611.999	6.93333
613.732	7.31781
615.463	6.74076
617.196	6.85155
618.928	7.09024
620.66	8.64128
622.389	10.586
624.12	11.469
625.851	10.8688
627.58	11.2696
629.31	10.455
631.04	11.4056
632.767	11.8679
634.497	11.9076
636.223	13.1734
637.952	12.4187
639.68	12.9888
641.406	13.6734
643.134	13.7192
644.861	14.2133
646.586	15.5239
648.312	16.6012
650.037	17.65
651.762	17.475
653.486	18.9902
655.211	20.3861
656.936	20.7529
658.659	21.6482
660.383	24.1038
662.105	25.2457
663.829	26.0066
665.55	26.4084
667.273	25.6345
668.994	25.3291
670.716	25.2952
672.436	25.0402
674.158	26.4548
675.877	26.598
677.598	27.2496
679.317	27.2206
681.035	28.041
682.755	28.7148
684.473	29.7324
686.192	29.6667
687.909	29.5186
689.628	29.7949
691.344	30.2759
693.06	29.9535
694.778	30.6341
696.493	31.1366
698.211	31.3304
699.925	32.038
701.64	33.1394
703.356	34.6932
705.07	35.8334
706.783	37.6744
708.498	37.2156
710.211	37.306
711.924	37.6114
713.638	37.9199
715.35	39.6257
717.061	40.8275
718.774	41.3267
720.485	42.4183
722.196	43.7985
723.906	44.9147
725.618	46.7464
727.328	47.1517
729.037	49.4135
730.746	50.5248
732.456	52.2413
734.165	53.3055
735.873	54.3412
737.58	54.961
739.289	56.9834
740.997	58.1162
742.703	59.4359
744.41	60.4477
746.116	61.0182
747.823	60.4664
749.529	61.0945
751.234	61.0375
752.938	61.1625
754.643	62.2366
756.347	63.9854
758.051	65.3047
759.756	66.2741
761.459	67.1353
763.162	68.7739
764.865	68.6677
766.567	69.3658
768.269	69.8598
769.97	70.5181
771.671	70.5905
773.372	71.1716
775.073	72.7613
776.773	74.2601
778.473	74.7828
780.174	75.7684
781.874	76.3686
783.573	78.1802
785.271	79.1052
786.97	80.0374
788.668	80.3875
790.365	79.9643
792.063	80.6987
793.76	79.9282
795.456	80.6628
797.153	81.5245
798.847	81.2197
800.543	81.6783
802.238	81.2278
803.933	81.4573
805.628	82.1912
807.322	81.8243
809.017	82.2637
810.71	82.5234
812.404	82.5714
814.097	83.505
815.79	83.1435
817.483	83.4278
819.173	82.4463
820.865	82.6414
822.556	82.6935
824.248	82.2956
825.939	81.735
827.629	80.7646
829.318	80.2394
831.008	78.8965
832.697	77.7973
834.387	76.2673
836.076	75.1833
837.765	74.9041
839.451	74.2866
841.139	73.5808
842.827	71.6413
844.514	70.4208
846.2	68.9934
847.886	66.9037
849.573	65.048
851.259	64.2597
852.943	63.3892
854.629	62.5458
856.314	61.7958
857.997	61.614
859.682	61.512
861.366	59.569
863.05	58.444
864.732	57.4059
866.415	56.7563
868.098	55.7957
869.779	54.0852
871.461	53.1609
873.141	52.2534
874.823	52.6073
876.505	51.7862
878.184	50.8523
879.865	51.9293
881.545	51.2181
883.223	50.2446
884.903	50.6079
886.581	50.8827
888.26	51.597
889.937	51.4817
891.616	52.2269
893.294	53.2746
894.97	53.227
896.648	53.259
898.323	53.2931
900	53.9944
901.675	53.0356
903.351	51.6993
905.026	52.0036
906.701	51.3419
908.375	50.4746
910.05	50.1043
911.723	49.1793
913.398	48.6618
915.07	47.7277
916.742	47.0758
918.415	47.5374
920.087	47.9622
921.76	47.6773
923.43	47.4519
925.103	46.7272
926.773	46.2773
928.443	45.8355
930.114	45.0476
931.783	44.4176
933.454	44.1375
935.123	43.0568
936.791	42.7443
938.461	42.5183
940.128	41.9064
941.796	40.7787
943.464	38.6977
945.131	36.4928
946.797	35.8823
948.465	34.6759
950.131	34.124
951.797	34.1094
953.462	34.1494
955.128	33.2704
956.793	33.015
958.457	32.6022
960.121	31.0904
961.786	31.2454
963.45	30.6827
965.113	30.5015
966.775	31.5812
968.44	32.0158
970.102	32.6287
971.763	33.6555
973.425	33.9459
975.086	34.2868
976.748	33.6617
978.409	34.2755
980.069	33.8671
981.729	33.5361
983.388	33.1616
985.048	32.1906
986.708	32.1882
988.367	32.6538
990.025	31.687
991.683	31.2725
993.341	31.3792
994.998	31.6159
996.655	31.4105
998.312	31.5963
999.969	32.1283
1001.62	32.1777
1003.28	31.8538
1004.94	32.2911
1006.59	32.1222
1008.25	31.4449
1009.9	31.4007
1011.56	30.9876
1013.21	30.065
1014.86	29.6605
1016.52	28.6401
1018.17	28.0628
1019.82	28.2395
1021.48	27.855
1023.13	26.6466
1024.78	26.358
1026.43	25.2159
1028.08	24.876
1029.73	23.9501
1031.38	23.4968
1033.03	23.3579
1034.68	23.1063
1036.33	20.7737
1037.98	20.1698
1039.63	19.1322
1041.28	18.5132
1042.93	19.213
1044.57	18.9955
1046.22	18.5381
1047.87	19.4448
1049.52	19.2981
1051.16	20.1214
1052.81	20.4509
1054.45	20.5778
1056.1	20.6332
1057.75	20.0517
1059.39	19.8266
1061.04	19.3409
1062.68	17.4091
1064.32	16.7742
1065.97	16.7815
1067.61	16.4975
1069.25	15.5108
1070.9	15.2529
1072.54	14.5425
1074.18	14.9225
1075.82	15.6925
1077.47	15.3765
1079.11	14.8293
1080.75	14.8472
1082.39	14.8481
1084.03	13.5561
1085.67	13.2024
1087.31	12.9209
1088.95	12.4544
1090.59	12.7387
1092.22	13.3483
1093.86	12.233
1095.5	11.7133
1097.14	12.5583
1098.78	13.2823
1100.41	14.8662
1102.05	16.3415
1103.69	16.5999
1105.32	16.1568
1106.96	16.6773
1108.59	15.9108
1110.23	15.4356
1111.86	15.5716
1113.5	16.146
1115.13	15.8396
1116.77	16.15
1118.4	15.6663
1120.03	16.0765
1121.67	15.1306
1123.3	15.5415
1124.93	16.2225
1126.56	15.9333
1128.19	16.9365
1129.83	17.6581
1131.46	18.3148
1133.09	18.6122
1134.72	18.4588
1136.35	18.2323
1137.98	18.2036
1139.61	17.3188
1141.24	16.9886
1142.86	16.7011
1144.49	16.1424
1146.12	16.0596
1147.75	15.8376
1149.38	14.5021
1151	13.1895
1152.63	12.469
1154.26	11.2794
1155.88	10.9871
1157.51	10.4536
1159.14	8.83472
1160.76	7.58858
1162.39	6.40406
1164.01	4.61205
1165.63	3.94374
1167.26	3.26907
1168.88	3.30795
1170.51	3.1736
1172.13	3.90236
1173.75	3.08298
1175.38	1.62705
1177	2.80018
1178.62	4.75086
1180.24	5.67567
1181.86	6.87805
1183.48	6.63203
1185.1	7.07151
1186.72	7.66209
1188.34	8.53158
1189.96	9.27724
1191.58	9.23694
1193.2	10.0528
1194.82	10.9922
1196.44	12.1514
1198.06	13.5826
1199.68	14.6034
1201.29	16.7052
1202.91	18.5396
1204.53	20.1648
1206.14	22.3998
1207.76	24.0086
1209.38	25.3856
1210.99	26.8429
1212.61	29.1752
1214.22	30.9437
1215.84	32.8391
1217.45	34.1613
1219.07	35.6915
1220.68	37.0087
1222.29	38.86
1223.91	40.6405
1225.52	42.759
1227.13	44.9384
1228.74	46.8288
1230.36	48.202
1231.97	49.9849
1233.58	51.8076
1235.19	53.8706
1236.8	55.5255
1238.41	55.4169
1240.02	55.4839
1241.63	56.0393
1243.24	58.1535
1244.85	59.118
1246.46	60.2999
1248.07	60.2018
1249.67	61.5045
1251.28	62.9338
1252.89	63.3255
1254.5	62.6712
1256.1	63.8541
1257.71	64.9209
1259.32	66.651
1260.92	67.3852
1262.53	68.0831
1264.13	67.7596
1265.74	69.47
1267.34	69.6539
1268.95	70.6552
1270.55	70.2844
1272.15	71.8087
1273.76	73.6135
1275.36	75.0786
1276.97	75.7941
1278.57	76.1178
1280.17	77.6773
1281.77	77.6228
1283.37	78.1423
1284.97	78.412
1286.58	79.5523
1288.18	80.6468
1289.78	81.5365
1291.38	82.6551
1292.98	83.58
1294.58	84.6496
1296.18	85.1755
1297.78	86.6436
1299.37	87.4796
1300.97	89.249
1302.57	90.3377
1304.17	91.6492
1305.77	92.9712
1307.36	92.6768
1308.96	92.6555
1310.55	92.4276
1312.15	93.0072
1313.75	93.2122
1315.34	92.8227
1316.94	92.0983
1318.53	91.0417
1320.13	91.7973
1321.72	91.3124
1323.32	91.9455
1324.91	90.1124
1326.5	89.9424
1328.1	89.3443
1329.69	88.8253
1331.28	87.7058
1332.87	85.9622
1334.47	85.142
1336.06	85.0983
1337.65	84.6926
1339.24	84.2873
1340.83	83.9076
1342.42	82.793
1344.01	81.943
1345.6	80.9746
1347.19	79.7737
1348.78	79.0229
1350.37	78.534
1351.96	79.0876
1353.54	76.9035
1355.13	76.3487
1356.72	74.99
1358.31	73.3348
1359.89	72.9171
1361.48	71.7321
1363.07	72.1596
1364.65	71.0813
1366.24	69.4998
1367.82	69.0012
1369.41	67.6937
1370.99	67.1407
1372.58	67.5056
1374.16	67.2725
1375.75	67.195
1377.33	67.0109
1378.91	66.5889
1380.5	66.3327
1382.08	65.9353
1383.66	65.8526
1385.25	65.3092
1386.83	64.2003
1388.41	64.5214
1389.99	63.6548
1391.57	63.6788
1393.15	62.9119
1394.73	61.9412
1396.31	61.1676
1397.89	60.5841
1399.47	60.5165
1401.05	60.3656
1402.63	61.6533
1404.21	61.2576
1405.78	61.3756
1407.36	60.8478
1408.94	60.9765
1410.52	61.8438
1412.1	62.2449
1413.67	63.3609
1415.25	64.5048
1416.82	65.3439
1418.4	66.5165
1419.98	68.2396
1421.55	70.0788
1423.13	71.7782
1424.7	73.2062
1426.28	75.2574
1427.85	77.9031
1429.42	80.0734
1431	80.9454
1432.57	82.0415
1434.14	84.868
1435.71	85.3047
1437.29	86.4861
1438.86	88.8211
1440.43	88.6739
1442	89.0911
1443.57	89.7757
1445.14	89.7046
1446.71	91.5612
1448.28	92.623
1449.85	94.6094
1451.42	95.5174
1452.99	94.991
1454.56	94.7785
1456.13	94.2201
1457.7	92.8703
1459.26	91.0866
1460.83	89.6223
1462.4	87.6461
1463.97	85.8083
1465.54	83.638
1467.1	81.7221
1468.67	78.7786
1470.23	76.7145
1471.8	74.2304
1473.36	71.1972
1474.93	68.8436
1476.49	66.7477
1478.06	64.6668
1479.62	61.8064
1481.19	59.2589
1482.75	56.2109
1484.31	53.2235
1485.88	50.9189
1487.44	48.2752
1489	45.9165
1490.56	43.4526
1492.13	42.016
1493.69	40.4202
1495.25	38.4941
1496.81	37.0576
1498.37	35.3311
1499.93	33.6606
1501.49	31.7736
1503.05	30.1226
1504.61	29.6118
1506.17	28.2261
1507.73	26.7062
1509.28	25.2295
1510.84	24.3507
1512.4	24.2015
1513.96	24.0058
1515.52	24.0352
1517.07	24.66
1518.63	24.1484
1520.19	26.1545
1521.74	27.5209
1523.3	28.4415
1524.85	30.74
1526.41	32.101
1527.96	33.6338
1529.52	34.085
1531.07	35.3881
1532.63	36.7969
1534.18	36.5076
1535.73	35.4616
1537.29	36.3901
1538.84	39.6065
1540.39	43.4352
1541.94	47.55
1543.5	51.0327
1545.05	54.6039
1546.6	57.5911
1548.15	61.0211
1549.7	65.0181
1551.25	68.4815
1552.8	72.6009
1554.35	74.8604
1555.9	77.3602
1557.45	79.8936
1559	82.1843
1560.55	84.6654
1562.1	87.1105
1563.65	89.6834
1565.19	90.9497
1566.74	93.6791
1568.29	95.3519
1569.83	96.1601
1571.38	97.4129
1572.93	98.5673
1574.47	100.286
1576.02	101.699
1577.56	102.287
1579.11	103.786
1580.66	104.641
1582.2	105.125
1583.74	104.302
1585.29	104.575
1586.83	104.024
1588.38	104.12
1589.92	103.206
1591.46	102.789
1593.01	100.619
1594.55	99.1317
1596.09	97.3832
1597.63	95.293
1599.17	93.4978
1600.71	92.8653
1602.25	91.197
1603.79	89.1949
1605.34	87.0738
1606.88	84.237
1608.41	82.414
1609.95	79.5158
1611.49	77.6546
1613.03	78.0261
1614.57	79.3597
1616.11	81.4051
1617.65	81.5243
1619.18	81.0018
1620.72	79.2704
1622.26	79.792
1623.79	79.5484
1625.33	80.1963
1626.87	81.0876
1628.4	80.9379
1629.94	81.2941
1631.48	79.8016
1633.01	80.0252
1634.55	79.6777
1636.08	79.3621
1637.61	80.8639
1639.15	80.5081
1640.68	80.485
1642.21	80.631
1643.75	82.1505
1645.28	81.7546
1646.81	81.6175
1648.34	82.9443
1649.88	83.8555
1651.41	84.5047
1652.94	83.5585
1654.47	82.4211
1656	82.0038
1657.53	81.3139
1659.06	79.5902
1660.59	77.9642
1662.12	76.6719
1663.65	75.8008
1665.18	74.6693
1666.71	72.7207
1668.24	71.2858
1669.76	68.3885
1671.29	66.8755
1672.82	64.5544
1674.35	63.0685
1675.87	61.3835
1677.4	59.1784
1678.93	56.2031
1680.45	53.7696
1681.98	51.5782
1683.5	49.9009
1685.03	48.3745
1686.55	45.9428
1688.08	44.359
1689.6	41.8475
1691.13	39.2808
1692.65	37.5774
1694.17	36.0575
1695.7	34.7149
1697.22	32.981
1698.74	32.398
1700.27	30.3074
1701.79	29.2509
1703.31	27.8305
1704.83	25.7897
1706.35	24.1198
1707.87	21.7363
1709.39	21.0028
1710.91	20.4245
1712.43	19.9291
1713.95	19.6374
1715.47	17.7221
1716.99	17.4596
1718.51	16.839
1720.03	16.2115
1721.55	15.0248
1723.07	14.8226
1724.58	14.8524
1726.1	14.2016
1727.62	13.4753
1729.13	11.931
1730.65	11.9914
1732.17	11.9224
1733.68	11.9783
1735.2	11.2257
1736.72	10.9588
1738.23	11.1051
1739.74	10.5114
1741.26	9.6053
1742.77	8.50913
1744.29	7.55813
1745.8	6.53964
1747.32	7.02437
1748.83	6.34385
1750.34	6.01596
1751.85	5.1041
1753.37	4.4785
1754.88	4.36484
1756.39	4.17852
1757.9	4.61484
1759.41	4.51116
1760.92	3.45761
1762.44	3.39556
1763.95	3.24926
1765.46	3.05333
1766.96	3.0673
1768.47	3.49749
1769.98	3.69987
1771.49	3.4416
1773	2.88593
1774.51	3.20182
1776.02	3.26306
1777.53	2.64893
1779.03	2.41761
1780.54	2.15126
1782.05	2.07262
1783.55	2.42831
1785.06	2.84634
1786.57	3.25409
1788.07	2.99463
1789.58	3.09103
1791.08	3.13838
1792.59	2.89075
1794.09	3.0382
1795.6	3.33775
1797.1	3.18507
1798.61	3.16701
1800.11	2.7792
1801.61	2.78753
1803.12	3.55816
1804.62	3.42792
1806.12	4.41784
1807.62	4.16589
1809.12	4.08253
1810.63	4.11476
1812.13	4.66368
1813.63	4.64703
1815.13	4.45322
1816.63	4.79509
1818.13	4.83093
1819.63	4.8344
1821.13	4.81259
1822.63	5.25763
1824.13	4.84297
1825.63	4.8704
1827.13	4.84616
1828.62	4.73842
1830.12	5.00278
1831.62	5.184
1833.12	5.04633
1834.61	4.81378
1836.11	4.19913
1837.61	4.56073
1839.1	3.80626
1840.6	3.85028
1842.09	3.74978
1843.59	4.06285
1845.09	4.56384
1846.58	4.84833
1848.08	4.29105
1849.57	4.78278
1851.06	4.66359
1852.56	4.42586
1854.05	4.61239
1855.54	4.85189
1857.04	5.34863
1858.53	5.86213
1860.02	5.73826
1861.51	5.67715
1863.01	6.04783
1864.5	6.39017
1865.99	6.76678
1867.48	6.16308
1868.97	6.82746
1870.46	6.89551
1871.95	6.24308
1873.44	6.53193
1874.93	7.20529
1876.42	7.42551
1877.91	8.05274
1879.4	8.07897
1880.89	8.44462
1882.37	7.92153
1882.46	7.91708
1883.95	7.36246
1885.45	7.15635
1886.94	6.74603
1888.43	7.16187
1889.93	6.90695
1891.42	6.16733
1892.91	5.75381
1894.41	4.93451
1895.9	4.66941
1897.39	4.34364
1898.88	3.23066
1900.37	2.76599
1901.86	2.51623
1903.36	2.71798
1904.85	2.48798
1906.34	2.72887
1907.83	3.47746
1909.32	3.04072
1910.81	2.95568
1912.29	2.55856
1913.78	2.62566
1915.27	3.02552
1916.76	2.75506
1918.25	2.91815
1919.74	2.87026
1921.23	2.61544
1922.71	3.27929
1924.2	3.14384
1925.69	3.18806
1927.17	2.87713
1928.66	2.93932
1930.15	3.4092
1931.63	2.811
1933.12	2.53539
1934.6	2.56501
1936.09	2.69383
1937.57	2.6949
1939.06	2.87366
1940.54	2.48174
1942.02	2.40813
1943.51	2.31015
1944.99	1.8304
1946.47	2.21687
1947.96	1.86727
1949.44	1.49547
1950.92	1.52078
1952.4	1.42069
1953.88	1.19932
1955.37	1.21439
1956.85	1.03691
1958.33	0.321142
1959.81	0.853235
1961.29	0.351554
1962.77	0.186501
1964.25	-0.543826
1965.73	-1.08816
1967.21	-1.00287
1968.69	-1.48807
1970.16	-0.62585
1971.64	-0.486916
1973.12	-0.713693
1974.6	0.29703
1976.08	0.632418
1977.55	1.19965
1979.03	1.02021
1980.51	1.32942
1981.98	1.31307
1983.46	0.972448
1984.94	1.18561
1986.41	1.7421
1987.89	2.08145
1989.36	3.03998
1990.84	2.88595
1992.31	3.57388
1993.79	3.56098
1995.26	4.18452
1996.73	4.4147
1998.21	4.52365
1999.68	4.17917
2001.15	3.74131
2002.63	3.62355
2004.1	3.87025
2005.57	3.63085
2007.04	4.19358
2008.51	4.2482
2009.99	4.08997
2011.46	3.86372
2012.93	4.17431
2014.4	3.67856
2015.87	4.16906
2017.34	4.20576
2018.81	3.89763
2020.28	5.12184
2021.75	4.96276
2023.21	5.31096
2024.68	5.70892
2026.15	5.96203
2027.62	6.49488
2029.09	6.69886
2030.56	6.40557
2032.02	5.78396
2033.49	5.89111
2034.96	5.4986
2036.42	5.89416
2037.89	6.24559
2039.36	6.72995
2040.82	7.14493
2042.29	7.58274
2043.75	7.97396
2045.22	7.93759
2046.68	7.84579
2048.14	8.04714
2049.61	7.65904
2051.07	6.97047
2052.54	7.37348
2054	7.59513
2055.46	7.48431
2056.93	7.09886
2058.39	6.67013
2059.85	6.50901
2061.31	6.40346
2062.77	7.36739
2064.23	7.07626
2065.7	6.87988
2067.16	7.29334
2068.62	7.71988
2070.08	7.6193
2071.54	7.64412
2073	7.57581
2074.46	7.84167
2075.92	7.63204
2077.38	8.29181
2078.83	8.03441
2080.29	8.21679
2081.75	7.76565
2083.21	7.49977
2084.67	7.87449
2086.12	8.7452
2087.58	8.7982
2089.04	9.38342
2090.49	9.08061
2091.95	10.1767
2093.41	11.2093
2094.86	11.1638
2096.32	12.038
2097.77	12.6268
2099.23	13.3105
2100.68	13.7881
2102.14	14.1041
2103.59	14.4874
2105.05	14.7775
2106.5	15.8594
2107.95	17.198
2109.41	17.7347
2110.86	18.8326
2112.31	19.4631
2113.76	20.0771
2115.21	20.7182
2116.67	21.559
2118.12	21.6201
2119.57	22.0763
2121.02	23.216
2122.47	23.0661
2123.92	23.6302
2125.37	24.9574
2126.82	24.8665
2128.27	25.3502
2129.72	26.6443
2131.17	27.8038
2132.62	28.9157
