#Acq. time (s)=	45
#Accumulations=	2
#Range (cm-¹)=	200...3150
#Windows=	2
#Auto scanning=	Off
#Autofocus=	Off
#Macrospot=	Off
#AutoExposure=	Off
#Spike filter=	Multiple accum.
#Delay time (s)=	0
#Binning=	1
#Readout mode=	Signal
#DeNoise=	Off
#ICS correction=	On
#Dark correction=	Off
#Inst. Process=	Off
#Detector Gain=	Best Dynamic Range
#Detector ADC=	20 kHz       
#Detector temperature (°C)=	-69.85
#Instrument=	LabRAM HR Evol
#Detector=	Synapse
#Objective=	x100
#Grating=	600 gr/mm
#ND Filter=	100%
#Laser (nm)=	532 
#Hole=	100.021
#Range=	Auto
#Laser Pol.=	No
#Raman. Pol.=	No
#Laser Pol. (°)=	-0.0007625
#Raman Pol. (°)=	89.9995
#Collection=	Microscope
#StageXY=	Marzhauser
#StageZ=	Marzhauser
#X (µm)=	-5919.4
#Y (µm)=	2884.6
#Z (µm)=	-223.4
#Full time(mm:ss)=	3:18
#Project=	
#Sample=	
#Site=	
#Title=	Thy_20_09_28_2x_45s_532 nm_x100_100%_600 gr_mm
#Remark=	
#Date=	29.06.2022 12:36
#Acquired=	29.06.2022 12:36:45
#Base:Fit=	10.08.2022 09:52:02
#Base:Fit=	10.08.2022 09:52:12
#Base:Sub=	10.08.2022 09:54:21
#Filter:Polynom=	16.08.2022 10:24:04
#AxisType[0]=Intens
#AxisUnit[0]=Cnt
#AxisType[1]=Spectr
#AxisUnit[1]=1/cm
200.523	36.2791
202.339	33.6984
204.154	31.2008
205.967	28.9788
207.781	26.999
209.596	25.3626
211.409	23.9251
213.222	22.8149
215.034	21.2672
216.848	20.2283
218.659	19.9922
220.47	17.856
222.281	16.7602
224.091	15.437
225.903	13.7193
227.713	12.5805
229.522	11.5042
231.331	9.75513
233.14	9.54722
234.948	9.18125
236.756	8.32116
238.566	8.43225
240.373	7.02002
242.18	6.6567
243.986	5.91113
245.792	5.23555
247.598	4.39083
249.403	3.86991
251.208	4.0923
253.013	3.14034
254.818	3.48079
256.624	3.66827
258.427	3.9332
260.231	3.20602
262.034	2.91059
263.836	2.15842
265.638	2.16943
267.44	3.17963
269.242	2.6738
271.043	3.01947
272.844	2.76142
274.645	3.0935
276.445	3.44666
278.245	3.17947
280.044	3.78897
281.843	3.87035
283.642	4.37834
285.44	4.6944
287.238	5.13583
289.036	5.93539
290.833	7.19028
292.63	7.79899
294.425	8.73619
296.221	9.53385
298.017	10.2858
299.813	10.9266
301.608	11.5016
303.403	12.01
305.198	12.1402
306.992	13.3248
308.786	13.4126
310.579	13.3864
312.371	14.3847
314.163	15.0302
315.956	14.9484
317.748	15.4948
319.54	15.0307
321.331	14.3521
323.122	14.7997
324.911	13.9878
326.701	13.955
328.491	13.0436
330.281	12.9692
332.071	13.6052
333.857	13.1345
335.646	13.0818
337.434	12.6604
339.222	12.2421
341.008	11.3784
342.795	10.1872
344.582	9.79575
346.369	9.43866
348.153	8.43016
349.939	7.5671
351.724	7.09382
353.51	5.917
355.292	5.66818
357.077	5.099
358.861	4.37514
360.643	3.35713
362.426	2.85144
364.21	1.98722
365.99	2.19607
367.773	1.91274
369.555	2.25341
371.335	2.18514
373.116	2.13484
374.897	1.39151
376.676	0.53287
378.456	0.421887
380.236	0.229811
382.014	-0.292405
383.793	0.675231
385.57	0.58352
387.349	0.826911
389.127	1.17665
390.903	1.28894
392.681	1.64123
394.456	2.84731
396.233	3.32197
398.007	3.10683
399.784	3.58936
401.56	2.92656
403.333	2.37716
405.108	1.48079
406.881	1.52271
408.656	0.968815
410.428	1.3898
412.202	2.25511
413.973	2.89524
415.746	3.3015
417.517	3.29247
419.29	5.14756
421.06	4.68032
422.831	4.24468
424.601	4.08707
426.37	3.34443
428.141	2.61849
429.909	2.80939
431.679	3.50368
433.447	3.31242
435.216	4.28491
436.983	3.38758
438.75	3.5052
440.519	3.23436
442.285	3.36644
444.052	3.31683
445.818	4.23968
447.583	5.05429
449.349	4.64842
451.114	6.00458
452.878	6.67734
454.643	7.43616
456.407	7.20005
458.169	7.93076
459.934	8.57541
461.696	9.29014
463.458	9.83387
465.222	10.976
466.983	11.9985
468.744	13.4478
470.507	14.0006
472.267	16.0493
474.027	16.3513
475.787	16.284
477.548	17.0084
479.307	16.9259
481.065	17.6729
482.823	17.5925
484.583	16.6598
486.341	16.5675
488.098	17.0033
489.855	17.0801
491.612	16.9926
493.37	17.4225
495.126	18.4563
496.881	18.6384
498.636	19.2576
500.391	18.7566
502.148	18.3019
503.902	17.5756
505.656	17.9789
507.409	17.9047
509.162	17.0434
510.915	15.7277
512.668	14.6588
514.42	13.4286
516.174	13.1373
517.925	13.451
519.676	12.5174
521.427	11.276
523.178	11.2301
524.928	8.89537
526.678	9.23146
528.427	8.92807
530.176	9.30895
531.925	9.35595
533.673	9.99537
535.422	8.88579
537.169	8.35693
538.917	8.78346
540.664	8.21241
542.411	8.33393
544.157	8.64382
545.903	8.69868
547.649	9.87521
549.395	9.83846
551.14	9.71768
552.884	10.845
554.629	11.3981
556.373	11.0049
558.117	9.72028
559.86	9.30574
561.603	8.30818
563.346	8.28761
565.089	7.98949
566.831	6.82233
568.573	7.27514
570.314	6.74672
572.053	6.414
573.794	7.27584
575.534	6.96109
577.274	6.47742
579.014	6.17462
580.754	7.1069
582.493	7.29239
584.23	7.50971
585.968	7.51197
587.706	7.37174
589.444	7.2692
591.181	7.69728
592.919	7.83458
594.653	7.06402
596.39	6.56795
598.126	6.1328
599.862	6.21917
601.595	6.39634
603.33	7.21578
605.065	7.59295
606.8	6.88125
608.532	6.97265
610.266	7.3384
611.999	6.7045
613.732	7.73951
615.463	6.88404
617.196	6.40536
618.928	6.26662
620.66	7.48562
622.389	7.05452
624.12	7.89005
625.851	8.51184
627.58	8.03078
629.31	9.65672
631.04	9.92787
632.767	10.0857
634.497	11.2271
636.223	11.0078
637.952	11.4803
639.68	11.5216
641.406	11.4733
643.134	10.0315
644.861	10.4303
646.586	11.6629
648.312	11.9863
650.037	11.7383
651.762	11.9734
653.486	12.8241
655.211	13.3324
656.936	13.3761
658.659	13.8558
660.383	14.1771
662.105	14.2155
663.829	15.3745
665.55	16.4578
667.273	17.8429
668.994	18.7137
670.716	19.1005
672.436	19.0237
674.158	19.1949
675.877	18.871
677.598	19.9694
679.317	20.8445
681.035	21.5906
682.755	22.366
684.473	22.8007
686.192	23.9713
687.909	24.1884
689.628	25.0928
691.344	24.9915
693.06	24.2187
694.778	24.4856
696.493	24.6778
698.211	24.8793
699.925	25.307
701.64	25.4874
703.356	26.6866
705.07	28.0184
706.783	28.167
708.498	27.9317
710.211	29.3602
711.924	30.3542
713.638	31.0908
715.35	33.231
717.061	32.5398
718.774	32.7404
720.485	33.3363
722.196	34.3336
723.906	35.4109
725.618	35.7104
727.328	36.2609
729.037	36.5908
730.746	38.5932
732.456	39.0487
734.165	39.5502
735.873	41.3056
737.58	42.1936
739.289	42.0226
740.997	42.772
742.703	44.4578
744.41	45.0412
746.116	46.0885
747.823	48.086
749.529	50.0433
751.234	51.6306
752.938	53.6214
754.643	55.2324
756.347	55.8967
758.051	57.8413
759.756	59.7263
761.459	61.4286
763.162	62.9467
764.865	64.7796
766.567	65.9906
768.269	67.2806
769.97	68.5454
771.671	69.632
773.372	69.7204
775.073	71.5068
776.773	72.1144
778.473	71.7954
780.174	72.7798
781.874	73.8664
783.573	74.6275
785.271	75.1024
786.97	76.4825
788.668	77.4799
790.365	77.7922
792.063	78.6478
793.76	79.4055
795.456	79.3525
797.153	79.1427
798.847	79.5629
800.543	80.1757
802.238	79.2695
803.933	79.3365
805.628	79.0559
807.322	78.4715
809.017	77.6582
810.71	76.0717
812.404	76.1058
814.097	75.481
815.79	74.3403
817.483	73.1763
819.173	72.2463
820.865	71.7795
822.556	70.5463
824.248	69.9022
825.939	70.4838
827.629	69.7429
829.318	69.4402
831.008	69.7897
832.697	69.8736
834.387	69.7681
836.076	69.4891
837.765	68.5416
839.451	68.1846
841.139	66.1858
842.827	65.805
844.514	64.9235
846.2	63.2234
847.886	62.1165
849.573	60.7564
851.259	58.6188
852.943	56.9093
854.629	54.9969
856.314	53.453
857.997	52.5383
859.682	51.6399
861.366	49.5442
863.05	47.8637
864.732	48.0097
866.415	46.5587
868.098	45.434
869.779	44.6367
871.461	44.7216
873.141	42.9193
874.823	41.5905
876.505	41.7205
878.184	40.966
879.865	39.836
881.545	40.4256
883.223	41.1207
884.903	40.0153
886.581	37.5437
888.26	36.3769
889.937	35.2731
891.616	35.2245
893.294	35.173
894.97	34.7894
896.648	34.2948
898.323	33.312
900	32.8369
901.675	33.0357
903.351	33.0943
905.026	33.849
906.701	33.456
908.375	33.3109
910.05	34.4508
911.723	34.0583
913.398	35.2387
915.07	34.5474
916.742	34.1704
918.415	34.0164
920.087	33.7363
921.76	32.6707
923.43	32.0009
925.103	30.3383
926.773	30.4591
928.443	29.4301
930.114	29.1008
931.783	27.4864
933.454	25.9382
935.123	25.7545
936.791	25.7103
938.461	25.1687
940.128	24.8998
941.796	24.5618
943.464	24.3125
945.131	23.6632
946.797	22.6935
948.465	22.3402
950.131	22.2379
951.797	22.701
953.462	22.7756
955.128	23.3501
956.793	22.7029
958.457	22.9302
960.121	21.7176
961.786	20.5857
963.45	21.3158
965.113	22.201
966.775	22.3553
968.44	21.4854
970.102	22.0303
971.763	23.9565
973.425	24.6887
975.086	24.0728
976.748	24.1677
978.409	24.1757
980.069	24.3615
981.729	24.601
983.388	24.8328
985.048	25.2452
986.708	25.0203
988.367	23.5105
990.025	23.4989
991.683	23.752
993.341	23.8502
994.998	23.0023
996.655	22.3445
998.312	20.8409
999.969	20.4572
1001.62	18.7763
1003.28	17.8078
1004.94	17.1069
1006.59	16.1632
1008.25	15.8445
1009.9	16.1531
1011.56	15.4414
1013.21	14.4107
1014.86	12.7316
1016.52	13.1473
1018.17	13.4698
1019.82	13.7316
1021.48	13.3361
1023.13	12.647
1024.78	12.6805
1026.43	11.8055
1028.08	10.2826
1029.73	10.3649
1031.38	10.9843
1033.03	11.6229
1034.68	11.0075
1036.33	11.4683
1037.98	11.127
1039.63	10.1874
1041.28	9.90252
1042.93	9.75362
1044.57	11.9771
1046.22	13.6408
1047.87	13.2607
1049.52	14.6329
1051.16	15.3452
1052.81	15.4561
1054.45	15.3733
1056.1	14.73
1057.75	14.122
1059.39	14.709
1061.04	15.0564
1062.68	14.8938
1064.32	15.1497
1065.97	15.6905
1067.61	16.3225
1069.25	16.0432
1070.9	15.1686
1072.54	16.1929
1074.18	15.6896
1075.82	15.8338
1077.47	16.4551
1079.11	16.2108
1080.75	16.7704
1082.39	16.8811
1084.03	16.8537
1085.67	17.9048
1087.31	18.349
1088.95	18.1803
1090.59	17.8271
1092.22	18.1427
1093.86	16.8563
1095.5	16.7915
1097.14	16.9463
1098.78	17.1511
1100.41	17.2792
1102.05	16.9216
1103.69	16.8833
1105.32	16.5958
1106.96	15.8472
1108.59	15.3183
1110.23	14.6589
1111.86	14.8134
1113.5	13.7847
1115.13	13.5269
1116.77	12.3633
1118.4	11.6135
1120.03	9.58407
1121.67	9.32963
1123.3	9.59303
1124.93	9.37481
1126.56	8.85484
1128.19	7.81745
1129.83	7.7369
1131.46	7.35473
1133.09	6.61884
1134.72	5.79809
1136.35	5.6139
1137.98	4.37888
1139.61	3.49339
1141.24	4.50195
1142.86	4.35534
1144.49	4.14094
1146.12	4.40073
1147.75	4.00407
1149.38	3.71698
1151	2.9286
1152.63	3.25514
1154.26	3.89703
1155.88	4.20779
1157.51	4.68151
1159.14	4.61784
1160.76	3.44914
1162.39	3.72891
1164.01	2.81147
1165.63	2.58514
1167.26	1.91613
1168.88	2.32827
1170.51	2.19448
1172.13	2.10334
1173.75	2.23411
1175.38	2.09136
1177	2.99007
1178.62	3.14747
1180.24	3.36168
1181.86	5.0954
1183.48	5.0508
1185.1	5.0605
1186.72	4.80632
1188.34	5.13949
1189.96	6.95016
1191.58	6.93206
1193.2	7.94119
1194.82	8.45599
1196.44	9.0368
1198.06	9.11313
1199.68	9.68033
1201.29	11.4037
1202.91	14.2356
1204.53	15.4917
1206.14	17.261
1207.76	18.6425
1209.38	20.3084
1210.99	22.5193
1212.61	23.865
1214.22	26.1492
1215.84	27.3424
1217.45	28.813
1219.07	30.25
1220.68	31.7716
1222.29	33.7077
1223.91	34.2516
1225.52	35.8468
1227.13	38.112
1228.74	39.7822
1230.36	40.9552
1231.97	41.9384
1233.58	43.33
1235.19	43.4315
1236.8	43.7143
1238.41	44.0357
1240.02	44.4991
1241.63	45.7055
1243.24	47.6983
1244.85	48.4153
1246.46	50.2578
1248.07	51.3206
1249.67	52.092
1251.28	51.3708
1252.89	51.6638
1254.5	52.198
1256.1	52.6506
1257.71	53.4583
1259.32	54.9045
1260.92	55.8126
1262.53	57.3942
1264.13	57.4599
1265.74	58.807
1267.34	60.4128
1268.95	60.9877
1270.55	62.3741
1272.15	62.8933
1273.76	64.7013
1275.36	66.4868
1276.97	68.2067
1278.57	70.0313
1280.17	72.4552
1281.77	75.158
1283.37	77.6096
1284.97	79.2849
1286.58	81.0881
1288.18	82.323
1289.78	83.8842
1291.38	85.4925
1292.98	87.5047
1294.58	88.2987
1296.18	89.2758
1297.78	90.4924
1299.37	91.2768
1300.97	93.023
1302.57	95.2037
1304.17	96.2441
1305.77	98.4452
1307.36	100.581
1308.96	100.651
1310.55	100.973
1312.15	101.992
1313.75	102.116
1315.34	102.724
1316.94	104.315
1318.53	104.762
1320.13	105.971
1321.72	106.275
1323.32	106.278
1324.91	105.865
1326.5	105.451
1328.1	104.209
1329.69	103.657
1331.28	102.909
1332.87	102.289
1334.47	101.507
1336.06	101.528
1337.65	101.191
1339.24	100.309
1340.83	98.4055
1342.42	96.4418
1344.01	94.7429
1345.6	93.2114
1347.19	91.154
1348.78	90.3153
1350.37	89.5201
1351.96	88.2992
1353.54	86.8299
1355.13	84.4151
1356.72	83.0265
1358.31	81.4532
1359.89	80.1269
1361.48	78.3313
1363.07	77.2924
1364.65	75.6074
1366.24	73.9859
1367.82	73.2653
1369.41	72.2927
1370.99	71.4346
1372.58	71.1799
1374.16	69.755
1375.75	69.7911
1377.33	68.6517
1378.91	67.5459
1380.5	65.9888
1382.08	64.089
1383.66	62.4528
1385.25	61.5461
1386.83	60.2818
1388.41	59.7981
1389.99	59.6015
1391.57	59.1861
1393.15	58.6855
1394.73	58.2263
1396.31	57.3095
1397.89	55.9923
1399.47	55.3405
1401.05	55.7173
1402.63	55.9132
1404.21	55.3522
1405.78	55.2362
1407.36	55.1816
1408.94	54.8087
1410.52	55.0542
1412.1	55.3679
1413.67	56.4259
1415.25	57.4245
1416.82	57.26
1418.4	57.8734
1419.98	58.3868
1421.55	58.9996
1423.13	60.3142
1424.7	61.7857
1426.28	64.0459
1427.85	67.242
1429.42	69.0234
1431	72.0561
1432.57	74.2822
1434.14	77.0284
1435.71	79.4036
1437.29	80.7837
1438.86	82.8534
1440.43	84.2571
1442	86.3461
1443.57	87.2252
1445.14	88.4105
1446.71	89.2215
1448.28	90.3169
1449.85	90.3884
1451.42	90.3302
1452.99	89.2147
1454.56	87.9264
1456.13	85.9959
1457.7	84.0516
1459.26	82.7647
1460.83	82.8674
1462.4	81.7765
1463.97	80.8257
1465.54	79.5937
1467.1	76.7986
1468.67	73.877
1470.23	71.0101
1471.8	68.0972
1473.36	64.5361
1474.93	62.3847
1476.49	60.0175
1478.06	57.6324
1479.62	55.8682
1481.19	52.0155
1482.75	49.3054
1484.31	46.8664
1485.88	44.8229
1487.44	42.9932
1489	42.2696
1490.56	39.8739
1492.13	39.3276
1493.69	38.107
1495.25	36.1226
1496.81	34.8334
1498.37	34.6296
1499.93	33.4622
1501.49	33.526
1503.05	33.623
1504.61	34.0435
1506.17	33.471
1507.73	33.3113
1509.28	32.8831
1510.84	31.3929
1512.4	31.4922
1513.96	30.7832
1515.52	30.7495
1517.07	31.1891
1518.63	31.546
1520.19	31.9645
1521.74	31.9583
1523.3	33.0885
1524.85	33.7925
1526.41	34.8182
1527.96	35.5957
1529.52	35.9892
1531.07	36.7441
1532.63	37.7321
1534.18	38.4345
1535.73	39.4475
1537.29	41.707
1538.84	43.1421
1540.39	44.0273
1541.94	44.9469
1543.5	46.4737
1545.05	47.2433
1546.6	50.0967
1548.15	52.023
1549.7	53.3917
1551.25	56.8256
1552.8	59.2601
1554.35	62.0259
1555.9	64.1224
1557.45	66.6498
1559	69.1874
1560.55	71.3212
1562.1	74.1413
1563.65	76.3226
1565.19	78.1304
1566.74	81.044
1568.29	82.6686
1569.83	84.6544
1571.38	86.5941
1572.93	88.4325
1574.47	90.7168
1576.02	92.2481
1577.56	92.2873
1579.11	93.9834
1580.66	95.3816
1582.2	96.2908
1583.74	97.0857
1585.29	97.531
1586.83	97.725
1588.38	98.085
1589.92	99.0667
1591.46	98.3713
1593.01	97.4412
1594.55	97.9209
1596.09	97.2471
1597.63	96.4249
1599.17	96.5132
1600.71	95.556
1602.25	94.1881
1603.79	92.6611
1605.34	90.9171
1606.88	89.2082
1608.41	87.8393
1609.95	85.7645
1611.49	84.5379
1613.03	85.0114
1614.57	83.5716
1616.11	82.3839
1617.65	80.6902
1619.18	79.3418
1620.72	78.2505
1622.26	77.211
1623.79	77.7638
1625.33	77.3373
1626.87	77.4931
1628.4	77.9768
1629.94	76.957
1631.48	78.0205
1633.01	77.5527
1634.55	78.4012
1636.08	77.9085
1637.61	77.5386
1639.15	78.4555
1640.68	78.9876
1642.21	79.7019
1643.75	81.1191
1645.28	81.139
1646.81	81.5549
1648.34	83.4469
1649.88	83.2092
1651.41	82.9656
1652.94	83.5435
1654.47	84.4552
1656	85.2329
1657.53	84.7854
1659.06	83.9969
1660.59	83.7512
1662.12	83.0646
1663.65	83.3006
1665.18	82.6255
1666.71	81.8813
1668.24	80.6432
1669.76	79.6984
1671.29	79.5193
1672.82	77.8039
1674.35	75.741
1675.87	73.7731
1677.4	70.2872
1678.93	67.9907
1680.45	65.3957
1681.98	63.3355
1683.5	60.9106
1685.03	58.414
1686.55	54.8745
1688.08	53.2894
1689.6	49.6116
1691.13	46.0908
1692.65	43.463
1694.17	40.9867
1695.7	38.9946
1697.22	37.0451
1698.74	35.5612
1700.27	34.0005
1701.79	31.5567
1703.31	29.4923
1704.83	27.1726
1706.35	24.539
1707.87	22.9243
1709.39	20.3727
1710.91	18.4035
1712.43	16.1666
1713.95	14.8031
1715.47	13.7776
1716.99	12.3846
1718.51	10.9709
1720.03	10.6821
1721.55	9.61986
1723.07	8.94517
1724.58	8.79445
1726.1	7.82064
1727.62	7.57228
1729.13	7.41288
1730.65	6.85612
1732.17	6.15241
1733.68	5.96045
1735.2	6.85933
1736.72	6.7276
1738.23	7.10285
1739.74	7.48607
1741.26	7.27358
1742.77	6.81403
1744.29	6.87053
1745.8	6.96578
1747.32	6.80101
1748.83	6.15497
1750.34	5.88181
1751.85	6.27357
1753.37	5.95149
1754.88	6.40094
1756.39	6.46091
1757.9	6.82736
1759.41	6.25814
1760.92	6.58664
1762.44	5.95267
1763.95	7.18128
1765.46	6.71074
1766.96	7.69712
1768.47	7.8883
1769.98	8.92668
1771.49	8.87107
1773	8.72738
1774.51	8.33789
1776.02	7.88617
1777.53	7.35081
1779.03	6.92303
1780.54	6.28753
1782.05	6.03439
1783.55	6.41962
1785.06	6.31595
1786.57	5.76179
1788.07	5.85057
1789.58	5.58907
1791.08	5.67402
1792.59	5.63158
1794.09	5.70088
1795.6	6.06378
1797.1	5.73825
1798.61	5.69704
1800.11	5.43393
1801.61	5.07625
1803.12	4.91867
1804.62	4.44009
1806.12	4.4481
1807.62	4.46802
1809.12	4.43068
1810.63	4.27184
1812.13	4.2137
1813.63	4.42051
1815.13	4.0162
1816.63	4.06074
1818.13	3.648
1819.63	4.04856
1821.13	3.6775
1822.63	3.72209
1824.13	3.88813
1825.63	4.42774
1827.13	4.2332
1828.62	4.21709
1830.12	4.7416
1831.62	4.47888
1833.12	5.05993
1834.61	5.0549
1836.11	5.80734
1837.61	6.17993
1839.1	6.69636
1840.6	6.67511
1842.09	6.48622
1843.59	6.87323
1845.09	6.71798
1846.58	6.31389
1848.08	6.26207
1849.57	6.19509
1851.06	5.48305
1852.56	6.40377
1854.05	6.09611
1855.54	5.25036
1857.04	4.98567
1858.53	4.36737
1860.02	4.14562
1861.51	3.32472
1863.01	3.73785
1864.5	3.97338
1865.99	4.39228
1867.48	4.65988
1868.97	4.06212
1870.46	3.79687
1871.95	3.09894
1873.44	2.41184
1874.93	1.95092
1876.42	1.43847
1877.91	1.29496
1879.4	0.679111
1880.89	1.18394
1882.37	1.22477
1882.46	1.26512
1883.95	1.37257
1885.45	1.07261
1886.94	0.959216
1888.43	0.744225
1889.93	0.905808
1891.42	0.627569
1892.91	0.818625
1894.41	0.918298
1895.9	1.34829
1897.39	1.13049
1898.88	1.3969
1900.37	1.72706
1901.86	2.62221
1903.36	2.87014
1904.85	2.79603
1906.34	3.84646
1907.83	4.40223
1909.32	5.27188
1910.81	6.13966
1912.29	6.43783
1913.78	6.52152
1915.27	6.754
1916.76	6.98274
1918.25	6.55018
1919.74	6.89305
1921.23	7.54293
1922.71	7.38639
1924.2	7.44904
1925.69	8.12133
1927.17	7.98814
1928.66	7.4748
1930.15	8.44955
1931.63	8.57417
1933.12	8.98359
1934.6	9.07783
1936.09	9.8173
1937.57	9.49679
1939.06	9.76688
1940.54	9.52192
1942.02	8.36794
1943.51	8.71177
1944.99	8.55945
1946.47	7.89613
1947.96	8.0374
1949.44	7.64123
1950.92	7.75151
1952.4	7.6239
1953.88	7.34256
1955.37	7.09423
1956.85	7.47807
1958.33	7.69698
1959.81	6.82986
1961.29	7.04769
1962.77	6.25368
1964.25	5.39466
1965.73	4.8398
1967.21	4.56439
1968.69	4.01914
1970.16	3.81217
1971.64	4.12266
1973.12	4.21951
1974.6	3.7548
1976.08	3.95544
1977.55	3.38749
1979.03	3.40492
1980.51	3.85089
1981.98	4.06983
1983.46	3.59429
1984.94	4.15849
1986.41	3.59316
1987.89	3.06671
1989.36	2.65465
1990.84	2.13158
1992.31	2.32826
1993.79	3.14294
1995.26	3.1107
1996.73	2.70038
1998.21	2.61085
1999.68	2.48807
2001.15	2.74558
2002.63	2.14661
2004.1	3.05307
2005.57	2.57419
2007.04	2.77406
2008.51	3.28881
2009.99	3.225
2011.46	3.1165
2012.93	3.80427
2014.4	3.58472
2015.87	3.24657
2017.34	4.30123
2018.81	3.97171
2020.28	3.63579
2021.75	3.8518
2023.21	3.96491
2024.68	4.18752
2026.15	4.3698
2027.62	4.26326
2029.09	5.2974
2030.56	5.50057
2032.02	5.2251
2033.49	4.50224
2034.96	4.91758
2036.42	4.38793
2037.89	4.09137
2039.36	5.19427
2040.82	5.52505
2042.29	5.2749
2043.75	6.84082
2045.22	6.98852
2046.68	7.57994
2048.14	7.46711
2049.61	7.79191
2051.07	7.002
2052.54	7.84759
2054	8.31822
2055.46	8.02708
2056.93	7.76594
2058.39	8.12739
2059.85	7.10242
2061.31	6.84838
2062.77	6.88319
2064.23	6.44987
2065.7	6.74013
2067.16	6.94576
2068.62	6.92676
2070.08	6.55531
2071.54	6.89946
2073	7.24363
2074.46	7.86253
2075.92	7.99377
2077.38	8.22497
2078.83	8.02447
2080.29	8.52971
2081.75	8.78604
2083.21	8.30074
2084.67	9.08353
2086.12	8.87123
2087.58	9.01519
2089.04	9.26401
2090.49	9.46928
2091.95	9.16727
2093.41	9.51885
2094.86	10.1071
2096.32	10.8515
2097.77	11.1025
2099.23	11.2475
2100.68	11.3459
2102.14	12.2484
2103.59	12.1936
2105.05	12.5457
2106.5	12.926
2107.95	13.9079
2109.41	14.2918
2110.86	14.6555
2112.31	15.9373
2113.76	15.2656
2115.21	15.5631
2116.67	16.9918
2118.12	17.311
2119.57	18.1019
2121.02	17.6573
2122.47	18.0068
2123.92	18.9203
2125.37	19.5433
2126.82	20.2675
2128.27	20.967
2129.72	21.9429
2131.17	22.7917
2132.62	23.2309
2134.07	24.7998
