#Acq. time (s)=	45
#Accumulations=	2
#Range (cm-¹)=	200...3150
#Windows=	2
#Auto scanning=	Off
#Autofocus=	Off
#Macrospot=	Off
#AutoExposure=	Off
#Spike filter=	Multiple accum.
#Delay time (s)=	0
#Binning=	1
#Readout mode=	Signal
#DeNoise=	Off
#ICS correction=	On
#Dark correction=	Off
#Inst. Process=	Off
#Detector Gain=	Best Dynamic Range
#Detector ADC=	20 kHz       
#Detector temperature (°C)=	-69.85
#Instrument=	LabRAM HR Evol
#Detector=	Synapse
#Objective=	x100
#Grating=	600 gr/mm
#ND Filter=	100%
#Laser (nm)=	532 
#Hole=	100.021
#Range=	Auto
#Laser Pol.=	No
#Raman. Pol.=	No
#Laser Pol. (°)=	-0.0007625
#Raman Pol. (°)=	89.9995
#Collection=	Microscope
#StageXY=	Marzhauser
#StageZ=	Marzhauser
#X (µm)=	-5930.1
#Y (µm)=	2848.7
#Z (µm)=	-223.8
#Full time(mm:ss)=	3:19
#Project=	
#Sample=	
#Site=	
#Title=	Thy_20_09_47_2x_45s_532 nm_x100_100%_600 gr_mm
#Remark=	
#Date=	29.06.2022 13:56
#Acquired=	29.06.2022 13:56:36
#Base:Fit=	10.08.2022 09:52:02
#Base:Fit=	10.08.2022 09:52:12
#Base:Sub=	10.08.2022 09:54:21
#Filter:Polynom=	16.08.2022 10:24:04
#AxisType[0]=Intens
#AxisUnit[0]=Cnt
#AxisType[1]=Spectr
#AxisUnit[1]=1/cm
200.523	31.8099
202.339	29.6213
204.154	27.6758
205.967	24.9727
207.781	21.972
209.596	19.365
211.409	16.8187
213.222	14.6611
215.034	13.7534
216.848	12.297
218.659	11.2135
220.47	10.341
222.281	8.95133
224.091	7.76774
225.903	5.99954
227.713	4.53831
229.522	4.13643
231.331	4.53465
233.14	4.44044
234.948	4.39363
236.756	3.48552
238.566	3.19258
240.373	2.85304
242.18	2.40173
243.986	2.84019
245.792	3.30276
247.598	3.63663
249.403	3.83693
251.208	3.6187
253.013	3.5791
254.818	2.74002
256.624	2.11064
258.427	3.03505
260.231	4.77858
262.034	4.53406
263.836	5.3086
265.638	4.77768
267.44	4.34436
269.242	4.44026
271.043	4.95022
272.844	5.46086
274.645	5.90999
276.445	7.08882
278.245	7.212
280.044	7.89162
281.843	9.25004
283.642	9.97776
285.44	10.9049
287.238	11.7048
289.036	11.0529
290.833	12.1436
292.63	12.8829
294.425	12.9423
296.221	13.9627
298.017	14.4731
299.813	14.4457
301.608	14.1889
303.403	14.2979
305.198	14.4543
306.992	14.0503
308.786	14.9008
310.579	13.6615
312.371	13.8074
314.163	13.6365
315.956	13.1498
317.748	13.1491
319.54	14.3952
321.331	14.6968
323.122	13.7816
324.911	13.2249
326.701	12.476
328.491	12.2477
330.281	11.6727
332.071	12.0107
333.857	13.0971
335.646	12.4772
337.434	12.1219
339.222	11.069
341.008	10.436
342.795	11.4008
344.582	11.8348
346.369	11.5424
348.153	11.6658
349.939	11.292
351.724	10.2834
353.51	10.1982
355.292	9.73031
357.077	10.2516
358.861	10.7002
360.643	11.4499
362.426	11.859
364.21	11.9789
365.99	12.7353
367.773	13.6179
369.555	14.5953
371.335	15.205
373.116	15.0679
374.897	15.2244
376.676	14.4542
378.456	14.4283
380.236	14.6288
382.014	13.723
383.793	12.5899
385.57	12.2544
387.349	12.2609
389.127	12.1836
390.903	12.1418
392.681	12.7453
394.456	12.598
396.233	12.2237
398.007	11.7168
399.784	9.73992
401.56	9.46927
403.333	8.25957
405.108	7.8195
406.881	8.01007
408.656	7.97866
410.428	6.14624
412.202	5.58914
413.973	5.9971
415.746	6.04214
417.517	6.3697
419.29	7.02142
421.06	8.25346
422.831	8.59021
424.601	8.51012
426.37	8.9607
428.141	8.44195
429.909	9.91104
431.679	10.8071
433.447	9.75827
435.216	8.85303
436.983	8.30898
438.75	7.91586
440.519	7.12005
442.285	6.54664
444.052	6.76534
445.818	6.81182
447.583	6.83706
449.349	7.64089
451.114	7.33159
452.878	7.95027
454.643	8.38073
456.407	8.21052
458.169	8.12877
459.934	7.84578
461.696	7.16337
463.458	7.24622
465.222	8.28847
466.983	8.61632
468.744	8.55683
470.507	9.02255
472.267	9.5061
474.027	11.0068
475.787	12.0018
477.548	11.8787
479.307	12.5318
481.065	12.7606
482.823	12.1717
484.583	12.13
486.341	13.1467
488.098	13.1686
489.855	14.1071
491.612	14.4413
493.37	14.6811
495.126	15.5375
496.881	14.9168
498.636	15.5193
500.391	17.4015
502.148	18.041
503.902	18.6078
505.656	19.4036
507.409	20.0435
509.162	20.8712
510.915	21.2781
512.668	21.3526
514.42	21.3861
516.174	21.3916
517.925	21.0984
519.676	19.5477
521.427	18.6817
523.178	18.561
524.928	17.9007
526.678	17.932
528.427	17.1933
530.176	17.2675
531.925	17.3714
533.673	15.9016
535.422	15.2521
537.169	14.7186
538.917	14.2719
540.664	13.8326
542.411	12.79
544.157	13.2304
545.903	13.4388
547.649	12.3336
549.395	12.8439
551.14	12.5364
552.884	11.9278
554.629	11.3419
556.373	10.817
558.117	10.7396
559.86	10.5919
561.603	10.9077
563.346	9.39866
565.089	9.12661
566.831	8.87859
568.573	8.39848
570.314	8.08887
572.053	7.74341
573.794	8.48396
575.534	6.87612
577.274	6.25528
579.014	5.25151
580.754	5.85442
582.493	6.35342
584.23	5.24596
585.968	6.01606
587.706	6.97285
589.444	6.73305
591.181	7.14911
592.919	7.169
594.653	6.68079
596.39	6.85284
598.126	7.00138
599.862	6.63325
601.595	6.04206
603.33	6.21318
605.065	5.03029
606.8	5.98911
608.532	6.65014
610.266	7.34607
611.999	7.4512
613.732	7.2531
615.463	8.22026
617.196	8.44449
618.928	8.58052
620.66	8.15041
622.389	9.32088
624.12	9.64015
625.851	10.553
627.58	11.7945
629.31	13.13
631.04	14.3083
632.767	13.4202
634.497	13.1745
636.223	14.3575
637.952	14.096
639.68	14.659
641.406	14.6716
643.134	14.573
644.861	15.984
646.586	16.2586
648.312	17.3334
650.037	17.1631
651.762	18.5551
653.486	18.395
655.211	19.0983
656.936	18.6828
658.659	19.0229
660.383	19.53
662.105	19.4209
663.829	20.4266
665.55	21.0206
667.273	21.2952
668.994	21.0074
670.716	20.3829
672.436	21.4711
674.158	22.5306
675.877	22.7288
677.598	23.1562
679.317	23.5251
681.035	23.8226
682.755	24.6246
684.473	24.9785
686.192	25.0851
687.909	25.3084
689.628	26.2642
691.344	26.314
693.06	28.1254
694.778	29.404
696.493	30.718
698.211	31.7689
699.925	31.6908
701.64	33.5274
703.356	33.805
705.07	34.1777
706.783	34.7598
708.498	35.4168
710.211	36.0259
711.924	36.7359
713.638	37.7169
715.35	38.0865
717.061	38.3884
718.774	38.5893
720.485	39.8893
722.196	40.5405
723.906	41.6272
725.618	42.1803
727.328	42.9158
729.037	44.4226
730.746	45.4135
732.456	46.5317
734.165	47.4898
735.873	47.2879
737.58	47.5749
739.289	48.1319
740.997	49.4501
742.703	49.7456
744.41	50.7365
746.116	50.8073
747.823	52.1427
749.529	52.4907
751.234	52.9773
752.938	52.8768
754.643	53.5972
756.347	54.6867
758.051	55.6441
759.756	56.9233
761.459	57.54
763.162	57.5799
764.865	58.5551
766.567	59.4192
768.269	59.7635
769.97	60.844
771.671	61.2232
773.372	62.3061
775.073	63.6427
776.773	64.1322
778.473	64.9063
780.174	66.2814
781.874	66.809
783.573	67.9519
785.271	68.2806
786.97	69.8934
788.668	70.8153
790.365	70.7636
792.063	71.4595
793.76	71.6449
795.456	72.2563
797.153	72.5067
798.847	74.1762
800.543	75.3943
802.238	75.8957
803.933	76.4696
805.628	77.3335
807.322	78.3983
809.017	79.7728
810.71	79.3232
812.404	79.4947
814.097	79.6158
815.79	79.8503
817.483	80.6506
819.173	81.0952
820.865	81.351
822.556	81.3742
824.248	81.0555
825.939	80.4299
827.629	80.4841
829.318	78.8573
831.008	78.5004
832.697	77.8776
834.387	76.4281
836.076	75.2231
837.765	73.6514
839.451	72.8844
841.139	71.8615
842.827	70.3548
844.514	70.2462
846.2	68.5216
847.886	66.7398
849.573	65.7276
851.259	63.7529
852.943	61.625
854.629	60.6493
856.314	58.6792
857.997	57.462
859.682	55.9068
861.366	54.2257
863.05	53.8616
864.732	53.6219
866.415	53.1265
868.098	52.3933
869.779	51.2983
871.461	49.7768
873.141	48.6519
874.823	47.5626
876.505	47.7792
878.184	47.5703
879.865	47.0908
881.545	46.7714
883.223	46.9515
884.903	46.6524
886.581	46.4727
888.26	46.2357
889.937	46.0872
891.616	44.86
893.294	45.2501
894.97	44.6715
896.648	45.7701
898.323	46.4116
900	47.1638
901.675	48.2568
903.351	48.7234
905.026	48.0941
906.701	47.3152
908.375	47.0323
910.05	46.39
911.723	46.7343
913.398	44.8873
915.07	45.4026
916.742	44.5488
918.415	44.9496
920.087	44.4117
921.76	43.9918
923.43	43.4332
925.103	42.8309
926.773	42.8136
928.443	42.3962
930.114	40.6527
931.783	39.6755
933.454	39.2688
935.123	38.1803
936.791	38.2383
938.461	38.3188
940.128	37.8606
941.796	36.2551
943.464	35.6639
945.131	34.4173
946.797	32.9397
948.465	32.0372
950.131	31.4208
951.797	30.2393
953.462	29.8173
955.128	29.3853
956.793	29.3752
958.457	28.0181
960.121	27.2752
961.786	26.2439
963.45	25.3585
965.113	25.9215
966.775	26.3278
968.44	25.9794
970.102	26.0453
971.763	25.9217
973.425	26.0156
975.086	26.2662
976.748	28.138
978.409	27.8495
980.069	27.9703
981.729	27.6591
983.388	27.3987
985.048	26.726
986.708	25.8239
988.367	24.7038
990.025	23.4012
991.683	22.132
993.341	21.429
994.998	22.0423
996.655	20.7652
998.312	20.8801
999.969	20.6195
1001.62	20.8411
1003.28	19.9817
1004.94	20.3383
1006.59	20.3719
1008.25	20.9003
1009.9	20.9449
1011.56	19.6924
1013.21	19.5624
1014.86	20.1964
1016.52	20.9039
1018.17	20.2914
1019.82	20.0192
1021.48	19.6786
1023.13	19.0591
1024.78	18.566
1026.43	18.1167
1028.08	17.6431
1029.73	17.4484
1031.38	17.9056
1033.03	18.3289
1034.68	17.8444
1036.33	17.892
1037.98	17.8595
1039.63	17.3574
1041.28	17.0957
1042.93	18.6314
1044.57	19.657
1046.22	19.8867
1047.87	20.1714
1049.52	20.0556
1051.16	19.8555
1052.81	20.0702
1054.45	19.8262
1056.1	19.2931
1057.75	19.2375
1059.39	17.9057
1061.04	16.6925
1062.68	15.0115
1064.32	14.0982
1065.97	13.1405
1067.61	13.516
1069.25	12.2657
1070.9	11.3667
1072.54	10.6035
1074.18	10.2155
1075.82	10.3643
1077.47	10.1871
1079.11	10.209
1080.75	10.4006
1082.39	10.036
1084.03	9.59393
1085.67	9.44946
1087.31	10.8105
1088.95	10.8624
1090.59	11.3546
1092.22	11.2952
1093.86	10.9545
1095.5	12.1446
1097.14	12.4838
1098.78	13.0424
1100.41	13.781
1102.05	14.8762
1103.69	15.2887
1105.32	15.2753
1106.96	15.207
1108.59	13.9229
1110.23	13.9071
1111.86	14.091
1113.5	14.0425
1115.13	14.4039
1116.77	13.8095
1118.4	13.0876
1120.03	13.5634
1121.67	12.8503
1123.3	12.9132
1124.93	12.5128
1126.56	11.7916
1128.19	10.8392
1129.83	10.1912
1131.46	9.80101
1133.09	8.75405
1134.72	7.68667
1136.35	6.97011
1137.98	6.35822
1139.61	5.76995
1141.24	3.92939
1142.86	4.11244
1144.49	3.96681
1146.12	4.25415
1147.75	4.92983
1149.38	5.39859
1151	3.47939
1152.63	4.5508
1154.26	4.42128
1155.88	4.86755
1157.51	6.14672
1159.14	6.87132
1160.76	7.07933
1162.39	6.19624
1164.01	6.41527
1165.63	7.85881
1167.26	9.22508
1168.88	11.2088
1170.51	10.7721
1172.13	11.8689
1173.75	12.1839
1175.38	12.3205
1177	13.9364
1178.62	14.5573
1180.24	15.7176
1181.86	16.4547
1183.48	15.6045
1185.1	15.5963
1186.72	15.9463
1188.34	16.2249
1189.96	16.5128
1191.58	17.4658
1193.2	18.9786
1194.82	19.0015
1196.44	18.7413
1198.06	18.2055
1199.68	18.5073
1201.29	19.5103
1202.91	19.1446
1204.53	19.1178
1206.14	18.7547
1207.76	18.5836
1209.38	18.7333
1210.99	19.7327
1212.61	19.9457
1214.22	20.6911
1215.84	21.4918
1217.45	22.6713
1219.07	24.2827
1220.68	25.1901
1222.29	26.3189
1223.91	28.0785
1225.52	29.0931
1227.13	30.2102
1228.74	31.3637
1230.36	32.945
1231.97	33.6085
1233.58	35.5232
1235.19	36.7919
1236.8	38.3953
1238.41	39.8459
1240.02	39.9662
1241.63	40.5547
1243.24	42.2616
1244.85	44.7377
1246.46	46.4457
1248.07	47.4922
1249.67	48.4614
1251.28	49.7487
1252.89	50.451
1254.5	50.6151
1256.1	51.3283
1257.71	52.5593
1259.32	53.6443
1260.92	53.6715
1262.53	55.1525
1264.13	55.5242
1265.74	58.3077
1267.34	59.6128
1268.95	60.3502
1270.55	60.5874
1272.15	62.0062
1273.76	62.0665
1275.36	62.1721
1276.97	62.1666
1278.57	62.5952
1280.17	63.4829
1281.77	63.3978
1283.37	63.5145
1284.97	63.0429
1286.58	64.1645
1288.18	64.8674
1289.78	65.8219
1291.38	67.1946
1292.98	67.6791
1294.58	69.0355
1296.18	70.2772
1297.78	70.0886
1299.37	70.3766
1300.97	70.2006
1302.57	70.5268
1304.17	70.3065
1305.77	70.8726
1307.36	71.6916
1308.96	72.7187
1310.55	72.8093
1312.15	72.7474
1313.75	73.2644
1315.34	74.0052
1316.94	73.4735
1318.53	73.3136
1320.13	73.5236
1321.72	73.8131
1323.32	73.7326
1324.91	73.443
1326.5	72.5082
1328.1	71.8023
1329.69	71.0149
1331.28	70.5573
1332.87	68.1451
1334.47	68.2748
1336.06	68.2847
1337.65	68.5225
1339.24	68.8249
1340.83	67.3733
1342.42	67.6365
1344.01	66.8121
1345.6	67.0905
1347.19	65.4645
1348.78	63.5004
1350.37	62.9885
1351.96	62.6673
1353.54	61.6281
1355.13	61.1703
1356.72	60.3414
1358.31	59.4599
1359.89	59.5572
1361.48	59.0379
1363.07	58.6557
1364.65	57.8811
1366.24	57.684
1367.82	57.2454
1369.41	56.9033
1370.99	56.8447
1372.58	56.1286
1374.16	55.317
1375.75	54.0189
1377.33	52.3115
1378.91	52.1542
1380.5	50.7371
1382.08	50.1637
1383.66	50.4198
1385.25	49.8989
1386.83	49.4979
1388.41	49.3611
1389.99	47.5201
1391.57	48.0648
1393.15	47.5359
1394.73	47.1631
1396.31	46.1753
1397.89	45.8629
1399.47	45.6522
1401.05	45.232
1402.63	44.8487
1404.21	44.9956
1405.78	43.8152
1407.36	43.2608
1408.94	44.0497
1410.52	44.5862
1412.1	44.4726
1413.67	45.9419
1415.25	47.1201
1416.82	48.1159
1418.4	48.8733
1419.98	50.2707
1421.55	52.3881
1423.13	54.2705
1424.7	55.4489
1426.28	56.5788
1427.85	58.1059
1429.42	60.7274
1431	63.4486
1432.57	66.3241
1434.14	67.6811
1435.71	69.7486
1437.29	70.9047
1438.86	73.1311
1440.43	74.6761
1442	75.0398
1443.57	75.6377
1445.14	76.7888
1446.71	77.946
1448.28	77.3348
1449.85	76.4347
1451.42	76.7689
1452.99	76.0379
1454.56	75.3058
1456.13	74.2652
1457.7	73.604
1459.26	72.7191
1460.83	72.2309
1462.4	70.7194
1463.97	69.0933
1465.54	67.3307
1467.1	65.1048
1468.67	62.7072
1470.23	62.1406
1471.8	59.7354
1473.36	57.7868
1474.93	56.1792
1476.49	53.7531
1478.06	50.5436
1479.62	48.2801
1481.19	45.6858
1482.75	42.8819
1484.31	40.264
1485.88	39.3066
1487.44	38.1619
1489	35.9925
1490.56	34.2661
1492.13	33.737
1493.69	32.202
1495.25	30.5551
1496.81	30.1338
1498.37	29.8132
1499.93	29.0925
1501.49	28.2924
1503.05	27.6771
1504.61	27.1463
1506.17	27.4295
1507.73	27.3097
1509.28	27.2054
1510.84	26.3018
1512.4	26.0775
1513.96	26.5265
1515.52	26.6264
1517.07	27.3215
1518.63	27.4474
1520.19	27.4794
1521.74	28.3193
1523.3	29.0207
1524.85	29.3078
1526.41	29.7025
1527.96	31.4506
1529.52	33.0403
1531.07	33.2897
1532.63	34.6435
1534.18	35.3152
1535.73	37.2875
1537.29	38.7714
1538.84	40.3064
1540.39	41.6289
1541.94	42.7669
1543.5	43.8829
1545.05	45.1943
1546.6	47.0156
1548.15	48.6646
1549.7	49.7937
1551.25	50.3134
1552.8	51.8344
1554.35	52.5693
1555.9	53.3136
1557.45	55.3186
1559	55.722
1560.55	56.8086
1562.1	58.1751
1563.65	60.4509
1565.19	61.3106
1566.74	62.2686
1568.29	63.5485
1569.83	64.4165
1571.38	65.4683
1572.93	66.4816
1574.47	67.8787
1576.02	68.7515
1577.56	68.8548
1579.11	69.3158
1580.66	70.8858
1582.2	71.6298
1583.74	73.293
1585.29	74.2781
1586.83	74.3429
1588.38	74.737
1589.92	75.5568
1591.46	75.6814
1593.01	76.1247
1594.55	76.5983
1596.09	76.7268
1597.63	76.5938
1599.17	76.4137
1600.71	75.0245
1602.25	74.9117
1603.79	74.1423
1605.34	72.8626
1606.88	71.4598
1608.41	71.1257
1609.95	69.602
1611.49	69.5814
1613.03	68.7524
1614.57	67.6059
1616.11	66.3161
1617.65	64.2694
1619.18	63.028
1620.72	62.7402
1622.26	63.0128
1623.79	63.0157
1625.33	62.7815
1626.87	62.1915
1628.4	61.6009
1629.94	61.8294
1631.48	61.1067
1633.01	60.624
1634.55	60.5572
1636.08	60.4662
1637.61	61.7693
1639.15	62.4676
1640.68	63.4383
1642.21	63.2962
1643.75	63.9568
1645.28	64.5329
1646.81	65.7884
1648.34	67.2013
1649.88	67.3233
1651.41	68.505
1652.94	70.5952
1654.47	71.1306
1656	71.6541
1657.53	71.4352
1659.06	70.0892
1660.59	69.2369
1662.12	68.3637
1663.65	66.9896
1665.18	66.5366
1666.71	65.0805
1668.24	64.2219
1669.76	62.7145
1671.29	60.8831
1672.82	58.5394
1674.35	56.4125
1675.87	53.8522
1677.4	51.5211
1678.93	50.6123
1680.45	48.2591
1681.98	45.7725
1683.5	44.314
1685.03	41.825
1686.55	39.057
1688.08	37.5493
1689.6	34.527
1691.13	32.8536
1692.65	31.1066
1694.17	28.2254
1695.7	26.5823
1697.22	25.7636
1698.74	24.6983
1700.27	22.2604
1701.79	21.0352
1703.31	19.1458
1704.83	17.5154
1706.35	16.1891
1707.87	15.3816
1709.39	14.6357
1710.91	13.5947
1712.43	13.43
1713.95	13.4317
1715.47	13.4683
1716.99	13.2341
1718.51	12.7064
1720.03	12.5174
1721.55	12.0727
1723.07	12.3533
1724.58	11.5274
1726.1	11.054
1727.62	10.6541
1729.13	10.0533
1730.65	8.44173
1732.17	7.33415
1733.68	6.62291
1735.2	6.68905
1736.72	6.62969
1738.23	6.27054
1739.74	5.76113
1741.26	5.25956
1742.77	4.72621
1744.29	4.95595
1745.8	3.94078
1747.32	4.43563
1748.83	4.1241
1750.34	4.54315
1751.85	4.25287
1753.37	4.91117
1754.88	5.15411
1756.39	5.0286
1757.9	4.56938
1759.41	4.48174
1760.92	3.68529
1762.44	3.75724
1763.95	3.47629
1765.46	2.70436
1766.96	2.38903
1768.47	2.21473
1769.98	1.68821
1771.49	2.50238
1773	3.0567
1774.51	3.14814
1776.02	3.24148
1777.53	3.02972
1779.03	2.20279
1780.54	2.38719
1782.05	2.75655
1783.55	3.21814
1785.06	3.68909
1786.57	3.95127
1788.07	4.37475
1789.58	4.77874
1791.08	4.83175
1792.59	4.73358
1794.09	4.68203
1795.6	4.843
1797.1	5.08163
1798.61	5.15976
1800.11	5.10669
1801.61	4.83541
1803.12	4.60126
1804.62	4.65754
1806.12	4.22127
1807.62	4.11153
1809.12	4.1347
1810.63	4.44898
1812.13	3.8878
1813.63	4.07143
1815.13	4.52061
1816.63	4.63595
1818.13	4.44059
1819.63	4.47224
1821.13	4.53934
1822.63	5.52685
1824.13	5.35405
1825.63	6.01406
1827.13	5.37603
1828.62	5.28521
1830.12	5.02296
1831.62	4.70369
1833.12	3.81809
1834.61	3.81907
1836.11	3.93047
1837.61	3.13512
1839.1	2.9592
1840.6	2.98374
1842.09	3.83911
1843.59	3.9952
1845.09	3.88008
1846.58	3.8925
1848.08	3.87479
1849.57	4.23338
1851.06	4.13769
1852.56	4.00987
1854.05	4.12667
1855.54	4.00993
1857.04	4.14268
1858.53	4.15617
1860.02	3.69555
1861.51	3.8009
1863.01	4.19928
1864.5	4.53619
1865.99	5.34675
1867.48	4.97018
1868.97	4.65852
1870.46	4.82891
1871.95	4.61665
1873.44	3.82188
1874.93	3.64295
1876.42	3.26438
1877.91	4.01032
1879.4	3.29864
1880.89	3.91289
1882.37	4.53172
1882.46	4.36123
1883.95	4.66135
1885.45	4.79047
1886.94	4.95604
1888.43	4.10011
1889.93	4.2091
1891.42	3.8597
1892.91	3.93662
1894.41	3.61638
1895.9	3.44101
1897.39	2.842
1898.88	1.82361
1900.37	1.58825
1901.86	1.22228
1903.36	1.26914
1904.85	1.17773
1906.34	0.721048
1907.83	0.860867
1909.32	0.479368
1910.81	-0.169683
1912.29	0.0112668
1913.78	-0.0819598
1915.27	0.256686
1916.76	0.556115
1918.25	0.72395
1919.74	0.738187
1921.23	0.709211
1922.71	1.11822
1924.2	0.948104
1925.69	0.73069
1927.17	0.523123
1928.66	-0.140936
1930.15	0.800654
1931.63	1.02769
1933.12	1.8538
1934.6	2.22618
1936.09	2.69993
1937.57	3.3172
1939.06	3.29679
1940.54	2.75473
1942.02	2.97683
1943.51	3.31053
1944.99	2.79879
1946.47	2.88144
1947.96	3.20461
1949.44	3.71182
1950.92	4.04821
1952.4	4.09766
1953.88	4.66467
1955.37	4.52636
1956.85	4.91333
1958.33	4.72893
1959.81	4.60885
1961.29	4.53577
1962.77	4.25686
1964.25	4.81849
1965.73	4.47839
1967.21	4.92926
1968.69	4.65493
1970.16	4.24587
1971.64	3.63182
1973.12	3.01167
1974.6	3.54828
1976.08	2.66922
1977.55	2.75511
1979.03	2.81744
1980.51	2.92071
1981.98	2.74084
1983.46	3.08214
1984.94	3.21497
1986.41	3.54007
1987.89	4.20666
1989.36	4.44629
1990.84	4.65585
1992.31	4.7221
1993.79	4.5877
1995.26	5.09373
1996.73	4.75974
1998.21	4.25768
1999.68	4.42184
2001.15	4.49434
2002.63	4.34441
2004.1	5.36188
2005.57	5.20819
2007.04	4.82182
2008.51	4.74831
2009.99	5.38607
2011.46	6.08823
2012.93	6.06495
2014.4	6.08947
2015.87	5.44025
2017.34	5.79336
2018.81	5.70204
2020.28	6.45291
2021.75	6.52147
2023.21	6.5327
2024.68	6.91315
2026.15	7.33067
2027.62	7.65176
2029.09	8.13316
2030.56	8.0306
2032.02	7.25172
2033.49	7.28624
2034.96	6.84581
2036.42	6.648
2037.89	7.20633
2039.36	6.62269
2040.82	6.43203
2042.29	5.67534
2043.75	5.46011
2045.22	5.89906
2046.68	5.83009
2048.14	5.92783
2049.61	5.46373
2051.07	6.14731
2052.54	6.48034
2054	6.61047
2055.46	6.62117
2056.93	7.19763
2058.39	6.78951
2059.85	7.1126
2061.31	7.19181
2062.77	7.19308
2064.23	7.55718
2065.7	7.80055
2067.16	7.85003
2068.62	8.23281
2070.08	7.73195
2071.54	7.85012
2073	8.43648
2074.46	8.03136
2075.92	8.51527
2077.38	8.99667
2078.83	9.25106
2080.29	9.03092
2081.75	10.3008
2083.21	10.2546
2084.67	11.1522
2086.12	10.9335
2087.58	10.8271
2089.04	10.5028
2090.49	10.6096
2091.95	10.6536
2093.41	10.8226
2094.86	11.2295
2096.32	11.1625
2097.77	11.3838
2099.23	11.5893
2100.68	10.8767
2102.14	10.6472
2103.59	10.2224
2105.05	9.60126
2106.5	10.177
2107.95	10.3019
2109.41	10.0076
2110.86	9.90352
2112.31	9.48357
2113.76	9.50182
2115.21	10.4415
2116.67	11.252
2118.12	10.936
2119.57	10.2987
2121.02	10.5266
2122.47	11.3976
2123.92	12.4213
2125.37	13.2761
2126.82	14.0374
2128.27	15.0365
2129.72	15.6732
2131.17	16.9912
2132.62	18.6035
