#Acq. time (s)=	45
#Accumulations=	2
#Range (cm-¹)=	200...3150
#Windows=	2
#Auto scanning=	Off
#Autofocus=	Off
#Macrospot=	Off
#AutoExposure=	Off
#Spike filter=	Multiple accum.
#Delay time (s)=	0
#Binning=	1
#Readout mode=	Signal
#DeNoise=	Off
#ICS correction=	On
#Dark correction=	Off
#Inst. Process=	Off
#Detector Gain=	Best Dynamic Range
#Detector ADC=	20 kHz       
#Detector temperature (°C)=	-69.85
#Instrument=	LabRAM HR Evol
#Detector=	Synapse
#Objective=	x100
#Grating=	600 gr/mm
#ND Filter=	100%
#Laser (nm)=	532 
#Hole=	100.021
#Range=	Auto
#Laser Pol.=	No
#Raman. Pol.=	No
#Laser Pol. (°)=	-0.0007625
#Raman Pol. (°)=	89.9995
#Collection=	Microscope
#StageXY=	Marzhauser
#StageZ=	Marzhauser
#X (µm)=	-2354.7
#Y (µm)=	237.8
#Z (µm)=	521.25
#Full time(mm:ss)=	3:18
#Project=	
#Sample=	
#Site=	
#Title=	Thy_10_08_44_2x_45s_532 nm_x100_100%_600 gr_mm
#Remark=	
#Date=	06.07.2022 14:55
#Acquired=	06.07.2022 14:55:43
#Base:Fit=	10.08.2022 09:46:25
#Base:Sub=	10.08.2022 09:46:49
#Filter:Polynom=	16.08.2022 10:24:56
#AxisType[0]=Intens
#AxisUnit[0]=Cnt
#AxisType[1]=Spectr
#AxisUnit[1]=1/cm
200.398	16.8701
202.213	16.2235
204.027	17.0728
205.843	17.2678
207.657	17.0489
209.47	16.7516
211.283	16.509
213.097	15.2928
214.909	14.2764
216.721	13.4451
218.533	12.4621
220.344	12.0599
222.157	11.8523
223.967	10.4096
225.777	10.7772
227.587	11.7473
229.396	10.3432
231.205	9.38353
233.016	8.95386
234.824	8.27311
236.632	7.53274
238.439	6.87727
240.247	6.84458
242.053	5.7986
243.86	5.0522
245.666	5.09238
247.474	4.47538
249.279	3.4855
251.085	3.31476
252.889	2.31054
254.694	1.91088
256.498	1.7647
258.301	2.1745
260.105	2.01584
261.908	2.27736
263.71	3.35117
265.513	2.98318
267.315	3.15306
269.116	4.02084
270.918	3.98644
272.718	5.04729
274.519	5.33703
276.319	5.65441
278.119	5.80192
279.918	5.57285
281.718	6.74947
283.516	6.08453
285.315	6.03452
287.113	7.25671
288.911	7.17997
290.708	6.47934
292.505	7.83717
294.302	6.94495
296.098	7.25077
297.894	7.81176
299.69	8.71541
301.485	9.25338
303.278	8.90268
305.073	9.28107
306.867	10.6042
308.661	11.1242
310.454	12.1116
312.247	12.0916
314.04	12.446
315.833	13.5227
317.623	13.7526
319.415	13.4755
321.206	14.593
322.997	14.9015
324.788	15.7499
326.579	15.7893
328.367	16.3995
330.156	16.9476
331.946	16.7587
333.735	17.3104
335.523	18.5905
337.31	18.8297
339.098	19.595
340.885	20.8695
342.673	20.6202
344.458	21.6701
346.244	21.4894
348.03	21.7871
349.816	22.2287
351.6	22.5628
353.385	22.9763
355.17	22.0289
356.953	22.109
358.737	23.235
360.521	23.18
362.304	24.052
364.085	22.2557
365.868	22.0117
367.65	21.3862
369.431	20.1013
371.212	19.2821
372.994	18.7725
374.773	18.7318
376.554	18.8323
378.332	18.2303
380.112	19.2334
381.892	19.7772
383.669	18.1692
385.448	18.7873
387.225	18.9684
389.003	18.9035
390.781	17.6408
392.557	16.7882
394.334	16.5634
396.109	16.0728
397.885	15.8684
399.66	15.5654
401.436	15.2859
403.211	16.2571
404.984	15.6847
406.759	15.834
408.532	16.1393
410.306	16.2148
412.078	15.7467
413.851	16.3933
415.623	16.2104
417.395	17.0109
419.166	16.6571
420.938	16.6951
422.708	17.4858
424.477	18.3166
426.248	18.0134
428.017	17.8914
429.788	17.0129
431.556	15.2945
433.326	14.3451
435.093	13.8679
436.86	14.6341
438.629	14.698
440.395	13.8622
442.163	14.5494
443.929	13.8677
445.694	14.9932
447.461	15.6954
449.226	15.9435
450.99	15.901
452.756	13.6641
454.52	14.6023
456.285	14.0867
458.048	14.4942
459.811	14.6745
461.573	15.0431
463.337	15.7543
465.099	16.5353
466.86	17.2006
468.623	18.1493
470.384	17.4496
472.144	17.7059
473.906	18.7012
475.666	18.5311
477.425	18.4644
479.184	18.7296
480.944	19.4911
482.703	20.6056
484.461	20.6255
486.218	22.3725
487.975	22.7948
489.734	23.3392
491.491	23.7485
493.247	24.1483
495.003	25.4079
496.759	26.3523
498.516	27.4558
500.271	28.1533
502.025	28.7994
503.779	28.9758
505.533	29.1754
507.287	28.267
509.042	29.6414
510.795	29.4618
512.547	28.8718
514.299	28.2248
516.051	27.517
517.803	26.8543
519.554	27.0709
521.305	27.8058
523.055	28.4483
524.805	27.7606
526.555	26.3949
528.307	24.7097
530.056	24.7217
531.805	23.6769
533.553	23.9226
535.301	22.3948
537.049	20.516
538.797	18.4821
540.544	15.8368
542.291	15.4901
544.037	13.8276
545.783	13.5079
547.529	11.5466
549.275	10.4695
551.02	9.84311
552.765	8.75202
554.509	7.7055
556.253	7.30392
557.997	6.9722
559.738	6.61063
561.482	5.52179
563.224	4.1508
564.967	3.35747
566.709	3.51692
568.451	3.76163
570.192	4.41303
571.933	4.01058
573.674	3.3878
575.415	2.16488
577.153	2.07738
578.893	1.84212
580.632	2.07315
582.371	2.42223
584.11	3.05813
585.849	3.05071
587.587	2.88586
589.323	2.87087
591.06	3.04412
592.797	3.70942
594.534	4.01994
596.271	5.23972
598.005	5.06343
599.741	5.55317
601.476	6.27369
603.211	7.43252
604.944	8.21484
606.679	8.54262
608.413	8.91886
610.147	9.15731
611.878	9.06372
613.611	9.41039
615.344	9.39609
617.077	11.3296
618.807	12.4272
620.539	12.4445
622.27	11.4103
623.999	11.2946
625.73	12.0609
627.461	12.8195
629.189	14.1993
630.919	15.4449
632.648	17.278
634.376	16.9396
636.105	18.2355
637.833	18.9879
639.559	19.4933
641.287	19.7155
643.013	20.2785
644.74	20.8455
646.467	21.2102
648.192	21.0474
649.918	21.4473
651.642	22.7601
653.368	23.4368
655.091	23.0491
656.816	22.1154
658.538	21.2923
660.263	20.1859
661.987	20.1329
663.708	20.4
665.432	20.2914
667.153	20.1818
668.875	19.6535
670.596	19.3388
672.318	19.1476
674.037	19.4508
675.759	19.5982
677.478	19.6567
679.196	19.3956
680.917	19.4939
682.635	19.6999
684.355	20.4689
686.072	20.9643
687.791	22.5979
689.508	23.7334
691.224	24.5959
692.942	26.1015
694.658	27.6993
696.376	28.2839
698.091	29.082
699.805	29.8625
701.522	31.0857
703.236	33.3337
704.95	33.8107
706.665	35.0472
708.379	36.2877
710.093	38.5255
711.806	40.2953
713.518	42.4525
715.23	43.4703
716.943	44.6762
718.655	46.0494
720.366	46.3881
722.078	47.8836
723.788	48.6701
725.498	49.4829
727.208	50.1032
728.919	51.7482
730.628	53.9765
732.337	54.3846
734.045	53.4775
735.755	54.2578
737.463	54.8928
739.17	54.2449
740.877	54.2456
742.584	55.2834
744.292	57.2903
745.998	57.6816
747.704	58.5779
749.409	59.9183
751.114	60.6125
752.819	61.2422
754.526	63.2314
756.23	65.5741
757.934	67.0876
759.637	67.8867
761.34	69.2575
763.043	70.5302
764.746	70.6438
766.448	73.3676
768.152	74.2226
769.853	75.9391
771.554	76.6615
773.255	78.2836
774.956	78.9228
776.656	79.8906
778.356	80.2175
780.056	79.6668
781.755	79.5219
783.454	80.47
785.153	81.3929
786.851	82.5174
788.549	83.4147
790.247	83.172
791.944	84.7796
793.641	84.1732
795.338	85.669
797.034	85.523
798.73	85.7678
800.426	86.295
802.121	86.4354
803.817	86.7055
805.511	86.4042
807.206	85.7441
808.9	85.8099
810.592	85.4119
812.286	85.5273
813.979	86.1602
815.672	85.3877
817.364	84.3773
819.057	83.953
820.748	84.5324
822.44	84.4807
824.129	83.9595
825.82	84.8596
827.511	85.7561
829.201	85.5803
830.891	85.5193
832.581	85.5063
834.269	85.0941
835.958	84.3686
837.646	85.2243
839.335	85.5752
841.023	85.3849
842.709	83.5527
844.396	82.2128
846.084	81.6527
847.77	79.6071
849.455	78.4198
851.141	78.1807
852.827	76.122
854.513	75.8109
856.196	74.8578
857.881	74.1668
859.566	72.4736
861.248	71.8798
862.932	70.6089
864.616	69.0027
866.297	68.8793
867.98	68.5819
869.663	67.6758
871.343	66.6425
873.026	66.034
874.707	65.1239
876.387	65.0801
878.068	63.3589
879.747	63.2612
881.428	60.5589
883.108	59.474
884.786	58.8331
886.465	56.6917
888.143	55.2987
889.822	54.3942
891.498	53.9395
893.177	53.3048
894.855	52.6111
896.53	51.5965
898.208	50.9835
899.883	50.258
901.56	50.7934
903.234	50.8695
904.91	50.8939
906.584	50.7769
908.26	50.2456
909.933	50.2943
911.608	48.5717
913.28	47.8412
914.955	49.1261
916.627	49.0468
918.298	48.4066
919.972	49.2126
921.643	49.7138
923.315	49.9624
924.986	49.2616
926.656	48.4051
928.328	47.9232
929.997	47.788
931.668	47.1169
933.337	47.9181
935.006	48.2174
936.676	47.9863
938.344	47.9955
940.012	47.6023
941.681	46.7094
943.348	45.8478
945.014	45.7204
946.683	44.4998
948.349	43.6163
950.015	43.6577
951.682	43.1322
953.347	42.0277
955.012	39.8524
956.676	36.8096
958.343	33.6963
960.006	31.4985
961.67	31.0534
963.333	30.5495
964.998	30.6331
966.661	31.2554
968.323	32.3367
969.985	33.1949
971.649	34.1581
973.31	35.9472
974.971	37.9334
976.632	38.6486
978.293	41.2697
979.953	42.3491
981.615	44.034
983.274	45.3333
984.933	45.3632
986.592	45.3761
988.251	45.1942
989.909	45.0644
991.567	46.0757
993.225	47.4006
994.884	48.5612
996.541	49.8723
998.198	51.392
999.855	51.0693
1001.51	50.8561
1003.17	51.8491
1004.82	51.8398
1006.48	51.7891
1008.13	50.8465
1009.79	49.2481
1011.44	48.0888
1013.1	48.1138
1014.75	47.1482
1016.4	45.6349
1018.06	44.7299
1019.71	43.1187
1021.36	41.5142
1023.01	39.5626
1024.66	37.7134
1026.32	35.3462
1027.97	34.144
1029.62	31.4915
1031.27	29.2437
1032.92	26.739
1034.57	23.6999
1036.22	20.8844
1037.87	18.2921
1039.52	17.1431
1041.16	17.0669
1042.81	17.5924
1044.46	18.2876
1046.11	17.4341
1047.76	16.6952
1049.4	15.874
1051.05	15.8165
1052.7	15.2603
1054.34	14.5998
1055.99	14.1882
1057.63	13.5376
1059.28	12.7059
1060.92	12.8031
1062.57	11.9704
1064.21	11.3698
1065.85	9.68316
1067.5	9.74712
1069.14	10.8659
1070.78	12.8536
1072.43	13.298
1074.07	14.3869
1075.71	15.1092
1077.35	15.6776
1078.99	15.389
1080.63	16.1883
1082.27	15.9964
1083.91	16.2987
1085.55	16.1694
1087.19	16.0245
1088.83	15.6953
1090.47	15.098
1092.11	15.0911
1093.75	16.8119
1095.39	17.7256
1097.03	17.3949
1098.66	17.9788
1100.3	19.1008
1101.94	18.4902
1103.57	18.3425
1105.21	18.1393
1106.84	18.4257
1108.48	18.0909
1110.11	18.0124
1111.75	16.5999
1113.38	15.8695
1115.02	15.0131
1116.65	14.4134
1118.29	13.5454
1119.92	12.3869
1121.55	11.2729
1123.19	9.43641
1124.82	8.6854
1126.45	7.18694
1128.08	6.04353
1129.71	4.93991
1131.34	5.22218
1132.97	4.3296
1134.6	4.89406
1136.23	4.33034
1137.86	4.44012
1139.49	5.05743
1141.12	5.51427
1142.75	5.05459
1144.38	4.49175
1146.01	4.49778
1147.64	4.29168
1149.26	5.65303
1150.89	5.83268
1152.52	5.95657
1154.15	5.05754
1155.77	5.10539
1157.4	5.28296
1159.02	5.2689
1160.65	4.39683
1162.27	3.97796
1163.9	2.67349
1165.52	3.05723
1167.15	3.02284
1168.77	3.30928
1170.39	3.88377
1172.02	4.55752
1173.64	5.48004
1175.26	6.80226
1176.89	6.9397
1178.51	7.53359
1180.13	8.68911
1181.75	8.62327
1183.37	9.43924
1184.99	10.8764
1186.61	11.3342
1188.23	11.262
1189.85	11.1623
1191.47	12.4304
1193.09	12.7791
1194.71	13.4303
1196.33	14.6135
1197.94	15.7343
1199.56	17.4726
1201.18	19.2493
1202.8	21.1532
1204.41	23.4468
1206.03	25.9083
1207.65	28.0972
1209.26	30.2689
1210.88	32.9544
1212.49	35.6067
1214.11	38.6799
1215.72	41.5265
1217.34	43.7266
1218.95	46.1826
1220.57	48.1457
1222.18	49.3258
1223.79	51.3844
1225.41	53.7043
1227.02	55.406
1228.63	57.5476
1230.24	59.3197
1231.85	61.9568
1233.47	63.1566
1235.08	64.6732
1236.69	65.2742
1238.3	66.3168
1239.91	66.5679
1241.52	67.3876
1243.13	67.6747
1244.74	68.1481
1246.34	69.8223
1247.95	70.0752
1249.56	70.8622
1251.17	70.4594
1252.78	70.3429
1254.38	70.1961
1255.99	70.1934
1257.6	69.6312
1259.2	69.4879
1260.81	68.5529
1262.42	67.9407
1264.02	68.1346
1265.63	67.0464
1267.23	65.3104
1268.84	64.2867
1270.44	65.187
1272.04	65.0579
1273.65	64.7485
1275.25	65.048
1276.85	65.8539
1278.46	65.6443
1280.06	65.9492
1281.66	66.3188
1283.26	67.0706
1284.86	67.4108
1286.46	67.5464
1288.07	69.3377
1289.67	70.0648
1291.27	71.8932
1292.87	73.0831
1294.47	74.816
1296.06	75.4589
1297.66	77.1479
1299.26	78.1396
1300.86	79.5833
1302.46	80.1068
1304.06	81.8177
1305.65	82.683
1307.25	84.0333
1308.85	86.3024
1310.44	87.3929
1312.04	89.4341
1313.64	90.0839
1315.23	91.2265
1316.83	91.6088
1318.42	92.2928
1320.02	93.2931
1321.61	95.2774
1323.2	95.197
1324.8	95.5537
1326.39	95.7023
1327.99	95.4562
1329.58	94.8571
1331.17	93.0916
1332.76	92.9719
1334.36	92.9139
1335.95	92.1562
1337.54	91.7368
1339.13	90.4394
1340.72	89.6074
1342.31	87.7968
1343.9	86.3913
1345.49	84.9929
1347.08	82.7417
1348.67	81.9372
1350.26	80.9923
1351.85	79.1459
1353.43	78.1408
1355.02	76.199
1356.61	74.5218
1358.2	72.2815
1359.78	71.7605
1361.37	70.1562
1362.96	67.6544
1364.54	65.6067
1366.13	63.9035
1367.71	61.9888
1369.3	60.53
1370.88	59.3784
1372.47	57.8813
1374.05	57.0093
1375.64	55.1226
1377.22	53.4005
1378.8	51.437
1380.39	49.2506
1381.97	47.4133
1383.55	46.2626
1385.13	44.9244
1386.72	44.4764
1388.3	43.8021
1389.88	42.563
1391.46	41.5114
1393.04	39.4329
1394.62	37.7356
1396.2	37.4608
1397.78	36.5841
1399.36	36.9809
1400.94	36.6079
1402.52	35.8324
1404.1	35.224
1405.68	34.6069
1407.25	34.2387
1408.83	35.4674
1410.41	36.3154
1411.98	38.1772
1413.56	39.5857
1415.14	40.9473
1416.71	43.3273
1418.29	45.314
1419.87	48.6723
1421.44	51.633
1423.02	55.4936
1424.59	58.9091
1426.16	61.5642
1427.74	66.2266
1429.31	69.8224
1430.89	73.229
1432.46	76.4217
1434.03	79.5067
1435.6	82.0983
1437.18	84.9894
1438.75	87.1436
1440.32	87.9804
1441.89	89.9925
1443.46	92.5392
1445.03	94.2301
1446.6	95.318
1448.17	97.4999
1449.74	98.1854
1451.31	98.1763
1452.88	96.9838
1454.45	95.6982
1456.02	94.8702
1457.59	92.949
1459.16	91.5036
1460.72	89.3173
1462.29	87.3812
1463.86	85.0363
1465.43	82.6106
1466.99	78.6676
1468.56	74.3493
1470.13	71.1025
1471.69	67.1235
1473.26	63.5101
1474.82	60.3907
1476.38	56.1453
1477.95	52.6634
1479.51	48.9503
1481.08	44.4768
1482.64	40.8055
1484.2	37.6825
1485.77	35.6521
1487.33	33.4047
1488.89	30.0598
1490.46	27.9518
1492.02	25.8573
1493.58	24.3298
1495.14	23.3958
1496.7	21.8455
1498.26	21.0541
1499.82	19.3361
1501.38	18.2636
1502.94	17.4181
1504.5	17.317
1506.06	16.4587
1507.62	15.2764
1509.18	15.0356
1510.73	14.5905
1512.29	14.6514
1513.85	15.1442
1515.41	15.0019
1516.96	14.4853
1518.52	15.1809
1520.08	16.1412
1521.63	16.8985
1523.19	17.8581
1524.75	19.1118
1526.3	20.7686
1527.85	21.7607
1529.41	21.5868
1530.96	21.8403
1532.52	23.6998
1534.07	24.7056
1535.62	25.2642
1537.18	27.4547
1538.73	28.5204
1540.28	30.7673
1541.84	31.8311
1543.39	33.6959
1544.94	34.9414
1546.49	36.8252
1548.04	40.0636
1549.59	42.299
1551.14	44.5198
1552.69	47.613
1554.25	49.2801
1555.79	51.6042
1557.34	53.5598
1558.89	55.0377
1560.44	57.73
1561.99	59.0842
1563.54	60.9449
1565.08	63.5084
1566.63	65.3884
1568.18	67.3928
1569.73	69.5105
1571.27	71.4689
1572.82	73.9119
1574.37	75.8888
1575.91	78.0343
1577.46	79.5091
1579	81.4507
1580.55	83.1745
1582.09	85.1059
1583.64	85.2332
1585.18	86.7957
1586.73	88.2278
1588.27	88.9328
1589.81	89.2347
1591.35	89.6068
1592.9	88.8674
1594.44	88.5853
1595.98	88.9365
1597.52	88.242
1599.06	86.9833
1600.61	86.8302
1602.15	84.8455
1603.69	83.4306
1605.23	82.1976
1606.77	81.1588
1608.31	80.1524
1609.85	79.8445
1611.39	79.7867
1612.93	79.4562
1614.46	79.6979
1616	79.7188
1617.54	80.1669
1619.08	80.1265
1620.61	80.5665
1622.15	81.1272
1623.69	82.2856
1625.23	83.5305
1626.76	83.6948
1628.3	84.1842
1629.83	85.4541
1631.37	86.8259
1632.9	88.6603
1634.44	90.1629
1635.97	92.5915
1637.51	93.9009
1639.04	96.677
1640.57	99.7431
1642.11	102.599
1643.64	104.473
1645.17	107.408
1646.71	110.54
1648.24	112.826
1649.77	114.723
1651.3	116.245
1652.83	117.696
1654.36	118.645
1655.89	119.745
1657.42	120.562
1658.96	121.14
1660.48	120.955
1662.01	121.126
1663.54	120.225
1665.07	118.809
1666.6	117.272
1668.13	115.302
1669.66	112.625
1671.19	110.526
1672.71	108.32
1674.24	104.466
1675.77	100.573
1677.29	97.6226
1678.82	93.2724
1680.35	90.4317
1681.87	86.8234
1683.4	82.7952
1684.92	78.9002
1686.45	76.0339
1687.97	72.0896
1689.5	67.5985
1691.02	63.7626
1692.54	60.0379
1694.07	55.6103
1695.59	51.5517
1697.11	47.9124
1698.64	45.0308
1700.16	42.4026
1701.68	38.8001
1703.2	36.13
1704.72	33.2975
1706.25	30.5068
1707.77	28.3967
1709.29	25.6338
1710.81	23.39
1712.33	21.9193
1713.85	20.7218
1715.37	20.2603
1716.89	18.4274
1718.41	17.3368
1719.92	16.5377
1721.44	15.2453
1722.96	14.7818
1724.48	13.8334
1725.99	13.0516
1727.51	13.0198
1729.03	12.6573
1730.55	12.2522
1732.06	12.0967
1733.58	12.2606
1735.09	12.1744
1736.61	11.6551
1738.13	10.9831
1739.64	10.1506
1741.15	10.1105
1742.67	9.31496
1744.18	8.71614
1745.7	8.76799
1747.21	8.52471
1748.72	7.80629
1750.24	6.78759
1751.75	6.32298
1753.26	6.31819
1754.77	6.39888
1756.29	6.32081
1757.8	5.87394
1759.31	5.70737
1760.82	5.33721
1762.33	5.23866
1763.84	4.78346
1765.35	4.46691
1766.86	4.41742
1768.37	4.18826
1769.88	3.88866
1771.39	4.14181
1772.9	4.66534
1774.4	4.66874
1775.91	4.4822
1777.42	3.2717
1778.93	3.25795
1780.44	2.66023
1781.94	2.3085
1783.45	2.38395
1784.96	2.34421
1786.46	2.43756
1787.97	3.1444
1789.47	2.92409
1790.98	2.02313
1792.48	1.55725
1793.99	1.63005
1795.49	1.31648
1797	1.20326
1798.5	1.27407
1800.01	0.651496
1801.51	0.381509
1803.01	0.490651
1804.51	0.395195
1806.02	0.497723
1807.52	0.510242
1809.02	0.373776
1810.52	-0.0233591
1812.02	0.198757
1813.52	0.297381
1815.02	0.255661
1816.53	0.447328
1818.03	0.137547
1819.52	0.167752
1821.02	-0.0202984
1822.52	-0.0276394
1824.02	0.0720719
1825.52	0.311167
1827.02	0.587208
1828.52	1.00058
1830.02	1.2813
1831.51	1.46412
1833.01	2.19408
1834.51	2.60794
1836.01	3.36324
1837.5	4.00453
1839	4.27997
1840.49	4.53471
1841.99	5.19333
1843.49	5.4007
1844.98	5.69775
1846.48	5.84818
1847.97	6.52569
1849.47	6.71105
1850.96	6.88987
1852.45	7.04918
1853.95	7.2011
1855.44	6.6508
1856.93	6.02973
1858.42	5.58512
1859.92	5.36202
1861.41	4.84922
1862.9	4.35163
1864.39	3.859
1865.88	3.07713
1867.38	3.12304
1868.87	3.7491
1870.36	3.10078
1871.85	2.86662
1873.34	2.02952
1874.83	2.51814
1876.32	3.07144
1877.81	2.93875
1879.29	2.86318
1880.78	2.55126
1882.27	2.44812
1882.53	2.22321
1884.03	1.87164
1885.52	2.00969
1887.01	2.35487
1888.51	2.28832
1890	2.50153
1891.5	2.23518
1892.99	2.23464
1894.48	2.90374
1895.97	3.80339
1897.47	4.24847
1898.96	4.87058
1900.45	5.45976
1901.94	6.28867
1903.43	6.735
1904.92	7.8909
1906.41	7.96324
1907.9	8.17687
1909.39	8.70874
1910.88	8.84231
1912.37	9.69373
1913.86	9.94053
1915.35	10.2927
1916.84	10.7538
1918.33	11.5545
1919.81	11.6685
1921.3	11.7714
1922.79	11.7757
1924.28	11.7672
1925.76	12.1456
1927.25	11.434
1928.73	11.5115
1930.22	11.2668
1931.71	11.4208
1933.19	11.6628
1934.68	11.1771
1936.16	11.4467
1937.65	11.9473
1939.13	11.4358
1940.62	11.7785
1942.1	12.0373
1943.58	11.0238
1945.07	11.6753
1946.55	11.7469
1948.03	12.5572
1949.51	12.2943
1951	11.7528
1952.48	12.0428
1953.96	11.5097
1955.44	11.7381
1956.92	11.1091
1958.4	10.8515
1959.88	10.9251
1961.36	11.1838
1962.84	10.6107
1964.32	10.9117
1965.8	10.7974
1967.28	11.2844
1968.76	11.6858
1970.24	12.1338
1971.72	12.4114
1973.2	12.903
1974.67	12.9957
1976.15	12.8772
1977.63	12.8294
1979.1	12.982
1980.58	13.0525
1982.06	13.5016
1983.54	14.0107
1985.01	14.2815
1986.49	14.3821
1987.96	14.4038
1989.44	14.4205
1990.91	14.7017
1992.39	14.7213
1993.86	14.8866
1995.33	15.4101
1996.81	16.226
1998.28	16.6436
1999.75	16.3075
2001.23	16.2364
2002.7	16.3518
2004.17	15.7518
2005.65	15.681
2007.12	15.526
2008.59	15.1474
2010.06	15.7438
2011.53	15.968
2013	15.78
2014.47	16.1461
2015.94	16.7293
2017.41	16.2918
2018.88	16.7576
2020.35	16.6763
2021.82	17.0401
2023.29	16.137
2024.76	16.2436
2026.23	15.7916
2027.69	15.5992
2029.16	15.539
2030.63	15.2493
2032.1	15.4551
2033.56	15.6153
2035.03	16.4799
2036.5	17.1137
2037.96	17.7379
2039.43	17.9226
2040.89	18.2206
2042.36	18.256
2043.83	18.811
2045.29	19.0435
2046.75	19.1867
2048.22	19.3612
2049.68	19.8141
2051.15	20.1343
2052.61	20.2731
2054.07	20.713
2055.54	20.5836
2057	20.6749
2058.46	20.0972
2059.92	20.3198
2061.39	20.4098
2062.85	20.6281
2064.31	20.4596
2065.77	20.4796
2067.23	21.3339
2068.69	20.9232
2070.15	20.4183
2071.61	19.9113
2073.07	19.4228
2074.53	19.5557
2075.99	18.9723
2077.45	19.0386
2078.91	19.0936
2080.37	19.1419
2081.82	19.2556
2083.28	19.4193
2084.74	19.0372
2086.2	19.2374
2087.65	18.8417
2089.11	18.4486
2090.57	17.48
2092.02	17.6893
2093.48	17.1709
2094.94	17.9604
2096.39	17.7947
2097.85	18.1047
2099.3	17.8878
2100.76	18.52
2102.21	18.3757
2103.66	18.627
2105.12	19.1008
2106.57	19.8249
2108.03	20.6854
2109.48	21.3872
2110.93	21.1449
2112.38	21.4363
2113.84	21.7662
2115.29	21.7625
2116.74	22.6008
2118.19	23.5128
2119.64	24.1171
2121.09	24.7238
2122.54	25.4095
2123.99	25.8554
2125.45	26.5521
2126.89	27.155
2128.34	28.1569
2129.79	28.8249
2131.24	29.0286
