#Acq. time (s)=	45
#Accumulations=	2
#Range (cm-¹)=	200...3150
#Windows=	2
#Auto scanning=	Off
#Autofocus=	Off
#Macrospot=	Off
#AutoExposure=	Off
#Spike filter=	Multiple accum.
#Delay time (s)=	0
#Binning=	1
#Readout mode=	Signal
#DeNoise=	Off
#ICS correction=	On
#Dark correction=	Off
#Inst. Process=	Off
#Detector Gain=	Best Dynamic Range
#Detector ADC=	20 kHz       
#Detector temperature (°C)=	-69.85
#Instrument=	LabRAM HR Evol
#Detector=	Synapse
#Objective=	x100
#Grating=	600 gr/mm
#ND Filter=	100%
#Laser (nm)=	532 
#Hole=	100.021
#Range=	Auto
#Laser Pol.=	No
#Raman. Pol.=	No
#Laser Pol. (°)=	-0.0007625
#Raman Pol. (°)=	89.9995
#Collection=	Microscope
#StageXY=	Marzhauser
#StageZ=	Marzhauser
#X (µm)=	8979.4
#Y (µm)=	-3061.9
#Z (µm)=	-55.1
#Full time(mm:ss)=	3:19
#Project=	
#Sample=	
#Site=	
#Title=	Thy_00_07_30_2x_45s_532 nm_x100_100%_600 gr_mm
#Remark=	
#Date=	28.06.2022 12:18
#Acquired=	28.06.2022 12:18:15
#Base:Fit=	10.08.2022 10:07:56
#Base:Sub=	10.08.2022 10:08:40
#Filter:Polynom=	16.08.2022 10:26:06
#AxisType[0]=Intens
#AxisUnit[0]=Cnt
#AxisType[1]=Spectr
#AxisUnit[1]=1/cm
200.407	62.5282
202.221	55.742
204.035	49.8921
205.849	44.7919
207.665	40.1461
209.478	36.2158
211.291	32.7786
213.104	30.5225
214.916	27.7274
216.73	25.5854
218.541	23.4513
220.352	22.0019
222.163	19.4939
223.973	17.6912
225.785	17.7369
227.595	16.8552
229.404	16.7416
231.213	15.5881
233.022	12.8898
234.83	11.5589
236.638	11.258
238.448	9.82966
240.255	9.13674
242.062	8.80767
243.868	8.20255
245.675	8.15258
247.48	8.36992
249.286	8.53443
251.091	9.50709
252.896	9.63527
254.702	8.37505
256.506	8.80576
258.31	10.8823
260.113	11.0558
261.916	11.707
263.719	13.07
265.521	13.4286
267.323	14.279
269.125	15.6712
270.926	14.8267
272.727	13.5405
274.527	14.0293
276.328	14.5032
278.127	13.7083
279.927	13.4312
281.726	13.1902
283.525	12.8555
285.323	13.258
287.121	13.4039
288.919	12.9577
290.716	14.055
292.513	13.2866
294.31	12.8167
296.104	13.2447
297.9	13.9067
299.696	14.6314
301.491	14.2022
303.286	14.06
305.081	13.2982
306.875	14.3051
308.669	14.747
310.463	15.2319
312.256	14.8076
314.047	14.6152
315.839	14.2071
317.631	13.7219
319.423	13.0835
321.215	11.9878
323.006	11.3139
324.794	13.1411
326.585	13.0972
328.375	13.0614
330.165	12.8721
331.954	13.0969
333.741	12.721
335.53	12.8118
337.318	12.7864
339.106	12.9322
340.894	13.7956
342.679	13.1757
344.466	12.6704
346.253	13.9722
348.039	14.918
349.823	14.5005
351.608	15.1615
353.393	13.3755
355.176	13.255
356.961	13.373
358.745	13.3543
360.529	12.1705
362.31	11.5391
364.093	12.5365
365.876	11.4538
367.657	10.3146
369.439	10.2293
371.221	9.54585
373	8.47904
374.781	7.86196
376.56	8.01138
378.34	7.22284
380.12	6.50251
381.898	5.29221
383.677	5.50263
385.456	6.12155
387.233	5.78488
389.011	5.69438
390.787	5.09479
392.565	5.09753
394.34	5.78681
396.117	6.16951
397.894	6.45666
399.668	6.39065
401.444	6.61206
403.217	5.82446
404.993	6.96786
406.766	8.34403
408.54	7.89189
410.312	8.45219
412.086	9.09167
413.858	10.0574
415.631	9.93799
417.402	10.4459
419.174	10.2282
420.944	11.8801
422.716	12.7049
424.486	13.5823
426.257	14.4123
428.025	15.3925
429.794	15.1619
431.564	14.4767
433.332	14.7874
435.101	14.5596
436.868	14.5377
438.637	14.2351
440.403	13.624
442.169	13.2737
443.937	14.5633
445.703	14.7583
447.468	14.3159
449.234	14.4096
450.999	14.6082
452.765	15.9074
454.528	16.4288
456.292	17.4963
458.057	18.1042
459.819	19.2189
461.582	19.6213
463.344	19.7349
465.107	20.0808
466.868	19.1522
468.629	19.7804
470.392	19.6721
472.152	20.4053
473.912	20.9102
475.672	21.2211
477.433	21.3898
479.192	21.9753
480.951	22.0614
482.709	23.5098
484.469	24.9197
486.226	25.484
487.984	25.8149
489.74	26.3026
491.499	26.151
493.255	27.7889
495.011	28.0941
496.767	28.6823
498.522	29.795
500.277	31.1084
502.033	30.7411
503.788	30.7849
505.541	30.2088
507.295	30.3721
509.048	30.1652
510.801	28.7401
512.553	27.6
514.308	26.3863
516.06	24.9834
517.811	23.4384
519.562	22.8159
521.313	21.7893
523.063	20.9192
524.814	19.6721
526.563	19.1478
528.313	17.9458
530.062	18.785
531.811	17.4868
533.559	18.1371
535.308	17.2656
537.055	17.7468
538.803	17.8304
540.55	17.2157
542.297	16.9127
544.043	15.8993
545.789	14.648
547.535	13.4464
549.281	11.6846
551.026	10.2403
552.771	10.2922
554.515	9.18541
556.259	9.05885
558.003	8.30826
559.747	7.55825
561.49	7.41728
563.233	7.59425
564.975	7.19058
566.717	8.22207
568.459	8.1203
570.2	9.41887
571.942	9.73727
573.68	9.65662
575.421	10.024
577.161	10.1791
578.901	11.1058
580.64	11.8538
582.379	11.9076
584.118	11.8374
585.855	11.4645
587.593	11.4744
589.331	10.6401
591.068	12.0529
592.805	11.7465
594.54	10.8439
596.277	9.84329
598.013	8.852
599.749	8.68745
601.484	8.05563
603.217	7.89867
604.952	8.04813
606.687	7.53755
608.421	7.35298
610.153	7.71511
611.886	7.46867
613.619	7.52969
615.35	6.76358
617.083	6.71225
618.815	4.88225
620.547	5.08653
622.276	3.89843
624.008	3.6135
625.738	3.03424
627.467	2.66381
629.197	3.41806
630.927	2.275
632.655	2.65172
634.384	2.53301
636.113	3.17031
637.839	3.5813
639.568	3.84122
641.293	3.44303
643.021	3.72257
644.748	4.30341
646.473	4.6358
648.2	5.5438
649.924	6.26784
651.65	7.00283
653.376	7.69297
655.099	8.23116
656.824	9.32085
658.546	10.6442
660.271	11.2046
661.993	11.4798
663.716	12.3444
665.438	13.0685
667.161	13.9199
668.881	14.1884
670.604	15.2842
672.324	15.7124
674.045	16.5255
675.765	17.9603
677.486	18.5283
679.204	18.2099
680.925	18.6571
682.643	19.3428
684.361	20.3099
686.08	21.8847
687.797	22.6709
689.516	23.308
691.232	23.1719
692.95	23.2545
694.666	24.4309
696.382	24.2024
698.099	23.4411
699.813	23.015
701.528	22.4867
703.244	22.4443
704.958	22.7493
706.673	23.0217
708.387	23.8797
710.099	23.1235
711.814	24.133
713.526	25.2429
715.238	26.1153
716.949	25.4037
718.663	26.1748
720.374	26.2996
722.084	28.058
723.796	28.7387
725.506	29.5569
727.216	30.4756
728.925	31.7342
730.636	33.5049
732.345	33.9861
734.053	35.2088
735.761	36.544
737.471	37.9507
739.178	38.7794
740.885	40.5495
742.592	42.532
744.298	44.069
746.006	44.8596
747.712	46.8439
749.417	49.2653
751.122	51.5987
752.827	53.7922
754.532	54.8789
756.236	57.4965
757.942	58.6177
759.645	59.6732
761.348	61.5128
763.051	62.8139
764.753	64.9653
766.456	65.3512
768.158	66.3904
769.859	68.2736
771.56	69.3873
773.261	69.8265
774.964	70.1092
776.664	70.4244
778.364	70.4021
780.064	70.0406
781.763	68.5628
783.462	67.5409
785.16	66.6604
786.859	66.7084
788.557	65.5554
790.255	64.2659
791.952	64.0625
793.649	64.5213
795.346	63.9934
797.042	64.8103
798.738	64.2251
800.434	63.7412
802.127	63.5906
803.823	64.0878
805.517	63.859
807.212	64.5902
808.906	63.2797
810.6	62.9843
812.293	62.9527
813.987	62.9577
815.68	62.52
817.372	62.589
819.064	63.447
820.754	63.1063
822.446	63.5388
824.137	64.7391
825.828	65.4289
827.519	66.7894
829.209	67.2102
830.897	67.8854
832.587	69.3365
834.276	69.9702
835.966	69.2805
837.654	69.2898
839.341	69.0624
841.029	68.5095
842.717	67.2282
844.404	66.4091
846.091	66.9197
847.776	65.6243
849.463	64.7462
851.149	63.3068
852.833	63.2559
854.519	62.1223
856.204	60.7761
857.889	58.8315
859.572	57.1696
861.256	55.0799
862.94	53.5222
864.622	52.1106
866.305	50.7537
867.988	49.1553
869.669	48.7612
871.351	48.6117
873.033	47.7572
874.713	47.3331
876.395	47.6621
878.074	46.6763
879.755	44.9974
881.435	44.5247
883.114	44.6546
884.794	44.1391
886.471	43.5057
888.15	42.333
889.829	41.5024
891.506	42.0742
893.184	40.8752
894.861	40.7005
896.538	40.6556
898.214	41.819
899.891	42.196
901.566	42.8618
903.242	44.0954
904.916	44.1785
906.592	46.1355
908.266	47.7732
909.941	47.4819
911.614	49.1365
913.288	49.3494
914.961	50.5219
916.635	50.9301
918.306	50.5699
919.979	49.9787
921.651	51.0331
923.321	49.8729
924.994	49.942
926.664	49.6251
928.336	49.2863
930.005	48.7201
931.674	48.007
933.345	47.6271
935.014	47.5436
936.682	46.8611
938.352	46.0667
940.019	45.6208
941.687	43.6724
943.356	42.6549
945.022	41.1444
946.689	40.2925
948.357	39.1047
950.022	38.6692
951.688	37.1345
953.355	36.4271
955.02	35.0599
956.684	32.9226
958.348	30.3623
960.014	28.1929
961.678	25.4617
963.341	23.5655
965.004	23.4897
966.669	23.3605
968.331	23.2854
969.993	23.8989
971.655	24.6473
973.316	25.7313
974.979	27.0791
976.64	27.9445
978.3	28.2879
979.961	30.6299
981.62	32.3826
983.28	32.8522
984.941	34.0531
986.6	34.7277
988.259	34.2219
989.917	35.8267
991.575	36.5053
993.233	36.8688
994.89	38.2414
996.547	38.0539
998.204	38.8369
999.86	39.6924
1001.52	40.7881
1003.17	41.4501
1004.83	42.1659
1006.49	42.3976
1008.14	42.3989
1009.79	41.9428
1011.45	41.8226
1013.1	41.4984
1014.76	41.7041
1016.41	41.3178
1018.06	41.7866
1019.72	40.388
1021.37	39.4558
1023.02	37.6487
1024.67	35.3478
1026.32	34.7587
1027.97	33.6117
1029.62	31.5137
1031.27	29.5363
1032.92	26.7686
1034.57	23.3162
1036.22	20.6298
1037.87	18.0936
1039.52	15.5872
1041.17	13.5302
1042.82	11.8036
1044.47	11.4196
1046.11	12.5723
1047.76	13.5299
1049.41	14.1806
1051.06	15.0615
1052.7	14.4117
1054.35	14.2829
1055.99	14.8151
1057.64	14.6881
1059.28	14.5261
1060.93	13.4157
1062.57	14.8919
1064.22	14.4377
1065.86	13.4159
1067.5	13.8675
1069.15	13.6719
1070.79	14.6626
1072.43	16.6737
1074.08	17.7013
1075.72	18.3705
1077.36	19.3045
1079	19.4504
1080.64	19.3482
1082.28	19.7125
1083.92	19.9853
1085.56	20.501
1087.2	21.7911
1088.84	23.2001
1090.48	24.0022
1092.12	26.4438
1093.76	28.3142
1095.39	30.1895
1097.03	31.3032
1098.67	32.881
1100.31	33.5725
1101.94	33.7156
1103.58	34.1286
1105.22	34.996
1106.85	35.926
1108.49	35.8327
1110.12	34.9793
1111.76	33.6858
1113.39	32.386
1115.03	32.3988
1116.66	30.773
1118.29	30.5757
1119.93	30.8375
1121.56	30.6954
1123.19	29.8751
1124.82	29.6753
1126.46	29.2132
1128.09	28.933
1129.72	28.1369
1131.35	27.1282
1132.98	26.9763
1134.61	26.4708
1136.24	25.2554
1137.87	24.6266
1139.5	23.9963
1141.13	23.2418
1142.76	22.1077
1144.39	22.0456
1146.01	20.4569
1147.64	20.1154
1149.27	19.835
1150.9	17.9494
1152.53	17.8738
1154.15	17.1286
1155.78	15.3355
1157.4	13.5773
1159.03	12.3755
1160.65	10.6872
1162.28	9.38138
1163.9	9.02111
1165.53	8.29032
1167.15	8.08927
1168.78	8.53406
1170.4	8.3045
1172.02	8.44932
1173.65	8.80423
1175.27	8.52149
1176.89	8.94361
1178.51	8.74428
1180.14	9.0075
1181.76	7.76496
1183.38	8.76526
1185	9.13558
1186.62	9.44067
1188.24	8.98329
1189.86	7.59471
1191.48	8.12315
1193.1	8.09617
1194.71	8.02123
1196.33	9.23141
1197.95	8.74621
1199.57	9.7144
1201.19	10.3151
1202.8	11.6441
1204.42	12.3347
1206.04	12.6589
1207.65	14.7115
1209.27	16.6586
1210.88	18.9009
1212.5	21.8686
1214.12	24.3695
1215.73	25.9577
1217.35	27.1724
1218.96	30.2186
1220.57	32.7322
1222.19	35.0059
1223.8	37.6912
1225.41	39.3146
1227.03	40.7611
1228.64	43.1022
1230.25	44.5514
1231.86	46.5625
1233.47	48.5863
1235.08	49.5019
1236.69	51.2562
1238.31	54.1053
1239.92	55.2698
1241.52	54.4355
1243.13	55.1672
1244.74	56.4391
1246.35	56.8569
1247.96	58.2773
1249.57	59.5053
1251.18	60.7575
1252.78	62.3326
1254.39	62.151
1256	61.818
1257.6	61.4129
1259.21	60.3586
1260.82	60.7099
1262.42	60.3161
1264.03	60.2443
1265.63	59.9598
1267.24	59.0404
1268.84	59.2626
1270.45	58.5001
1272.05	59.559
1273.65	59.0003
1275.26	58.7456
1276.86	59.284
1278.46	59.3192
1280.06	60.6605
1281.67	61.9702
1283.27	63.7751
1284.87	63.8939
1286.47	65.2674
1288.07	67.7224
1289.67	68.1823
1291.27	69.543
1292.87	70.9032
1294.47	71.8355
1296.07	73.2038
1297.67	73.9924
1299.27	75.3125
1300.87	76.2562
1302.47	77.4852
1304.06	79.122
1305.66	80.7622
1307.26	83.5649
1308.85	85.9701
1310.45	88.9611
1312.05	91.4947
1313.64	93.0806
1315.24	95.6067
1316.83	98.4781
1318.43	99.6285
1320.02	99.607
1321.62	100.145
1323.21	103.105
1324.8	103.22
1326.4	103.276
1327.99	104.18
1329.59	104.418
1331.18	103.554
1332.77	102.398
1334.36	100.849
1335.95	99.9994
1337.54	99.528
1339.14	99.763
1340.73	99.2216
1342.32	97.8311
1343.91	97.0344
1345.5	96.2085
1347.09	93.4074
1348.67	92.9525
1350.26	90.6206
1351.85	89.4051
1353.44	86.7986
1355.03	84.8092
1356.62	83.6931
1358.2	82.0047
1359.79	81.4197
1361.38	79.1429
1362.96	78.3205
1364.55	75.8184
1366.14	74.524
1367.72	72.8589
1369.31	70.8496
1370.89	69.9961
1372.48	68.2532
1374.06	66.9287
1375.64	64.9844
1377.23	63.5427
1378.81	63.6801
1380.39	64.0994
1381.98	64.3793
1383.56	64.4223
1385.14	64.0074
1386.72	64.1843
1388.3	64.2341
1389.89	63.7982
1391.47	62.3732
1393.05	61.7333
1394.63	61.8584
1396.21	61.3134
1397.79	59.9288
1399.37	59.4825
1400.95	59.0603
1402.52	59.1313
1404.1	57.8881
1405.68	57.2806
1407.26	56.8625
1408.84	56.517
1410.42	57.3409
1411.99	59.1295
1413.57	60.944
1415.15	62.2934
1416.72	64.4277
1418.3	66.6361
1419.87	68.4369
1421.45	71.4517
1423.02	73.9348
1424.6	76.0268
1426.17	78.2601
1427.75	81.6289
1429.32	84.0381
1430.89	88.1962
1432.47	91.2825
1434.04	94.9948
1435.61	98.8215
1437.18	101.854
1438.76	104.996
1440.33	106.689
1441.9	109.05
1443.47	109.923
1445.04	111.35
1446.61	112.284
1448.18	112.569
1449.75	113.467
1451.32	113.22
1452.89	113.234
1454.46	112.843
1456.03	112.414
1457.6	111.426
1459.16	109.694
1460.73	106.555
1462.3	103.315
1463.87	101.108
1465.43	98.2388
1467	94.2463
1468.56	90.5868
1470.13	86.2405
1471.7	82.107
1473.26	77.2604
1474.83	72.9324
1476.39	68.4047
1477.96	64.8613
1479.52	60.7684
1481.08	56.2261
1482.65	51.4338
1484.21	47.4052
1485.77	45.2493
1487.34	42.1356
1488.9	38.6948
1490.46	36.3507
1492.02	33.6879
1493.58	31.1616
1495.15	29.851
1496.71	29.0546
1498.27	27.3696
1499.83	27.0501
1501.39	25.534
1502.95	24.5793
1504.51	24.405
1506.07	24.7315
1507.63	25.0111
1509.18	24.6809
1510.74	23.7892
1512.3	23.1382
1513.86	22.6623
1515.41	22.6814
1516.97	22.5182
1518.53	22.1232
1520.08	22.0569
1521.64	22.0971
1523.2	22.6181
1524.75	23.5992
1526.31	24.458
1527.86	25.3125
1529.42	25.9347
1530.97	27.559
1532.52	28.4233
1534.08	29.4969
1535.63	30.4735
1537.19	31.5309
1538.74	32.5154
1540.29	33.856
1541.84	36.0238
1543.4	37.6059
1544.95	38.9871
1546.5	40.6609
1548.05	41.4704
1549.6	43.9433
1551.15	45.7054
1552.7	48.528
1554.25	50.281
1555.8	52.6441
1557.35	54.6913
1558.9	56.544
1560.45	58.4807
1562	60.8029
1563.54	62.8458
1565.09	62.7998
1566.64	64.625
1568.19	67.3161
1569.73	68.7861
1571.28	70.6309
1572.83	72.702
1574.37	74.0562
1575.92	75.6399
1577.47	77.6557
1579.01	78.3014
1580.56	79.8408
1582.1	80.9065
1583.64	82.524
1585.19	83.1066
1586.73	83.8366
1588.28	85.4323
1589.82	86.3041
1591.36	87.8051
1592.9	89.1978
1594.45	89.683
1595.99	89.8332
1597.53	89.815
1599.07	90.4665
1600.61	91.0104
1602.15	91.2254
1603.69	90.9891
1605.23	89.9655
1606.77	89.369
1608.31	88.6741
1609.85	87.813
1611.39	87.5008
1612.93	86.3721
1614.47	84.6453
1616.01	84.7926
1617.55	84.5084
1619.08	85.1916
1620.62	85.305
1622.16	85.3686
1623.7	85.5682
1625.23	85.8571
1626.77	86.9109
1628.3	87.1034
1629.84	88.3155
1631.37	88.1177
1632.91	89.481
1634.44	90.3729
1635.98	90.9456
1637.51	91.7842
1639.05	92.3242
1640.58	92.7682
1642.11	93.9003
1643.65	95.815
1645.18	96.9701
1646.71	98.0557
1648.24	99.5892
1649.78	100.889
1651.31	102.705
1652.84	104.551
1654.37	105.464
1655.9	106.128
1657.43	107.301
1658.96	107.701
1660.49	109.036
1662.02	109.001
1663.55	109.786
1665.08	109.396
1666.61	108.668
1668.14	107.236
1669.66	105.455
1671.19	103.204
1672.72	101.113
1674.25	98.7567
1675.77	96.0534
1677.3	93.3513
1678.83	89.8801
1680.35	86.0478
1681.88	82.6172
1683.4	79.644
1684.93	76.7395
1686.45	73.6639
1687.98	69.2849
1689.5	65.1077
1691.03	62.2068
1692.55	59.9543
1694.07	56.2984
1695.6	53.956
1697.12	51.0829
1698.64	47.8253
1700.17	44.6421
1701.69	41.4556
1703.21	39.1618
1704.73	36.2721
1706.25	34.2042
1707.77	32.1387
1709.29	31.0584
1710.81	29.2668
1712.33	27.7135
1713.85	25.8589
1715.37	23.9463
1716.89	22.599
1718.41	22.1206
1719.93	20.7395
1721.45	19.8874
1722.97	18.6489
1724.49	18.0421
1726	17.6656
1727.52	16.933
1729.04	15.9342
1730.55	15.2813
1732.07	14.9833
1733.59	14.9082
1735.1	14.5182
1736.62	14.729
1738.13	14.1123
1739.65	13.5208
1741.16	12.8468
1742.68	12.2954
1744.19	11.4001
1745.7	11.1802
1747.22	11.1072
1748.73	11.0015
1750.24	10.3539
1751.76	9.95704
1753.27	10.34
1754.78	9.97055
1756.29	9.56173
1757.8	10.3723
1759.31	9.55138
1760.83	9.39981
1762.34	8.58763
1763.85	8.01461
1765.36	8.37744
1766.87	9.02179
1768.38	8.91501
1769.89	9.28955
1771.39	9.51449
1772.9	9.28157
1774.41	8.84304
1775.92	9.10425
1777.43	8.74728
1778.94	8.98279
1780.44	8.5754
1781.95	8.70118
1783.46	8.62024
1784.96	8.36254
1786.47	8.125
1787.97	7.5005
1789.48	6.92786
1790.99	6.55992
1792.49	6.20288
1794	5.73142
1795.5	5.26282
1797	4.91386
1798.51	4.20706
1800.01	3.92675
1801.51	3.73542
1803.02	3.14013
1804.52	2.76059
1806.02	2.28079
1807.53	2.06131
1809.03	1.58263
1810.53	1.67133
1812.03	1.8403
1813.53	1.17988
1815.03	0.884506
1816.53	0.721747
1818.03	0.0360134
1819.53	-0.00841034
1821.03	-0.151959
1822.53	-0.109212
1824.03	-0.264042
1825.53	-0.614534
1827.03	-0.0833892
1828.53	0.187962
1830.02	-0.24333
1831.52	-0.296967
1833.02	0.0218269
1834.52	-0.632315
1836.01	-0.000973332
1837.51	0.550664
1839.01	1.26426
1840.5	1.6691
1842	1.75572
1843.49	1.83898
1844.99	2.40074
1846.48	2.80919
1847.98	3.00135
1849.47	3.43253
1850.97	4.00497
1852.46	3.96536
1853.95	4.18023
1855.45	4.59797
1856.94	5.25319
1858.43	5.37122
1859.93	5.48413
1861.42	5.94954
1862.91	6.03188
1864.4	5.58259
1865.89	5.8343
1867.38	6.23676
1868.87	6.04771
1870.36	6.13099
1871.85	6.33844
1873.34	6.17491
1874.83	6.24517
1876.32	6.21485
1877.81	6.2253
1879.3	5.92582
1880.79	6.60738
1882.28	6.75368
1882.52	6.29581
1884.02	6.27762
1885.51	6.44287
1887.01	5.7923
1888.5	5.92925
1889.99	5.96041
1891.49	6.11785
1892.98	5.68697
1894.47	4.8135
1895.97	4.85301
1897.46	4.69214
1898.95	4.82401
1900.44	4.57044
1901.93	3.70288
1903.42	2.43635
1904.91	2.01348
1906.4	2.14624
1907.89	2.08751
1909.38	2.14765
1910.87	2.32735
1912.36	1.43838
1913.85	1.42657
1915.34	0.800718
1916.83	1.30723
1918.32	1.65506
1919.8	1.38513
1921.29	1.11349
1922.78	1.38339
1924.27	1.01308
1925.75	0.840067
1927.24	0.907386
1928.73	1.12196
1930.21	1.26777
1931.7	1.33348
1933.18	1.0987
1934.67	1.14993
1936.15	1.08287
1937.64	1.1201
1939.12	1.46371
1940.61	1.78039
1942.09	1.65366
1943.57	2.24176
1945.06	2.49027
1946.54	2.46418
1948.02	2.44024
1949.51	2.72175
1950.99	3.2294
1952.47	3.62842
1953.95	4.04264
1955.43	4.05759
1956.91	3.82013
1958.4	4.24146
1959.88	4.97781
1961.36	4.90629
1962.84	5.17869
1964.32	5.49527
1965.8	4.85507
1967.27	4.20278
1968.75	4.77437
1970.23	5.97572
1971.71	6.54716
1973.19	6.63209
1974.67	6.2835
1976.14	6.7608
1977.62	6.78009
1979.1	7.34616
1980.58	7.45516
1982.05	7.50648
1983.53	7.20375
1985	7.04679
1986.48	7.09835
1987.95	7.1885
1989.43	6.95472
1990.9	6.99962
1992.38	6.34149
1993.85	5.69354
1995.33	5.63821
1996.8	5.63391
1998.27	5.84213
1999.75	5.95586
2001.22	5.93666
2002.69	6.16488
2004.16	6.05298
2005.64	5.921
2007.11	5.94271
2008.58	6.26403
2010.05	6.11337
2011.52	6.2037
2012.99	5.95054
2014.46	6.38128
2015.93	6.14424
2017.4	6.46946
2018.87	5.67658
2020.34	5.68268
2021.81	5.3837
2023.28	5.13847
2024.75	5.0405
2026.22	4.51855
2027.69	4.65173
2029.15	4.09678
2030.62	3.82276
2032.09	3.91731
2033.56	3.46599
2035.02	3.07873
2036.49	2.31232
2037.96	2.21245
2039.42	1.81777
2040.89	2.29629
2042.35	2.90464
2043.82	3.81717
2045.28	3.68815
2046.75	3.61173
2048.21	3.52222
2049.67	3.07221
2051.14	2.70699
2052.6	2.16534
2054.07	2.18528
2055.53	2.2257
2056.99	2.30715
2058.45	2.70135
2059.92	2.52919
2061.38	2.52035
2062.84	2.70406
2064.3	2.40837
2065.76	2.87941
2067.22	3.68761
2068.68	4.19036
2070.14	4.91038
2071.6	5.31494
2073.06	5.02719
2074.52	5.94418
2075.98	5.96116
2077.44	5.97938
2078.9	6.0896
2080.36	6.31296
2081.82	6.32928
2083.27	6.76743
2084.73	7.47719
2086.19	7.55017
2087.65	7.83647
2089.1	7.21337
2090.56	7.57202
2092.02	7.07517
2093.47	7.25142
2094.93	7.2024
2096.38	6.39189
2097.84	6.97347
2099.29	6.97494
2100.75	7.343
2102.2	6.70029
2103.66	6.63274
2105.11	6.21275
2106.56	5.86941
2108.02	6.07713
2109.47	5.82039
2110.92	6.09743
2112.38	6.35166
2113.83	6.34318
2115.28	6.68739
2116.73	6.94552
2118.18	6.41202
2119.63	6.66421
2121.09	5.94696
2122.54	6.66784
2123.99	7.41637
2125.44	7.56709
2126.89	7.91637
2128.34	7.99571
2129.79	8.99094
2131.23	8.99635
2132.68	8.43717
2134.13	8.67447
