#Acq. time (s)=	45
#Accumulations=	2
#Range (cm-¹)=	200...3150
#Windows=	2
#Auto scanning=	Off
#Autofocus=	Off
#Macrospot=	Off
#AutoExposure=	Off
#Spike filter=	Multiple accum.
#Delay time (s)=	0
#Binning=	1
#Readout mode=	Signal
#DeNoise=	Off
#ICS correction=	On
#Dark correction=	Off
#Inst. Process=	Off
#Detector Gain=	Best Dynamic Range
#Detector ADC=	20 kHz       
#Detector temperature (°C)=	-69.85
#Instrument=	LabRAM HR Evol
#Detector=	Synapse
#Objective=	x100
#Grating=	600 gr/mm
#ND Filter=	100%
#Laser (nm)=	532 
#Hole=	100.021
#Range=	Auto
#Laser Pol.=	No
#Raman. Pol.=	No
#Laser Pol. (°)=	-0.0007625
#Raman Pol. (°)=	89.9995
#Collection=	Microscope
#StageXY=	Marzhauser
#StageZ=	Marzhauser
#X (µm)=	4722.6
#Y (µm)=	-7715.6
#Z (µm)=	584.4
#Full time(mm:ss)=	3:19
#Project=	
#Sample=	
#Site=	
#Title=	Thy_30_10_39_2x_45s_532 nm_x100_100%_600 gr_mm
#Remark=	
#Date=	30.06.2022 14:14
#Acquired=	30.06.2022 14:14:27
#Base:Fit=	10.08.2022 09:58:11
#Base:Sub=	10.08.2022 09:58:44
#Filter:Polynom=	16.08.2022 10:22:53
#AxisType[0]=Intens
#AxisUnit[0]=Cnt
#AxisType[1]=Spectr
#AxisUnit[1]=1/cm
200.533	19.0556
202.348	17.3417
204.162	15.8776
205.976	15.4832
207.792	14.5621
209.605	13.9749
211.418	13.0473
213.23	11.7841
215.044	10.5691
216.856	9.20637
218.667	8.13509
220.478	7.05454
222.289	6.46105
224.102	6.00302
225.912	5.23178
227.721	6.24716
229.531	5.6875
231.34	4.61018
233.148	4.98709
234.956	5.52308
236.766	5.59435
238.574	4.8229
240.381	5.24139
242.188	4.88541
243.994	4.24602
245.801	4.82512
247.606	4.49119
249.412	4.58056
251.217	4.68901
253.024	4.78746
254.828	5.13232
256.632	4.90672
258.436	5.13324
260.239	5.75693
262.042	5.91692
263.845	6.81638
265.647	6.60378
267.449	7.11555
269.25	7.17505
271.052	8.11326
272.852	9.07857
274.653	9.18851
276.453	8.24787
278.253	8.42927
280.052	8.57159
281.852	8.30407
283.65	7.92132
285.449	7.74983
287.247	7.64221
289.044	8.05306
290.842	7.9681
292.639	9.39131
294.436	9.65717
296.232	9.57205
298.028	9.9146
299.821	9.02927
301.617	9.27211
303.412	9.72243
305.206	10.2773
307	10.1555
308.794	10.9356
310.588	10.6893
312.381	10.7635
314.172	11.2023
315.964	11.1332
317.756	12.0543
319.548	11.3596
321.34	11.681
323.131	12.8359
324.921	13.1332
326.71	13.3148
328.5	13.3093
330.29	13.4399
332.079	13.3175
333.868	13.2248
335.654	13.9361
337.443	12.9426
339.231	12.8668
341.018	12.5011
342.804	11.4612
344.591	11.0765
346.377	10.0351
348.163	10.0871
349.947	9.75367
351.733	9.70072
353.518	9.23666
355.303	7.76257
357.085	7.42371
358.869	7.87034
360.653	9.00588
362.435	8.42438
364.218	7.68161
366.001	8.37589
367.781	7.90246
369.563	8.08197
371.345	7.59422
373.124	7.30068
374.905	7.87802
376.686	7.51944
378.464	9.27174
380.244	10.5933
382.022	10.5004
383.801	10.2377
385.58	10.7366
387.357	10.9526
389.135	11.2543
390.911	12.1713
392.689	11.4653
394.466	10.5684
396.241	10.0335
398.018	10.1485
399.792	9.16936
401.568	9.32481
403.341	9.88106
405.117	10.2561
406.889	10.5314
408.664	10.1411
410.436	10.6863
412.21	10.6881
413.981	10.2817
415.755	9.62332
417.525	8.6343
419.298	7.6206
421.068	7.66259
422.84	7.44448
424.609	7.52192
426.38	6.77864
428.149	6.23179
429.919	5.18009
431.688	3.64429
433.455	3.09507
435.225	2.91167
436.992	2.38995
438.76	2.20783
440.527	2.3276
442.293	1.95869
444.06	1.6235
445.826	2.32689
447.593	3.55176
449.357	3.77178
451.122	2.82066
452.888	2.85013
454.651	3.15575
456.415	3.60755
458.18	4.94383
459.942	5.40916
461.705	7.22789
463.469	8.97591
465.23	10.0667
466.991	11.0974
468.752	11.0873
470.515	11.1145
472.275	12.6259
474.035	14.1478
475.797	15.1309
477.556	16.3154
479.315	16.8708
481.073	17.1434
482.834	17.9143
484.592	19.0671
486.349	19.496
488.106	20.5815
489.863	21.3651
491.622	22.2581
493.378	22.423
495.134	23.2704
496.889	23.6348
498.645	24.4589
500.401	24.6353
502.156	24.9833
503.91	25.318
505.664	25.9825
507.417	26.1768
509.171	27.0922
510.923	26.2305
512.678	24.953
514.43	23.8357
516.182	23.4235
517.933	22.5889
519.684	22.0806
521.435	21.8788
523.186	21.2552
524.936	20.9651
526.686	20.9305
528.435	21.3591
530.184	20.2586
531.933	20.1337
533.682	20.5717
535.43	20.1811
537.18	19.0152
538.927	18.4937
540.674	18.3639
542.421	18.1178
544.167	17.5461
545.913	17.5284
547.659	17.3385
549.403	16.9117
551.148	16.6369
552.893	15.3988
554.637	14.2225
556.381	14.1241
558.125	12.9021
559.868	12.5361
561.611	11.793
563.354	11.3226
565.097	10.6895
566.839	9.58526
568.581	8.75032
570.322	7.64983
572.063	7.28932
573.802	6.76513
575.542	6.30328
577.283	4.99327
579.022	4.55492
580.762	3.72278
582.501	4.25306
584.24	3.15046
585.976	3.18178
587.714	2.60832
589.452	2.62111
591.19	3.07864
592.927	3.84745
594.663	3.56374
596.398	3.85099
598.134	3.55222
599.87	4.70942
601.605	5.2521
603.338	5.33648
605.073	5.89016
606.808	6.65772
608.542	7.03471
610.274	8.51182
612.007	10.3771
613.74	10.7158
615.473	11.0285
617.204	10.4443
618.936	11.5259
620.668	11.1555
622.397	11.4949
624.128	12.15
625.859	13.0579
627.588	13.2825
629.318	13.4027
631.048	14.0068
632.775	14.9904
634.505	14.9661
636.233	15.0291
637.96	15.4184
639.688	14.8333
641.416	14.8697
643.142	15.5913
644.869	15.792
646.594	17.1394
648.32	18.211
650.045	19.0518
651.771	19.3495
653.496	20.0514
655.219	20.52
656.944	20.3458
658.667	20.4486
660.391	20.3731
662.113	20.2862
663.837	20.6336
665.558	21.3105
667.281	22.3415
669.002	23.1384
670.724	23.688
672.444	24.4978
674.166	25.691
675.885	26.6786
677.606	27.583
679.325	28.4879
681.045	28.7
682.763	29.4656
684.483	30.1991
686.2	30.4973
687.917	30.5479
689.636	31.6474
691.352	32.6715
693.07	32.8
694.786	33.5481
696.501	34.4898
698.219	34.6994
699.933	34.4011
701.65	34.8507
703.364	34.8932
705.078	36.5644
706.793	37.5882
708.506	38.7225
710.219	38.3813
711.934	39.2385
713.646	39.4477
715.358	40.8214
717.071	42.8365
718.782	43.3389
720.493	43.9514
722.204	44.4147
723.916	45.628
725.626	46.6562
727.336	47.2975
729.045	48.9445
730.756	50.233
732.464	51.5284
734.173	52.0404
735.881	51.7816
737.59	52.1363
739.297	52.7127
741.004	52.1108
742.711	52.2462
744.417	53.0336
746.125	53.9011
747.831	55.153
749.537	55.9558
751.242	56.9089
752.946	57.148
754.651	57.1332
756.357	58.2643
758.061	58.8604
759.764	60.4971
761.467	59.8284
763.17	60.2481
764.872	60.3725
766.575	60.6811
768.276	61.551
769.978	62.5295
771.679	62.3286
773.382	62.8564
775.083	63.6366
776.783	63.7763
778.483	64.0789
780.182	65.3901
781.882	66.4774
783.581	66.8452
785.279	68.0943
786.978	69.4575
788.676	71.0054
790.373	72.4532
792.071	72.4686
793.768	72.478
795.464	73.1309
797.161	74.8238
798.857	75.7844
800.552	77.6402
802.248	78.5008
803.941	78.9788
805.636	79.9269
807.33	80.9674
809.024	82.8168
810.718	83.7158
812.412	83.8344
814.105	84.9916
815.798	86.2383
817.49	86.1476
819.183	85.4696
820.873	85.2134
822.564	85.9832
824.256	85.9085
825.947	85.5173
827.637	85.3027
829.328	84.1335
831.016	83.6395
832.705	83.0567
834.395	81.9923
836.084	81.6058
837.772	80.5751
839.459	80.4682
841.147	80.2664
842.835	79.1948
844.522	77.6026
846.209	75.2365
847.894	73.8768
849.581	73.1823
851.267	72.6235
852.953	72.2953
854.637	71.438
856.322	69.1657
858.007	68.8483
859.689	68.2609
861.374	68.0816
863.058	68.2232
864.739	68.3411
866.423	67.2389
868.106	66.1385
869.787	65.7585
871.469	64.651
873.151	63.8933
874.831	62.1466
876.512	61.8847
878.193	61.6523
879.872	62.204
881.553	62.6793
883.231	63.4
884.911	63.5967
886.591	63.8051
888.268	63.2664
889.947	63.9109
891.623	64.5506
893.302	65.1205
894.978	64.9508
896.656	64.506
898.331	64.6121
900.008	64.4558
901.683	62.8968
903.359	63.1256
905.033	62.8938
906.709	62.4797
908.383	61.7686
910.058	61.3321
911.731	59.75
913.405	59.0088
915.078	58.6894
916.752	59.4537
918.423	59.1486
920.096	59.0495
921.768	58.2052
923.438	57.6353
925.111	56.2709
926.781	54.1097
928.452	52.6949
930.122	52.2869
931.791	50.9431
933.462	50.8483
935.13	50.4947
936.799	50.0475
938.468	48.9402
940.136	47.9244
941.803	48.029
943.472	46.6531
945.139	45.732
946.805	43.9321
948.473	42.8888
950.139	42.5752
951.804	42.7185
953.471	42.2021
955.136	42.4551
956.801	42.2606
958.465	41.266
960.131	41.4458
961.794	41.1966
963.458	41.4015
965.12	41.8373
966.785	43.596
968.447	44.5182
970.109	45.5252
971.771	47.0845
973.432	49.0006
975.095	50.3967
976.756	50.9149
978.417	51.5843
980.077	52.0679
981.737	53.3315
983.396	54.7518
985.057	55.8962
986.716	56.9193
988.375	56.8154
990.033	57.4416
991.691	58.2433
993.349	58.109
995.006	57.6462
996.663	59.316
998.32	59.6149
999.976	60.519
1001.63	60.402
1003.29	59.9465
1004.95	59.5723
1006.6	58.9855
1008.26	58.4743
1009.91	58.2752
1011.56	58.7115
1013.22	59.007
1014.87	59.3205
1016.53	59.631
1018.18	58.9005
1019.83	59.3302
1021.48	58.4759
1023.14	58.1336
1024.79	57.4434
1026.44	56.8873
1028.09	57.2107
1029.74	57.2854
1031.39	57.2436
1033.04	56.9993
1034.69	55.7995
1036.34	54.193
1037.99	53.3565
1039.64	52.393
1041.29	51.262
1042.94	50.4782
1044.58	50.2289
1046.23	50.0398
1047.88	50.5127
1049.52	50.4037
1051.17	49.3562
1052.82	48.1862
1054.46	47.6253
1056.11	47.1795
1057.75	46.7729
1059.4	44.4204
1061.04	43.5432
1062.69	42.644
1064.33	41.3347
1065.98	40.4764
1067.62	39.2488
1069.26	37.825
1070.9	37.2017
1072.55	35.9569
1074.19	35.2122
1075.83	34.536
1077.47	34.0098
1079.11	33.8867
1080.76	33.624
1082.4	34.2074
1084.04	34.1671
1085.68	34.0383
1087.32	33.5635
1088.95	33.998
1090.59	33.9467
1092.23	33.9355
1093.87	34.0479
1095.51	34.6131
1097.15	34.5178
1098.78	34.0118
1100.42	34.1343
1102.06	35.9772
1103.69	35.3885
1105.33	35.8819
1106.97	35.4961
1108.6	35.9252
1110.24	36.4681
1111.87	36.2411
1113.51	35.8495
1115.14	35.9501
1116.77	34.1408
1118.41	33.4092
1120.04	32.6814
1121.67	32.0497
1123.31	30.3087
1124.94	29.1513
1126.57	27.6764
1128.2	26.3965
1129.83	25.9295
1131.47	24.8445
1133.1	23.4885
1134.72	21.6862
1136.36	21.0472
1137.98	20.2646
1139.62	18.2563
1141.24	16.7166
1142.87	15.5157
1144.5	14.3438
1146.13	13.0325
1147.76	13.4163
1149.38	11.9697
1151.01	10.6971
1152.64	9.26973
1154.27	8.68081
1155.89	7.82796
1157.52	7.01071
1159.14	6.93508
1160.77	6.54252
1162.39	6.70368
1164.02	5.63498
1165.64	4.88588
1167.27	4.76895
1168.89	4.35736
1170.51	4.78166
1172.14	4.97487
1173.76	5.8616
1175.38	5.8804
1177	6.79143
1178.63	7.46726
1180.25	9.05653
1181.87	10.9512
1183.49	11.7683
1185.11	11.854
1186.73	12.3506
1188.35	13.7597
1189.97	15.7676
1191.59	16.7892
1193.21	17.0766
1194.83	17.5717
1196.45	17.5387
1198.07	18.0871
1199.68	19.6566
1201.3	21.0534
1202.92	22.3959
1204.53	23.4521
1206.15	25.2695
1207.77	26.7466
1209.38	29.4476
1211	31.5712
1212.62	33.2806
1214.23	34.256
1215.84	36.477
1217.46	38.8784
1219.07	40.4298
1220.69	42.8138
1222.3	45.3667
1223.91	48.1363
1225.53	50.3377
1227.14	51.8134
1228.75	54.1536
1230.36	54.069
1231.97	56.2963
1233.59	57.9736
1235.2	59.9218
1236.81	61.5718
1238.42	63.634
1240.03	65.3569
1241.64	66.437
1243.25	68.8536
1244.85	70.2285
1246.46	72.8317
1248.07	74.6115
1249.68	75.9718
1251.29	77.7264
1252.9	79.034
1254.5	79.9413
1256.11	80.9364
1257.72	82.1079
1259.32	82.3898
1260.93	83.4235
1262.54	84.437
1264.14	84.2109
1265.75	84.4566
1267.35	85.1365
1268.96	86.5364
1270.56	87.6992
1272.16	87.266
1273.77	87.119
1275.37	87.3183
1276.97	87.8483
1278.57	88.2235
1280.18	88.3952
1281.78	88.8123
1283.38	88.979
1284.98	89.5745
1286.58	89.8079
1288.18	89.8521
1289.78	89.5587
1291.38	89.9152
1292.99	89.6092
1294.58	89.204
1296.18	90.0417
1297.78	89.7159
1299.38	89.6823
1300.98	89.8544
1302.58	90.3233
1304.17	90.5841
1305.77	89.6664
1307.37	89.4222
1308.97	89.1661
1310.56	88.7475
1312.16	89.5566
1313.76	88.9108
1315.35	89.1454
1316.95	89.9241
1318.54	89.4523
1320.14	89.8287
1321.73	90.644
1323.32	91.1712
1324.92	89.8639
1326.51	89.6862
1328.1	88.5388
1329.7	87.6947
1331.29	86.5174
1332.88	84.6739
1334.47	83.3472
1336.07	82.488
1337.66	81.2305
1339.25	80.7408
1340.84	80.5591
1342.43	79.9143
1344.02	78.3237
1345.61	76.4947
1347.2	76.4013
1348.79	75.1373
1350.37	73.6123
1351.96	70.4487
1353.55	69.3072
1355.14	67.5227
1356.73	66.2544
1358.31	64.1689
1359.9	62.6503
1361.49	61.09
1363.07	58.8014
1364.66	56.9077
1366.25	55.7626
1367.83	54.1564
1369.42	52.4271
1371	51.2555
1372.59	48.3512
1374.17	46.427
1375.75	45.1518
1377.34	43.5271
1378.92	42.8582
1380.5	41.9954
1382.09	41.3058
1383.67	40.5374
1385.25	39.5632
1386.83	38.6683
1388.42	38.0196
1390	37.9181
1391.58	37.4769
1393.16	36.754
1394.74	36.4727
1396.32	36.4954
1397.9	35.4565
1399.48	35.5303
1401.06	35.1165
1402.64	34.4534
1404.21	33.8582
1405.79	34.5156
1407.37	34.6336
1408.95	35.0455
1410.53	35.8933
1412.1	36.5841
1413.68	37.5892
1415.26	39.6383
1416.83	41.0118
1418.41	42.5539
1419.98	44.5491
1421.56	47.3509
1423.13	50.3862
1424.71	53.6746
1426.28	58.1648
1427.86	60.7251
1429.43	63.8339
1431	67.2046
1432.58	71.5812
1434.15	75.622
1435.72	77.9286
1437.29	79.8147
1438.87	81.9368
1440.44	83.3706
1442.01	84.6855
1443.58	86.208
1445.15	87.5073
1446.72	87.5385
1448.29	87.6347
1449.86	88.1898
1451.43	88.0355
1453	88.2408
1454.57	87.9248
1456.14	86.483
1457.71	85.5627
1459.27	83.9905
1460.84	82.2155
1462.41	79.8233
1463.98	76.6542
1465.54	72.6211
1467.11	68.8613
1468.67	65.8083
1470.24	62.7859
1471.81	58.4729
1473.37	55.6986
1474.94	51.9793
1476.5	48.2655
1478.07	45.7696
1479.63	42.2883
1481.19	37.8285
1482.76	34.1581
1484.32	30.4529
1485.88	27.7827
1487.45	24.9869
1489.01	22.2521
1490.57	19.8503
1492.13	18.369
1493.69	17.0222
1495.26	14.9621
1496.82	14.5046
1498.38	14.1461
1499.94	13.8035
1501.5	12.81
1503.06	12.544
1504.62	11.7525
1506.17	11.3559
1507.73	11.7845
1509.29	11.6335
1510.85	11.0666
1512.41	9.64651
1513.97	6.93182
1515.52	6.36609
1517.08	6.66328
1518.64	6.28337
1520.19	6.80778
1521.75	6.95624
1523.31	7.4525
1524.86	8.53724
1526.42	9.26663
1527.97	9.19858
1529.52	9.37344
1531.08	10.0474
1532.63	10.6438
1534.19	11.6661
1535.74	12.8677
1537.29	13.8773
1538.85	15.1399
1540.4	16.2379
1541.95	18.1436
1543.5	19.7791
1545.06	22.8811
1546.61	25.7505
1548.16	27.44
1549.71	29.3701
1551.26	31.6972
1552.81	34.0493
1554.36	36.4674
1555.91	39.1608
1557.46	40.328
1559.01	42.4042
1560.56	45.9604
1562.11	48.5505
1563.65	51.0002
1565.2	53.6592
1566.75	55.854
1568.29	57.7616
1569.84	59.6271
1571.39	61.1402
1572.94	63.0622
1574.48	65.4136
1576.03	66.5027
1577.57	67.9913
1579.12	70.1852
1580.66	72.648
1582.21	74.0913
1583.75	75.602
1585.3	75.7591
1586.84	75.3774
1588.38	76.4089
1589.93	76.5333
1591.47	76.8763
1593.01	78.9037
1594.55	79.6537
1596.1	79.4244
1597.64	78.6128
1599.18	78.0774
1600.72	77.7411
1602.26	77.1284
1603.8	75.4567
1605.34	74.3419
1606.88	73.7459
1608.42	73.0499
1609.96	71.8752
1611.5	71.3658
1613.04	71.0493
1614.58	70.9503
1616.12	71.4005
1617.65	71.1626
1619.19	71.7847
1620.73	72.3326
1622.27	73.0683
1623.8	73.4305
1625.34	73.5747
1626.87	75.4579
1628.41	76.9329
1629.95	79.8583
1631.48	81.5917
1633.02	84.3625
1634.55	86.0185
1636.09	89.6488
1637.62	92.5777
1639.15	95.2106
1640.69	97.8611
1642.22	100.459
1643.76	101.739
1645.29	104.456
1646.82	106.897
1648.35	109.719
1649.88	111.365
1651.42	113.037
1652.95	114.795
1654.48	116.354
1656.01	118.093
1657.54	118.395
1659.07	119.099
1660.6	118.666
1662.13	118.576
1663.66	119.119
1665.19	119.203
1666.72	117.403
1668.24	115.257
1669.77	113.168
1671.3	109.387
1672.83	106.112
1674.35	102.205
1675.88	98.7373
1677.41	94.1417
1678.93	89.4383
1680.46	84.9955
1681.99	80.9853
1683.51	76.6714
1685.04	73.1073
1686.56	68.9436
1688.09	65.1033
1689.61	60.9616
1691.13	56.8355
1692.66	52.9697
1694.18	48.9723
1695.71	45.0661
1697.23	41.0785
1698.75	37.387
1700.27	33.7542
1701.8	30.4398
1703.32	28.3054
1704.84	25.6157
1706.36	23.1427
1707.88	20.997
1709.4	18.857
1710.92	16.6056
1712.44	15.0516
1713.96	12.8994
1715.48	11.6664
1717	9.59498
1718.52	7.78679
1720.04	6.89417
1721.56	6.1546
1723.07	4.64888
1724.59	4.3594
1726.11	3.36295
1727.63	3.50135
1729.14	2.96674
1730.66	2.53522
1732.18	2.30122
1733.69	1.9292
1735.21	1.75094
1736.72	1.7706
1738.24	1.93222
1739.75	1.91775
1741.27	1.10601
1742.78	0.91269
1744.3	0.337426
1745.81	0.341681
1747.32	0.522856
1748.84	0.495089
1750.35	0.431629
1751.86	-0.0446361
1753.37	0.0291914
1754.89	0.457781
1756.4	0.702478
1757.91	1.05462
1759.42	1.15998
1760.93	1.08203
1762.44	0.875389
1763.95	1.13763
1765.46	1.15956
1766.97	1.06207
1768.48	0.811702
1769.99	0.471355
1771.5	-0.00677587
1773.01	0.275281
1774.52	0.336723
1776.03	0.257826
1777.53	0.384001
1779.04	0.716646
1780.55	0.515764
1782.06	0.617475
1783.56	1.12391
1785.07	0.970197
1786.57	1.00754
1788.08	1.33223
1789.59	1.29646
1791.09	1.50314
1792.6	0.422869
1794.1	0.504873
1795.6	0.521439
1797.11	0.240645
1798.61	0.524212
1800.12	0.595635
1801.62	0.201881
1803.12	-0.151797
1804.63	-0.555262
1806.13	-0.157259
1807.63	-0.450137
1809.13	-0.0101541
1810.63	-0.163905
1812.14	0.577585
1813.64	0.778575
1815.14	0.749353
1816.64	1.24431
1818.14	1.78626
1819.64	1.89951
1821.14	2.29105
1822.64	2.57192
1824.14	3.39727
1825.63	3.74842
1827.13	4.10634
1828.63	4.73616
1830.13	5.47704
1831.63	6.42132
1833.12	7.29918
1834.62	8.16895
1836.12	8.69455
1837.62	9.48275
1839.11	10.4353
1840.61	10.7084
1842.1	10.82
1843.6	10.8418
1845.09	11.1078
1846.59	11.7463
1848.08	11.8368
1849.58	11.934
1851.07	12.4294
1852.57	12.9469
1854.06	13.3837
1855.55	13.1586
1857.04	13.7497
1858.54	14.2496
1860.03	14.8873
1861.52	15.2344
1863.01	15.0689
1864.5	14.9185
1866	14.9756
1867.49	14.8173
1868.98	14.9905
1870.47	14.5308
1871.96	14.2473
1873.45	14.0733
1874.94	14.1251
1876.43	14.1133
1877.92	14.3712
1879.41	14.379
1880.89	14.1898
1882.38	13.5392
1882.48	13.7753
1883.97	13.8277
1885.47	14.2456
1886.96	14.3508
1888.46	14.4385
1889.95	14.72
1891.44	14.6383
1892.94	15.0294
1894.43	15.0597
1895.92	15.4058
1897.41	16.5113
1898.9	16.5317
1900.4	17.0496
1901.89	17.6704
1903.38	18.4576
1904.87	18.8658
1906.36	18.8362
1907.85	19.4192
1909.34	19.7751
1910.83	20.4833
1912.32	20.3678
1913.81	19.7522
1915.29	19.7223
1916.78	19.8423
1918.27	20.1779
1919.76	20.3025
1921.25	20.4248
1922.74	21.4424
1924.22	21.736
1925.71	21.4753
1927.2	20.8687
1928.68	20.7783
1930.17	21.3058
1931.65	21.9449
1933.14	22.0074
1934.63	21.5718
1936.11	20.8852
1937.59	20.4274
1939.08	20.6806
1940.56	20.8001
1942.05	20.7681
1943.53	20.9341
1945.01	21.0795
1946.5	20.8388
1947.98	20.8128
1949.46	20.3886
1950.94	19.9487
1952.43	19.8902
1953.91	19.3992
1955.39	19.5806
1956.87	19.4148
1958.35	19.104
1959.83	18.6266
1961.31	18.764
1962.79	18.6636
1964.27	18.2653
1965.75	17.9576
1967.23	18.9183
1968.71	19.2193
1970.19	19.676
1971.67	20.1025
1973.14	20.1198
1974.62	20.7704
1976.1	20.5931
1977.58	20.6503
1979.05	20.856
1980.53	20.8492
1982.01	21.5586
1983.48	21.4508
1984.96	21.5271
1986.43	21.005
1987.91	21.6437
1989.38	22.2235
1990.86	22.4257
1992.33	22.726
1993.81	23.2108
1995.28	23.4287
1996.76	23.9786
1998.23	23.7423
1999.7	23.3816
2001.18	23.2499
2002.65	23.86
2004.12	23.9205
2005.59	24.2315
2007.06	23.9409
2008.54	24.0339
2010.01	24.1003
2011.48	25.3853
2012.95	26.6276
2014.42	26.699
2015.89	26.8876
2017.36	26.903
2018.83	26.4226
2020.3	25.8688
2021.77	26.3494
2023.24	25.8724
2024.71	25.983
2026.17	26.9679
2027.64	26.8845
2029.11	26.7469
2030.58	26.5582
2032.04	26.8284
2033.51	26.8454
2034.98	27.2183
2036.45	26.7323
2037.91	27.2178
2039.38	27.6851
2040.84	28.4272
2042.31	28.4411
2043.77	28.5699
2045.24	28.8902
2046.7	29.163
2048.17	29.9407
2049.63	29.7826
2051.1	30.3829
2052.56	31.0424
2054.02	31.6891
2055.48	32.2945
2056.95	33.0273
2058.41	33.898
2059.87	34.5015
2061.33	35.7063
2062.8	35.7081
2064.26	35.6317
2065.72	36.1919
2067.18	36.6174
2068.64	36.8328
2070.1	37.441
2071.56	37.5841
2073.02	37.7364
2074.48	38.4662
2075.94	39.3122
2077.4	39.5563
2078.86	40.512
2080.31	41.3473
2081.77	42.5847
2083.23	44.2015
2084.69	45.0453
2086.14	45.2346
2087.6	46.09
2089.06	46.4901
2090.52	47.0901
2091.97	48.2398
2093.43	48.9828
2094.88	50.2352
2096.34	50.5324
2097.79	52.3386
2099.25	53.2192
2100.7	53.1443
2102.16	53.7827
2103.61	54.8948
2105.07	56.2212
2106.52	57.328
2107.97	59.0937
2109.43	60.4915
2110.88	62.6607
2112.33	64.1942
2113.78	66.373
2115.24	68.2886
2116.69	70.2526
2118.14	72.0445
2119.59	73.9574
2121.04	76.7792
2122.49	78.436
2123.94	79.9525
2125.39	81.6998
2126.84	84.0534
2128.29	85.7132
2129.74	87.8927
2131.19	89.85
