#Acq. time (s)=	45
#Accumulations=	2
#Range (cm-¹)=	200...3150
#Windows=	2
#Auto scanning=	Off
#Autofocus=	Off
#Macrospot=	Off
#AutoExposure=	Off
#Spike filter=	Multiple accum.
#Delay time (s)=	0
#Binning=	1
#Readout mode=	Signal
#DeNoise=	Off
#ICS correction=	On
#Dark correction=	Off
#Inst. Process=	Off
#Detector Gain=	Best Dynamic Range
#Detector ADC=	20 kHz       
#Detector temperature (°C)=	-69.85
#Instrument=	LabRAM HR Evol
#Detector=	Synapse
#Objective=	x100
#Grating=	600 gr/mm
#ND Filter=	100%
#Laser (nm)=	532 
#Hole=	100.021
#Range=	Auto
#Laser Pol.=	No
#Raman. Pol.=	No
#Laser Pol. (°)=	-0.0007625
#Raman Pol. (°)=	89.9995
#Collection=	Microscope
#StageXY=	Marzhauser
#StageZ=	Marzhauser
#X (µm)=	-2366.5
#Y (µm)=	228.5
#Z (µm)=	521.45
#Full time(mm:ss)=	3:18
#Project=	
#Sample=	
#Site=	
#Title=	Thy_10_08_40_2x_45s_532 nm_x100_100%_600 gr_mm
#Remark=	
#Date=	06.07.2022 14:39
#Acquired=	06.07.2022 14:39:03
#Base:Fit=	10.08.2022 09:46:25
#Base:Sub=	10.08.2022 09:46:49
#Filter:Polynom=	16.08.2022 10:24:56
#AxisType[0]=Intens
#AxisUnit[0]=Cnt
#AxisType[1]=Spectr
#AxisUnit[1]=1/cm
200.398	13.9427
202.213	16.4113
204.027	16.4527
205.843	15.8055
207.657	15.3075
209.47	14.7422
211.283	14.0804
213.097	13.8687
214.909	12.6247
216.721	11.8164
218.533	11.6105
220.344	9.81741
222.157	9.97844
223.967	8.99549
225.777	8.13746
227.587	7.10474
229.396	7.23273
231.205	7.0576
233.016	6.84175
234.824	5.35547
236.632	5.43467
238.439	4.45011
240.247	4.76791
242.053	3.48867
243.86	2.66582
245.666	2.55756
247.474	1.95017
249.279	1.37062
251.085	0.954501
252.889	1.25622
254.694	1.67265
256.498	2.70839
258.301	2.84316
260.105	2.89081
261.908	3.2805
263.71	4.00399
265.513	3.98675
267.315	3.7512
269.116	4.07469
270.918	4.60672
272.718	5.15722
274.519	6.6201
276.319	7.72425
278.119	8.61762
279.918	9.24513
281.718	10.3141
283.516	10.0487
285.315	10.0115
287.113	9.50263
288.911	9.35637
290.708	9.58699
292.505	10.1163
294.302	11.746
296.098	12.6661
297.894	13.2624
299.69	14.4627
301.485	15.4196
303.278	16.4051
305.073	16.1774
306.867	16.9032
308.661	17.3437
310.454	17.3162
312.247	18.166
314.04	17.3091
315.833	17.5294
317.623	17.3415
319.415	17.7117
321.206	17.6354
322.997	17.6145
324.788	17.0542
326.579	16.9787
328.367	15.9269
330.156	15.9002
331.946	14.8129
333.735	15.588
335.523	16.3007
337.31	16.9187
339.098	15.7372
340.885	15.5346
342.673	15.1464
344.458	15.5651
346.244	15.4776
348.03	13.849
349.816	13.9085
351.6	13.6635
353.385	12.8835
355.17	12.0405
356.953	11.8617
358.737	12.3927
360.521	11.8551
362.304	11.7367
364.085	11.9982
365.868	11.774
367.65	11.353
369.431	11.1297
371.212	10.4376
372.994	9.92389
374.773	9.41356
376.554	9.96879
378.332	10.9196
380.112	11.4319
381.892	11.4706
383.669	12.1175
385.448	11.5146
387.225	11.9775
389.003	12.2767
390.781	11.7932
392.557	11.3303
394.334	10.6139
396.109	9.76245
397.885	9.69786
399.66	8.70971
401.436	7.75872
403.211	7.21494
404.984	7.66116
406.759	7.27745
408.532	7.20276
410.306	7.44242
412.078	6.7395
413.851	5.83797
415.623	5.51877
417.395	6.17363
419.166	6.24615
420.938	6.39371
422.708	6.77719
424.477	6.27934
426.248	5.86076
428.017	5.01312
429.788	6.37256
431.556	6.06964
433.326	6.5825
435.093	5.34953
436.86	4.78276
438.629	5.11717
440.395	5.62536
442.163	5.73347
443.929	6.07306
445.694	6.22105
447.461	6.75416
449.226	7.26417
450.99	8.81332
452.756	9.21494
454.52	9.0731
456.285	9.74988
458.048	10.5971
459.811	10.6642
461.573	10.8342
463.337	10.7559
465.099	11.8471
466.86	12.298
468.623	11.1599
470.384	11.7888
472.144	12.0743
473.906	11.5244
475.666	12.7259
477.425	13.0157
479.184	12.9513
480.944	12.8672
482.703	12.9089
484.461	12.765
486.218	13.2558
487.975	12.399
489.734	13.1117
491.491	13.2889
493.247	14.0663
495.003	13.6367
496.759	13.6932
498.516	14.298
500.271	13.8768
502.025	14.3405
503.779	14.761
505.533	15.2781
507.287	15.2111
509.042	15.822
510.795	16.2592
512.547	16.1618
514.299	15.8765
516.051	16.1026
517.803	15.3367
519.554	15.3008
521.305	14.6644
523.055	14.6875
524.805	15.4079
526.555	15.5591
528.307	15.9307
530.056	15.3596
531.805	15.3533
533.553	16.2765
535.301	16.8009
537.049	17.9763
538.797	17.2139
540.544	15.8729
542.291	14.9502
544.037	15.0713
545.783	15.2923
547.529	13.8389
549.275	13.6578
551.02	12.6852
552.765	12.856
554.509	12.1508
556.253	11.2296
557.997	11.4106
559.738	9.86408
561.482	9.66457
563.224	9.58685
564.967	8.53786
566.709	7.61055
568.451	6.90869
570.192	6.37002
571.933	5.75126
573.674	4.75714
575.415	4.11848
577.153	4.29874
578.893	3.92299
580.632	3.01029
582.371	2.45722
584.11	2.1461
585.849	1.69791
587.587	1.39494
589.323	1.81902
591.06	1.28485
592.797	0.866793
594.534	0.471339
596.271	0.48451
598.005	0.0425331
599.741	-0.428521
601.476	-0.373166
603.211	0.238683
604.944	0.582235
606.679	1.14934
608.413	1.17689
610.147	1.94952
611.878	2.78366
613.611	3.82379
615.344	4.98953
617.077	6.25738
618.807	6.38269
620.539	6.99124
622.27	6.44805
623.999	6.81955
625.73	6.65956
627.461	6.97247
629.189	7.39952
630.919	8.58454
632.648	9.48924
634.376	9.20652
636.105	10.3472
637.833	10.1627
639.559	10.6459
641.287	11.4259
643.013	10.9557
644.74	10.4645
646.467	11.5481
648.192	11.8978
649.918	11.4666
651.642	11.8376
653.368	12.3928
655.091	12.9732
656.816	13.0363
658.538	14.1226
660.263	14.6333
661.987	15.3042
663.708	16.1128
665.432	16.828
667.153	16.786
668.875	17.9137
670.596	18.449
672.318	19.1948
674.037	20.4135
675.759	21.5314
677.478	21.844
679.196	22.4033
680.917	23.8244
682.635	24.8114
684.355	26.745
686.072	27.5417
687.791	28.9283
689.508	30.4906
691.224	31.04
692.942	31.7769
694.658	31.5351
696.376	32.7359
698.091	34.2018
699.805	33.9149
701.522	33.598
703.236	33.96
704.95	33.5259
706.665	34.847
708.379	36.4482
710.093	37.1666
711.806	38.4014
713.518	37.8854
715.23	38.9687
716.943	39.9955
718.655	40.4492
720.366	40.2932
722.078	41.2587
723.788	42.162
725.498	42.143
727.208	42.336
728.919	41.4719
730.628	41.3689
732.337	42.8
734.045	42.4178
735.755	43.0002
737.463	44.1403
739.17	44.6849
740.877	45.2119
742.584	45.567
744.292	46.5753
745.998	47.1629
747.704	48.3567
749.409	49.9212
751.114	50.6771
752.819	51.4344
754.526	52.9291
756.23	54.9942
757.934	56.7757
759.637	58.0851
761.34	58.8648
763.043	59.6426
764.746	61.0642
766.448	62.1781
768.152	63.0412
769.853	63.8142
771.554	63.6234
773.255	64.982
774.956	65.187
776.656	65.0442
778.356	65.6115
780.056	65.2483
781.755	67.5934
783.454	67.0242
785.153	67.7841
786.851	69.7391
788.549	71.1619
790.247	72.8148
791.944	74.8206
793.641	75.5687
795.338	75.8013
797.034	77.1482
798.73	78.041
800.426	79.922
802.121	80.6387
803.817	81.6523
805.511	81.8102
807.206	82.8229
808.9	82.6558
810.592	81.9716
812.286	82.1171
813.979	81.8969
815.672	81.4057
817.364	82.229
819.057	82.2477
820.748	81.7895
822.44	80.8616
824.129	80.2416
825.82	80.1838
827.511	79.6234
829.201	79.7309
830.891	79.6996
832.581	80.1691
834.269	80.7541
835.958	80.6646
837.646	80.4387
839.335	80.5569
841.023	80.3397
842.709	79.5602
844.396	77.8193
846.084	76.1258
847.77	75.9974
849.455	75.1235
851.141	73.7334
852.827	72.1956
854.513	70.9373
856.196	70.6149
857.881	69.1641
859.566	68.7824
861.248	68.5181
862.932	67.7913
864.616	66.8051
866.297	67.3847
867.98	66.6404
869.663	66.8641
871.343	66.6586
873.026	67.0181
874.707	66.6044
876.387	65.8886
878.068	65.6538
879.747	65.6439
881.428	65.8175
883.108	65.5848
884.786	64.7156
886.465	64.681
888.143	63.9859
889.822	62.4216
891.498	62.0506
893.177	61.5656
894.855	60.7798
896.53	60.365
898.208	59.6375
899.883	58.6477
901.56	58.1765
903.234	56.8076
904.91	55.1901
906.584	54.8958
908.26	55.0473
909.933	54.4182
911.608	54.8754
913.28	55.3329
914.955	55.6105
916.627	55.6185
918.298	55.9483
919.972	54.4133
921.643	54.0228
923.315	53.7539
924.986	53.3558
926.656	52.9813
928.328	52.8786
929.997	52.6698
931.668	53.3564
933.337	51.9327
935.006	51.0104
936.676	50.1294
938.344	50.0423
940.012	49.4647
941.681	48.4819
943.348	48.2936
945.014	46.8003
946.683	46.4787
948.349	45.9759
950.015	46.8378
951.682	46.4207
953.347	46.2048
955.012	45.1761
956.676	44.0833
958.343	41.7899
960.006	40.5863
961.67	40.3577
963.333	40.8471
964.998	41.3983
966.661	41.9565
968.323	42.4316
969.985	43.2526
971.649	43.032
973.31	43.4209
974.971	44.4997
976.632	45.3415
978.293	46.2054
979.953	46.197
981.615	46.386
983.274	46.4565
984.933	46.7627
986.592	47.093
988.251	48.6236
989.909	50.1235
991.567	50.9494
993.225	50.8118
994.884	52.0628
996.541	51.9184
998.198	52.0442
999.855	51.6476
1001.51	51.7951
1003.17	51.5971
1004.82	52.0264
1006.48	51.8395
1008.13	51.5319
1009.79	50.9946
1011.44	52.0131
1013.1	51.1527
1014.75	50.1806
1016.4	49.6141
1018.06	49.3416
1019.71	48.2182
1021.36	47.0656
1023.01	45.8207
1024.66	44.3516
1026.32	43.3582
1027.97	42.2711
1029.62	41.2195
1031.27	39.6994
1032.92	38.5595
1034.57	36.4105
1036.22	33.7398
1037.87	30.9938
1039.52	30.0662
1041.16	28.8724
1042.81	28.0773
1044.46	28.3103
1046.11	29.1088
1047.76	28.2461
1049.4	27.0528
1051.05	26.0955
1052.7	25.4318
1054.34	25.0881
1055.99	24.8726
1057.63	24.1067
1059.28	24.1426
1060.92	24.1061
1062.57	22.8045
1064.21	22.831
1065.85	22.1028
1067.5	21.8373
1069.14	21.428
1070.78	20.9899
1072.43	20.4446
1074.07	19.5974
1075.71	19.2909
1077.35	19.1338
1078.99	19.1298
1080.63	19.6042
1082.27	19.8275
1083.91	20.4606
1085.55	20.0408
1087.19	20.4566
1088.83	21.426
1090.47	21.8239
1092.11	23.3992
1093.75	24.3963
1095.39	24.2848
1097.03	24.9336
1098.66	26.0046
1100.3	25.8604
1101.94	26.0383
1103.57	25.6651
1105.21	25.0644
1106.84	24.4444
1108.48	24.3362
1110.11	23.5531
1111.75	23.587
1113.38	22.8064
1115.02	21.6499
1116.65	20.5717
1118.29	19.0825
1119.92	18.6131
1121.55	18.093
1123.19	17.1887
1124.82	16.0824
1126.45	16.0153
1128.08	15.3139
1129.71	13.9863
1131.34	13.1994
1132.97	12.786
1134.6	12.8689
1136.23	13.0597
1137.86	13.3876
1139.49	13.0361
1141.12	13.011
1142.75	12.2287
1144.38	11.6041
1146.01	11.4263
1147.64	11.0471
1149.26	10.2295
1150.89	9.15506
1152.52	8.85141
1154.15	8.94125
1155.77	8.88372
1157.4	8.29343
1159.02	7.76284
1160.65	8.58491
1162.27	8.30018
1163.9	7.16529
1165.52	7.24572
1167.15	8.29926
1168.77	9.60122
1170.39	10.1907
1172.02	10.4097
1173.64	12.2537
1175.26	12.5293
1176.89	14.2027
1178.51	15.2564
1180.13	15.4434
1181.75	16.5098
1183.37	17.1437
1184.99	17.4182
1186.61	18.2312
1188.23	19.4208
1189.85	20.9732
1191.47	21.9468
1193.09	23.0715
1194.71	24.1293
1196.33	26.0376
1197.94	27.8926
1199.56	29.0749
1201.18	30.8616
1202.8	32.1391
1204.41	34.0126
1206.03	35.6206
1207.65	37.8149
1209.26	39.4042
1210.88	41.5924
1212.49	43.9996
1214.11	46.6185
1215.72	48.8002
1217.34	50.3919
1218.95	52.7627
1220.57	54.4623
1222.18	56.1937
1223.79	57.8519
1225.41	58.4794
1227.02	58.7998
1228.63	58.8494
1230.24	59.2976
1231.85	60.1744
1233.47	59.8727
1235.08	59.6342
1236.69	59.9358
1238.3	60.0653
1239.91	60.0907
1241.52	59.9755
1243.13	58.9233
1244.74	58.9129
1246.34	59.8056
1247.95	59.6336
1249.56	59.0787
1251.17	58.659
1252.78	58.7996
1254.38	58.6504
1255.99	58.6243
1257.6	59.2575
1259.2	58.7759
1260.81	58.8527
1262.42	60.3693
1264.02	60.4738
1265.63	61.8552
1267.23	62.2765
1268.84	63.5335
1270.44	64.2158
1272.04	65.1068
1273.65	66.2175
1275.25	66.8341
1276.85	67.5581
1278.46	68.4491
1280.06	69.4241
1281.66	70.8905
1283.26	72.4929
1284.86	73.7173
1286.46	75.5193
1288.07	76.6799
1289.67	77.7213
1291.27	78.7512
1292.87	79.6507
1294.47	80.3413
1296.06	80.8279
1297.66	82.3357
1299.26	83.7276
1300.86	84.2272
1302.46	84.5741
1304.06	84.8745
1305.65	84.7915
1307.25	85.4496
1308.85	85.348
1310.44	85.5557
1312.04	85.1453
1313.64	84.8301
1315.23	84.5728
1316.83	85.0238
1318.42	84.0862
1320.02	83.9844
1321.61	83.2956
1323.2	82.2462
1324.8	82.5798
1326.39	81.6934
1327.99	81.5821
1329.58	81.6226
1331.17	80.7986
1332.76	80.5413
1334.36	80.446
1335.95	80.4519
1337.54	80.1998
1339.13	79.8908
1340.72	79.9108
1342.31	79.7019
1343.9	77.9106
1345.49	77.1545
1347.08	75.8434
1348.67	74.6823
1350.26	73.2522
1351.85	72.4227
1353.43	70.4458
1355.02	68.8587
1356.61	67.6108
1358.2	66.5408
1359.78	64.1246
1361.37	62.9917
1362.96	61.7193
1364.54	59.6727
1366.13	58.7792
1367.71	56.8816
1369.3	54.6874
1370.88	52.4611
1372.47	50.7326
1374.05	49.6753
1375.64	48.8711
1377.22	48.1387
1378.8	47.7122
1380.39	47.1725
1381.97	45.4788
1383.55	44.8492
1385.13	43.6065
1386.72	42.2993
1388.3	41.3465
1389.88	40.5738
1391.46	40.2452
1393.04	39.2116
1394.62	37.5098
1396.2	36.6067
1397.78	35.7761
1399.36	35.9931
1400.94	35.1108
1402.52	35.4194
1404.1	36.5955
1405.68	35.9879
1407.25	36.7166
1408.83	38.4157
1410.41	40.2668
1411.98	41.3182
1413.56	42.5571
1415.14	44.9215
1416.71	47.3568
1418.29	49.2011
1419.87	52.1434
1421.44	55.6961
1423.02	57.7344
1424.59	61.392
1426.16	64.677
1427.74	67.725
1429.31	70.935
1430.89	74.2192
1432.46	76.2755
1434.03	79.2272
1435.6	82.4692
1437.18	85.5763
1438.75	87.86
1440.32	91.2691
1441.89	93.2758
1443.46	94.4048
1445.03	95.9631
1446.6	96.2266
1448.17	96.7903
1449.74	97.4436
1451.31	97.9686
1452.88	98.1965
1454.45	97.7601
1456.02	97.1832
1457.59	95.8082
1459.16	93.6255
1460.72	91.285
1462.29	89.9541
1463.86	86.7631
1465.43	83.5017
1466.99	79.4618
1468.56	75.158
1470.13	70.5547
1471.69	65.4221
1473.26	61.2164
1474.82	57.2431
1476.38	54.2999
1477.95	50.2597
1479.51	46.4872
1481.08	42.3108
1482.64	38.9312
1484.2	34.742
1485.77	32.2544
1487.33	30.4539
1488.89	27.3845
1490.46	24.3287
1492.02	22.9538
1493.58	22.0477
1495.14	20.7247
1496.7	20.0057
1498.26	19.8926
1499.82	18.9117
1501.38	17.9398
1502.94	18.4451
1504.5	18.3113
1506.06	18.1354
1507.62	17.9676
1509.18	18.3706
1510.73	17.9572
1512.29	18.6305
1513.85	18.8104
1515.41	18.6269
1516.96	18.9473
1518.52	19.1874
1520.08	19.4261
1521.63	19.7902
1523.19	20.5058
1524.75	20.9348
1526.3	22.5315
1527.85	22.9474
1529.41	24.0214
1530.96	24.9899
1532.52	25.8471
1534.07	27.0912
1535.62	27.7435
1537.18	28.32
1538.73	29.6655
1540.28	29.8102
1541.84	30.1746
1543.39	29.3882
1544.94	29.8494
1546.49	31.4347
1548.04	32.1807
1549.59	34.2716
1551.14	36.2748
1552.69	38.2305
1554.25	39.4642
1555.79	40.6506
1557.34	42.5022
1558.89	43.8026
1560.44	45.5672
1561.99	46.7515
1563.54	48.609
1565.08	50.4335
1566.63	52.5669
1568.18	54.3899
1569.73	57.2358
1571.27	59.8598
1572.82	61.9203
1574.37	63.4088
1575.91	65.4334
1577.46	67.5409
1579	69.5943
1580.55	70.5163
1582.09	71.5122
1583.64	72.6402
1585.18	73.8143
1586.73	74.8424
1588.27	75.1448
1589.81	76.2428
1591.35	76.3702
1592.9	77.1023
1594.44	77.7808
1595.98	77.553
1597.52	77.4472
1599.06	77.4037
1600.61	77.5269
1602.15	77.317
1603.69	77.3833
1605.23	76.2005
1606.77	75.8974
1608.31	74.2566
1609.85	72.4776
1611.39	70.7802
1612.93	69.1115
1614.46	69.431
1616	69.4318
1617.54	69.7254
1619.08	70.4667
1620.61	70.7537
1622.15	72.2333
1623.69	72.5584
1625.23	73.605
1626.76	74.8391
1628.3	75.5299
1629.83	77.0072
1631.37	77.2048
1632.9	78.842
1634.44	79.9833
1635.97	80.7235
1637.51	81.85
1639.04	83.5782
1640.57	85.2572
1642.11	86.4066
1643.64	87.9996
1645.17	88.9177
1646.71	90.2051
1648.24	91.5673
1649.77	91.6757
1651.3	92.6004
1652.83	93.8362
1654.36	94.1987
1655.89	94.4953
1657.42	93.9404
1658.96	94.2938
1660.48	93.9441
1662.01	93.3231
1663.54	92.6577
1665.07	91.8614
1666.6	90.7387
1668.13	88.391
1669.66	87.1048
1671.19	85.2451
1672.71	82.3027
1674.24	80.6572
1675.77	78.064
1677.29	75.1465
1678.82	72.0852
1680.35	68.7659
1681.87	65.3048
1683.4	61.614
1684.92	57.2955
1686.45	54.8248
1687.97	52.2265
1689.5	50.2282
1691.02	49.1416
1692.54	46.022
1694.07	43.8727
1695.59	41.1377
1697.11	38.7276
1698.64	36.0916
1700.16	34.0529
1701.68	32.0769
1703.2	29.7912
1704.72	28.0468
1706.25	26.594
1707.77	24.7461
1709.29	24.0059
1710.81	22.4951
1712.33	21.1365
1713.85	20.2466
1715.37	18.6815
1716.89	17.5563
1718.41	16.2956
1719.92	15.3266
1721.44	14.2087
1722.96	13.6555
1724.48	13.0672
1725.99	11.7384
1727.51	11.3905
1729.03	11.1809
1730.55	10.7925
1732.06	10.7448
1733.58	9.94041
1735.09	9.55874
1736.61	9.14714
1738.13	9.1097
1739.64	9.02252
1741.15	8.45498
1742.67	6.81639
1744.18	6.33334
1745.7	6.68471
1747.21	5.95819
1748.72	5.18572
1750.24	4.9021
1751.75	4.14214
1753.26	3.72263
1754.77	3.4894
1756.29	2.59963
1757.8	2.02171
1759.31	1.38497
1760.82	1.27954
1762.33	1.63525
1763.84	1.16139
1765.35	1.45568
1766.86	1.44195
1768.37	1.37877
1769.88	1.33709
1771.39	1.56766
1772.9	1.03033
1774.4	0.920738
1775.91	1.5016
1777.42	1.17019
1778.93	1.86036
1780.44	2.63702
1781.94	2.89035
1783.45	3.01812
1784.96	2.7378
1786.46	2.71204
1787.97	2.78514
1789.47	2.86873
1790.98	2.63404
1792.48	2.65628
1793.99	2.12809
1795.49	1.59471
1797	1.27489
1798.5	1.54614
1800.01	1.44719
1801.51	1.34367
1803.01	1.5384
1804.51	1.14954
1806.02	0.907073
1807.52	0.983238
1809.02	0.657961
1810.52	0.235084
1812.02	0.154985
1813.52	-0.275859
1815.02	-0.586437
1816.53	-1.04462
1818.03	-1.19297
1819.52	-0.619277
1821.02	-0.606074
1822.52	-0.908289
1824.02	-0.696299
1825.52	-0.230964
1827.02	0.192304
1828.52	0.219928
1830.02	0.492095
1831.51	0.58319
1833.01	0.934391
1834.51	1.3898
1836.01	1.22035
1837.5	1.66159
1839	2.2111
1840.49	2.29381
1841.99	2.26894
1843.49	2.42794
1844.98	2.59883
1846.48	3.19984
1847.97	2.77696
1849.47	2.95764
1850.96	2.73065
1852.45	2.05044
1853.95	2.9204
1855.44	2.90767
1856.93	2.04307
1858.42	2.01745
1859.92	2.51152
1861.41	2.979
1862.9	3.12883
1864.39	3.1996
1865.88	3.24775
1867.38	3.85074
1868.87	3.64969
1870.36	3.80863
1871.85	4.24492
1873.34	4.50733
1874.83	4.49562
1876.32	4.86585
1877.81	5.43767
1879.29	5.30238
1880.78	6.04908
1882.27	6.40077
1882.53	6.23763
1884.03	6.87768
1885.52	7.14516
1887.01	8.40648
1888.51	9.45719
1890	9.03432
1891.5	8.84
1892.99	9.20128
1894.48	9.86507
1895.97	10.2743
1897.47	9.89455
1898.96	10.037
1900.45	10.2826
1901.94	10.8165
1903.43	11.0345
1904.92	11.047
1906.41	10.8984
1907.9	11.2696
1909.39	10.6744
1910.88	10.938
1912.37	10.8616
1913.86	10.8671
1915.35	10.9527
1916.84	10.529
1918.33	10.495
1919.81	9.90137
1921.3	9.11562
1922.79	9.02326
1924.28	8.34364
1925.76	8.37943
1927.25	8.64706
1928.73	7.4446
1930.22	7.66752
1931.71	8.16076
1933.19	8.2849
1934.68	8.10395
1936.16	7.85392
1937.65	7.62925
1939.13	7.56799
1940.62	7.49948
1942.1	7.00685
1943.58	7.4669
1945.07	7.66547
1946.55	7.6586
1948.03	8.24033
1949.51	8.1091
1951	8.453
1952.48	8.78094
1953.96	9.10585
1955.44	9.26327
1956.92	9.66626
1958.4	9.62539
1959.88	9.83777
1961.36	10.3858
1962.84	9.51796
1964.32	8.56311
1965.8	8.59425
1967.28	9.06061
1968.76	8.74603
1970.24	8.05766
1971.72	7.87471
1973.2	8.64595
1974.67	9.31554
1976.15	9.26833
1977.63	9.15348
1979.1	8.3707
1980.58	8.26298
1982.06	8.73156
1983.54	8.28006
1985.01	9.3318
1986.49	9.81336
1987.96	10.0893
1989.44	10.2374
1990.91	10.3219
1992.39	10.7406
1993.86	10.6313
1995.33	10.997
1996.81	10.9411
1998.28	10.7382
1999.75	11.2649
2001.23	11.2963
2002.7	11.469
2004.17	12.5752
2005.65	12.6588
2007.12	12.9693
2008.59	13.4102
2010.06	13.8947
2011.53	14.2785
2013	14.2861
2014.47	14.339
2015.94	14.5919
2017.41	14.4799
2018.88	15.079
2020.35	15.2733
2021.82	15.6916
2023.29	15.7119
2024.76	16.218
2026.23	16.3188
2027.69	16.5007
2029.16	16.6888
2030.63	16.5555
2032.1	16.4687
2033.56	16.7302
2035.03	16.2958
2036.5	15.6172
2037.96	15.651
2039.43	15.7787
2040.89	16.3949
2042.36	15.8976
2043.83	16.3872
2045.29	16.1965
2046.75	16.0862
2048.22	15.6365
2049.68	15.4113
2051.15	15.392
2052.61	15.202
2054.07	15.29
2055.54	15.6663
2057	16.0147
2058.46	16.4339
2059.92	16.1953
2061.39	16.639
2062.85	16.6375
2064.31	16.8082
2065.77	16.638
2067.23	16.7741
2068.69	16.9515
2070.15	17.2235
2071.61	17.2449
2073.07	17.4639
2074.53	17.2062
2075.99	17.5972
2077.45	17.8708
2078.91	17.9578
2080.37	18.0316
2081.82	18.4022
2083.28	18.5927
2084.74	18.5849
2086.2	18.522
2087.65	19.3082
2089.11	19.8007
2090.57	20.3786
2092.02	21.1122
2093.48	21.3095
2094.94	21.7677
2096.39	22.1344
2097.85	22.707
2099.3	23.1806
2100.76	23.6559
2102.21	23.9336
2103.66	24.3115
2105.12	24.5013
2106.57	24.685
2108.03	25.1358
2109.48	25.6426
2110.93	25.8825
2112.38	26.3977
2113.84	26.512
2115.29	26.3055
2116.74	26.7405
2118.19	26.7435
2119.64	26.9177
2121.09	27.2799
2122.54	28.0972
2123.99	28.4801
2125.45	28.4599
2126.89	28.6497
2128.34	29.3234
2129.79	29.7212
2131.24	29.9502
