#Acq. time (s)=	45
#Accumulations=	2
#Range (cm-¹)=	200...3150
#Windows=	2
#Auto scanning=	Off
#Autofocus=	Off
#Macrospot=	Off
#AutoExposure=	Off
#Spike filter=	Multiple accum.
#Delay time (s)=	0
#Binning=	1
#Readout mode=	Signal
#DeNoise=	Off
#ICS correction=	On
#Dark correction=	Off
#Inst. Process=	Off
#Detector Gain=	Best Dynamic Range
#Detector ADC=	20 kHz       
#Detector temperature (°C)=	-69.85
#Instrument=	LabRAM HR Evol
#Detector=	Synapse
#Objective=	x100
#Grating=	600 gr/mm
#ND Filter=	100%
#Laser (nm)=	532 
#Hole=	100.021
#Range=	Auto
#Laser Pol.=	No
#Raman. Pol.=	No
#Laser Pol. (°)=	-0.0007625
#Raman Pol. (°)=	89.9995
#Collection=	Microscope
#StageXY=	Marzhauser
#StageZ=	Marzhauser
#X (µm)=	1967.3
#Y (µm)=	-92.6
#Z (µm)=	425.3
#Full time(mm:ss)=	3:18
#Project=	
#Sample=	
#Site=	
#Title=	Thy_40_11_02_2x_45s_532 nm_x100_100%_600 gr_mm
#Remark=	
#Date=	05.07.2022 09:56
#Acquired=	05.07.2022 09:56:09
#Base:Fit=	10.08.2022 10:00:48
#Base:Fit=	10.08.2022 10:01:07
#Base:Fit=	10.08.2022 10:01:15
#Base:Fit=	10.08.2022 10:01:35
#Base:Sub=	10.08.2022 10:01:52
#Filter:Polynom=	16.08.2022 10:21:53
#AxisType[0]=Intens
#AxisUnit[0]=Cnt
#AxisType[1]=Spectr
#AxisUnit[1]=1/cm
200.43	17.5741
202.244	17.092
204.059	17.8569
205.873	17.9721
207.688	17.561
209.501	17.1408
211.314	17.0483
213.127	16.9882
214.941	15.3709
216.753	14.1527
218.564	12.5935
220.375	12.2756
222.186	11.5335
223.999	11.2804
225.809	10.5635
227.618	8.8262
229.428	8.40133
231.236	7.36479
233.045	7.25506
234.855	6.45156
236.663	6.53697
238.471	6.80122
240.278	6.86412
242.085	5.95999
243.891	5.89438
245.698	4.97233
247.503	4.07546
249.309	2.95593
251.116	1.1714
252.921	2.26667
254.725	2.10105
256.529	1.46377
258.333	1.04677
260.136	1.51631
261.939	1.86527
263.742	2.29846
265.544	3.45548
267.346	4.24523
269.148	4.4966
270.949	4.60859
272.75	4.16946
274.55	4.48046
276.351	4.32513
278.15	5.36039
279.95	4.04841
281.749	3.87784
283.548	5.3919
285.346	6.52121
287.144	7.42031
288.942	8.97706
290.739	9.63348
292.536	9.60358
294.333	9.93758
296.129	9.43026
297.925	10.0709
299.721	9.84053
301.514	10.2161
303.309	10.0958
305.104	10.2199
306.898	12.24
308.692	12.4393
310.486	12.7011
312.279	12.3785
314.072	11.5242
315.862	11.0137
317.654	11.0383
319.446	11.7821
321.238	11.0291
323.029	11.0308
324.819	10.5876
326.608	10.0038
328.398	10.4574
330.188	9.80618
331.977	9.85978
333.766	9.79086
335.553	9.11034
337.341	8.84251
339.129	8.82601
340.917	7.9546
342.704	7.86335
344.489	6.02869
346.275	4.38586
348.062	4.39235
349.845	6.12647
351.631	6.15863
353.416	7.11631
355.201	6.26019
356.984	5.78431
358.768	5.77885
360.552	4.95715
362.333	4.87974
364.116	5.04089
365.899	5.09839
367.68	5.9782
369.462	5.92204
371.243	6.78214
373.023	9.06516
374.804	8.83577
376.585	8.51992
378.363	8.42274
380.143	8.56345
381.923	8.05322
383.7	8.5443
385.479	7.40526
387.256	8.35501
389.034	8.28503
390.812	9.11121
392.588	9.33855
394.365	9.2321
396.14	9.84551
397.916	9.28963
399.691	8.95329
401.467	8.98215
403.24	9.27014
405.015	10.5188
406.788	11.1998
408.563	11.0428
410.335	11.179
412.109	11.9363
413.88	11.8949
415.654	12.3996
417.424	14.1587
419.197	14.0244
420.967	14.6346
422.739	14.1719
424.508	14.3463
426.279	14.5455
428.048	15.7213
429.819	15.6953
431.587	16.0158
433.356	16.1799
435.124	16.0747
436.891	17.0256
438.66	18.0756
440.426	17.7271
442.194	17.1574
443.96	15.8287
445.725	15.7174
447.492	16.1631
449.257	17.1393
451.021	18.0199
452.787	18.5917
454.551	19.683
456.314	21.1855
458.079	21.1964
459.842	22.0447
461.604	22.473
463.368	21.8203
465.13	21.4688
466.891	22.3869
468.654	22.6637
470.415	22.4932
472.175	22.737
473.935	22.4721
475.696	23.3868
477.456	23.6792
479.215	24.6898
480.973	26.6864
482.733	27.1977
484.491	28.2171
486.249	27.5912
488.006	27.1748
489.765	28.4961
491.522	29.7279
493.278	29.8818
495.034	29.4038
496.789	29.9311
498.544	30.4929
500.301	31.3539
502.056	32.0372
503.81	32.0003
505.564	31.967
507.317	31.5955
509.071	31.4266
510.825	31.0701
512.578	30.8878
514.33	30.7211
516.082	29.9685
517.833	29.051
519.585	28.7167
521.335	28.519
523.086	28.684
524.836	28.3133
526.586	28.0763
528.335	26.9258
530.085	26.4224
531.835	26.3466
533.584	26.6047
535.332	27.4449
537.08	27.5152
538.827	27.0547
540.574	27.563
542.321	26.7928
544.068	26.5418
545.814	26.1945
547.56	26.2235
549.305	24.8519
551.05	25.2208
552.795	25.0183
554.54	25.9527
556.282	25.2163
558.025	25.3415
559.769	25.2418
561.512	23.872
563.255	23.3459
564.997	21.9544
566.739	21.9641
568.481	21.418
570.223	19.0036
571.964	17.73
573.705	16.3404
575.443	16.3498
577.183	17.4467
578.923	16.9385
580.663	16.4363
582.402	16.045
584.141	16.8212
585.879	15.8773
587.615	15.539
589.353	13.7832
591.09	12.1638
592.828	12.0061
594.564	11.1079
596.299	10.5064
598.035	10.3155
599.771	10.0352
601.506	10.0543
603.242	10.3772
604.974	11.2408
606.709	12.8976
608.443	12.9602
610.177	12.6252
611.908	12.0276
613.642	12.6945
615.374	12.6658
617.105	13.5978
618.837	14.8436
620.569	15.3019
622.3	16.473
624.03	17.8201
625.761	18.6288
627.491	20.3036
629.219	20.3602
630.949	22.2198
632.677	23.7333
634.406	25.0663
636.135	25.2492
637.861	26.6464
639.59	26.9691
641.318	27.7653
643.043	27.9664
644.77	29.1274
646.495	28.3184
648.222	27.9552
649.948	28.2476
651.672	28.5301
653.398	29.7299
655.121	29.3292
656.846	29.4099
658.569	30.0299
660.293	31.5909
662.015	32.6586
663.738	32.9822
665.46	33.1588
667.183	32.8449
668.903	33.0039
670.626	32.7857
672.346	32.3348
674.067	33.0471
675.787	32.8396
677.508	33.5351
679.226	33.7472
680.947	33.9372
682.665	35.2409
684.385	35.9584
686.102	36.7418
687.821	37.912
689.538	39.0368
691.254	40.7909
692.972	41.9537
694.688	41.619
696.406	42.9198
698.121	44.2608
699.835	45.9926
701.552	47.1034
703.266	48.5937
704.98	50.3031
706.695	50.2712
708.409	52.4725
710.121	53.6924
711.836	54.2585
713.548	56.656
715.26	56.6416
716.973	58.5846
718.685	60.0282
720.396	60.2869
722.108	60.7452
723.818	62.4915
725.528	63.3268
727.238	64.3416
728.949	64.9387
730.658	65.538
732.367	63.9943
734.075	64.5163
735.785	64.5656
737.493	65.4376
739.2	65.919
740.907	67.0945
742.614	68.838
744.322	69.8394
746.028	70.9425
747.734	70.3563
749.439	71.6398
751.144	73.2037
752.849	73.4218
754.555	75.1074
756.26	75.6921
757.963	77.8689
759.667	78.8478
761.37	78.1076
763.073	79.0497
764.775	80.0618
766.477	81.2957
768.179	82.4137
769.883	82.1006
771.584	83.8144
773.285	84.5628
774.986	85.8994
776.686	87.733
778.386	88.8342
780.085	89.3028
781.785	90.3449
783.484	90.0422
785.182	91.1203
786.881	90.7326
788.579	89.8829
790.276	90.7622
791.974	90.7246
793.671	91.685
795.367	91.9535
797.064	92.4604
798.76	92.9493
800.456	91.7554
802.151	92.5586
803.846	92.0816
805.541	91.5209
807.234	90.9237
808.928	90.9647
810.622	90.585
812.315	90.156
814.008	90.3575
815.701	90.976
817.394	91.2109
819.086	92.7542
820.778	93.1667
822.468	93.3126
824.159	94.1426
825.85	94.7161
827.541	93.228
829.231	92.6508
830.921	92.1125
832.609	90.1765
834.298	89.3085
835.987	88.4707
837.676	87.4926
839.364	86.4433
841.051	85.0494
842.738	83.548
844.426	80.7633
846.113	79.9779
847.798	80.3469
849.484	79.2742
851.171	78.2702
852.857	76.9595
854.54	76.0003
856.226	76.3654
857.911	73.7007
859.593	72.422
861.278	71.1574
862.961	68.7085
864.645	66.0449
866.327	64.7584
868.01	62.8152
869.692	62.07
871.373	60.3894
873.055	58.7057
874.735	58.3567
876.416	56.0363
878.097	55.3489
879.776	55.1542
881.457	54.5692
883.135	53.8121
884.815	54.1214
886.495	54.2199
888.172	54.1895
889.851	54.195
891.528	52.9115
893.206	54.0915
894.882	53.9946
896.56	54.1808
898.237	54.9294
899.912	55.4976
901.589	55.8777
903.263	55.2298
904.94	54.8696
906.614	54.6979
908.289	54.8597
909.962	54.4251
911.635	54.0158
913.31	54.2503
914.982	53.5396
916.656	53.3968
918.328	53.0337
920.001	53.0753
921.672	52.9832
923.345	52.0323
925.015	51.1581
926.685	49.6373
928.357	49.0908
930.026	49.5962
931.698	47.9198
933.366	46.9821
935.035	45.1663
936.705	43.2058
938.373	41.2913
940.041	39.0453
941.71	36.3166
943.377	34.5237
945.044	32.9517
946.712	31.6299
948.378	31.1211
950.044	31.2347
951.709	31.6098
953.376	33.1186
955.041	32.1812
956.706	31.2052
958.372	31.9518
960.036	32.2701
961.699	33.2496
963.362	34.3878
965.027	34.2213
966.69	34.7139
968.352	34.5051
970.014	34.4065
971.676	34.939
973.339	35.6396
975	36.8955
976.661	39.2545
978.322	39.1786
979.982	40.6883
981.642	41.3834
983.303	42.8901
984.962	43.9757
986.621	43.8441
988.28	44.9777
989.938	45.672
991.596	47.1202
993.254	47.8846
994.911	47.866
996.57	47.1908
998.227	48.8658
999.884	48.9197
1001.54	48.1917
1003.2	46.8437
1004.85	46.3631
1006.51	45.6293
1008.16	44.5395
1009.82	44.0604
1011.47	43.737
1013.12	42.267
1014.78	41.2021
1016.43	40.2536
1018.08	37.9044
1019.74	36.5095
1021.39	35.7496
1023.04	34.4822
1024.69	33.2796
1026.34	32.5472
1028	33.2109
1029.65	34.2459
1031.3	34.2281
1032.95	35.1898
1034.6	35.3066
1036.25	34.9709
1037.9	33.2844
1039.54	33.6102
1041.19	33.4048
1042.84	33.4285
1044.49	33.2712
1046.14	33.0662
1047.78	32.062
1049.43	32.1052
1051.08	30.3723
1052.72	31.5502
1054.37	30.9431
1056.02	30.9752
1057.66	30.4319
1059.31	29.0925
1060.95	27.8775
1062.6	27.8231
1064.24	27.6345
1065.88	27.7251
1067.53	27.2132
1069.17	27.5517
1070.81	27.6904
1072.45	27.8685
1074.1	28.8877
1075.74	27.5933
1077.38	26.5784
1079.02	27.1933
1080.66	27.8498
1082.3	25.975
1083.94	25.4232
1085.58	23.3824
1087.22	23.936
1088.86	23.9643
1090.5	23.0815
1092.14	22.558
1093.78	21.5917
1095.42	20.9802
1097.05	20.8336
1098.69	19.0165
1100.33	19.0139
1101.96	18.8401
1103.6	19.0254
1105.24	18.4095
1106.87	18.9123
1108.51	19.2974
1110.14	19.1972
1111.78	18.4666
1113.41	18.1926
1115.05	18.1585
1116.68	17.1279
1118.31	16.3915
1119.95	15.3026
1121.58	13.8365
1123.21	12.7119
1124.85	11.7834
1126.48	10.3717
1128.11	9.56517
1129.74	10.2538
1131.37	10.4128
1133	9.74887
1134.63	10.166
1136.26	8.9949
1137.89	8.92083
1139.52	8.28558
1141.15	8.09843
1142.78	7.6516
1144.41	8.67231
1146.04	8.8632
1147.66	9.20755
1149.29	9.74524
1150.92	10.0612
1152.55	8.99479
1154.17	9.24953
1155.8	8.86321
1157.43	7.36271
1159.05	7.48042
1160.68	7.53256
1162.3	6.35594
1163.93	5.92921
1165.55	5.79143
1167.17	5.14966
1168.8	6.08873
1170.42	6.01747
1172.05	5.60326
1173.67	5.08448
1175.29	5.22153
1176.91	5.46093
1178.54	5.12053
1180.16	5.61512
1181.78	6.80082
1183.4	6.64334
1185.02	5.98586
1186.64	5.71004
1188.26	5.99929
1189.88	5.67034
1191.5	5.68066
1193.12	5.28149
1194.74	5.62679
1196.36	5.14067
1197.97	5.82202
1199.59	6.16364
1201.21	7.28998
1202.83	8.51982
1204.44	10.5219
1206.06	11.254
1207.68	14.0096
1209.29	16.6495
1210.91	18.7365
1212.52	19.7294
1214.14	21.2392
1215.75	23.6131
1217.37	26.5524
1218.98	29.0419
1220.59	31.3941
1222.21	33.9673
1223.82	35.9865
1225.43	39.2136
1227.05	41.4108
1228.66	43.749
1230.27	46.0647
1231.88	47.5897
1233.49	49.862
1235.1	52.3202
1236.72	54.5864
1238.33	57.1111
1239.94	59.7076
1241.55	61.755
1243.16	63.825
1244.76	66.5143
1246.37	68.7344
1247.98	71.189
1249.59	73.0418
1251.2	74.495
1252.8	76.2865
1254.41	78.0094
1256.02	80.0082
1257.62	81.6573
1259.23	83.1477
1260.84	85.2418
1262.44	87.3916
1264.05	88.5747
1265.66	88.6418
1267.26	90.1814
1268.86	92.9871
1270.47	94.3024
1272.07	94.8299
1273.67	95.5265
1275.28	96.7003
1276.88	98.265
1278.48	101.206
1280.09	101.552
1281.69	102.259
1283.29	103.04
1284.89	103.543
1286.49	103.815
1288.09	105.269
1289.69	105.828
1291.29	106.842
1292.89	107.286
1294.49	107.939
1296.09	109.059
1297.69	109.535
1299.29	109.55
1300.89	109.403
1302.49	109.744
1304.08	109.629
1305.68	110.867
1307.28	111.807
1308.88	111.878
1310.47	112.769
1312.07	112.675
1313.66	113.34
1315.26	113.702
1316.85	114.045
1318.45	114.071
1320.04	113.846
1321.64	113.481
1323.23	112.832
1324.83	112.626
1326.42	111.278
1328.01	110.981
1329.61	109.612
1331.2	108.486
1332.79	107.325
1334.38	106.826
1335.97	105.462
1337.56	103.651
1339.16	103.038
1340.75	102.064
1342.34	100.118
1343.93	97.6073
1345.52	95.6771
1347.11	94.9397
1348.7	93.7988
1350.29	89.7896
1351.87	87.3821
1353.46	85.16
1355.05	84.0114
1356.64	82.3564
1358.22	82.2266
1359.81	78.9523
1361.4	77.7439
1362.98	76.1452
1364.57	74.2465
1366.16	73.4207
1367.74	72.4455
1369.33	71.9019
1370.91	70.915
1372.5	68.7921
1374.08	68.1236
1375.67	66.7466
1377.25	65.6957
1378.83	63.9518
1380.41	62.757
1382	61.9688
1383.58	61.7696
1385.16	62.8693
1386.74	62.8186
1388.33	62.463
1389.91	62.1272
1391.49	62.0739
1393.07	61.9195
1394.65	61.9959
1396.23	61.7356
1397.81	60.5544
1399.39	60.5317
1400.97	60.0066
1402.55	59.7208
1404.13	60.6935
1405.7	60.7085
1407.28	60.3196
1408.86	59.3143
1410.44	60.1437
1412.01	61.1543
1413.59	61.7501
1415.17	61.8152
1416.74	63.4111
1418.32	64.5635
1419.89	65.4874
1421.47	66.8627
1423.04	69.4154
1424.62	72.4362
1426.19	74.9754
1427.77	77.4284
1429.34	80.3302
1430.91	83.9404
1432.49	86.7823
1434.06	91.2674
1435.63	94.0173
1437.2	97.7827
1438.78	99.0821
1440.35	101.189
1441.92	102.574
1443.49	104.85
1445.06	106.255
1446.63	107.185
1448.2	108.636
1449.77	108.815
1451.34	108.947
1452.91	107.591
1454.48	107.267
1456.05	107.816
1457.62	105.539
1459.18	105.206
1460.75	104.415
1462.32	103.489
1463.89	101.694
1465.45	98.1629
1467.02	95.4616
1468.59	92.3536
1470.15	89.3668
1471.72	85.4468
1473.28	81.086
1474.85	77.0289
1476.41	72.8487
1477.98	69.9604
1479.54	65.9753
1481.1	62.2387
1482.67	58.9022
1484.23	53.3335
1485.79	49.2919
1487.36	46.4314
1488.92	43.9527
1490.48	40.6675
1492.04	38.1255
1493.61	37.1808
1495.17	35.3146
1496.73	33.3881
1498.29	32.6696
1499.85	31.7564
1501.41	31.9852
1502.97	31.5879
1504.53	31.2325
1506.09	30.9918
1507.65	30.586
1509.2	30.4856
1510.76	31.2441
1512.32	32.0956
1513.88	32.6222
1515.43	33.5086
1516.99	33.8244
1518.55	35.1463
1520.1	37.1161
1521.66	39.2614
1523.22	40.425
1524.77	42.7442
1526.33	43.7709
1527.88	44.8693
1529.44	47.1425
1530.99	47.8295
1532.54	50.9647
1534.1	52.8461
1535.65	54.3665
1537.21	57.2967
1538.76	59.0523
1540.31	61.1087
1541.86	63.2141
1543.42	65.6264
1544.97	69.9181
1546.52	72.8306
1548.07	75.3353
1549.62	78.1908
1551.17	81.2036
1552.72	85.0049
1554.27	88.0216
1555.82	91.5557
1557.37	94.7016
1558.92	98.0401
1560.47	99.7234
1562.02	101.737
1563.56	103.851
1565.11	107.005
1566.66	109.783
1568.21	112.45
1569.75	115.099
1571.3	116.817
1572.85	117.676
1574.39	120.44
1575.94	122.109
1577.49	124.042
1579.03	125.97
1580.57	126.075
1582.12	127.534
1583.66	127.879
1585.21	128.739
1586.75	129.397
1588.3	129.633
1589.84	129.495
1591.38	130.427
1592.92	129.957
1594.47	129.777
1596.01	130.101
1597.55	129.3
1599.09	127.026
1600.63	124.948
1602.17	124.132
1603.71	122.222
1605.25	121.644
1606.79	120.451
1608.33	118.394
1609.87	117.276
1611.41	116.425
1612.95	115.381
1614.49	114.41
1616.03	113.795
1617.57	114.171
1619.1	113.62
1620.64	114.553
1622.18	115.396
1623.72	115.96
1625.25	117.406
1626.79	118.637
1628.32	120.226
1629.86	121.288
1631.39	122.049
1632.93	123.717
1634.46	124.113
1636	125.743
1637.53	126.992
1639.07	129.144
1640.6	131.116
1642.13	134.565
1643.67	136.021
1645.2	137.48
1646.73	138.882
1648.26	140.588
1649.8	142.621
1651.33	144.442
1652.86	145.129
1654.39	146.203
1655.92	146.072
1657.45	146.378
1658.98	147.076
1660.51	145.897
1662.04	144.837
1663.57	142.942
1665.1	141.113
1666.63	139.101
1668.16	138.418
1669.68	134.969
1671.21	132.245
1672.74	128.374
1674.27	124.883
1675.79	120.649
1677.32	116.888
1678.85	113.428
1680.37	108.854
1681.9	105.7
1683.42	101.016
1684.95	96.8355
1686.47	92.2696
1688	88.9913
1689.52	84.5917
1691.05	81.072
1692.57	76.4229
1694.09	73.1279
1695.62	68.7751
1697.14	66.6329
1698.66	63.0398
1700.18	59.7381
1701.71	56.2809
1703.23	52.7448
1704.75	49.3852
1706.27	46.771
1707.79	44.6733
1709.31	43.3947
1710.83	41.1792
1712.35	41.3701
1713.87	39.9362
1715.39	38.3902
1716.91	37.4943
1718.43	36.3386
1719.95	34.9111
1721.47	33.4885
1722.99	33.152
1724.5	32.4966
1726.02	31.8618
1727.54	30.8355
1729.06	30.0052
1730.57	29.0692
1732.09	27.7759
1733.61	27.8344
1735.12	26.7209
1736.64	25.6998
1738.15	25.466
1739.67	24.5837
1741.18	23.9558
1742.7	24.2952
1744.21	23.6967
1745.72	21.9484
1747.24	21.8066
1748.75	21.7251
1750.26	21.7296
1751.77	20.5683
1753.29	20.2887
1754.8	20.3808
1756.31	19.7921
1757.82	19.6632
1759.33	18.7811
1760.84	18.6082
1762.36	18.0321
1763.87	18.4647
1765.38	17.7206
1766.89	17.7787
1768.4	16.6875
1769.91	16.9104
1771.41	16.4201
1772.92	16.4686
1774.43	15.4809
1775.94	15.2645
1777.45	15.2237
1778.95	14.9089
1780.46	14.4672
1781.97	14.9228
1783.48	14.9762
1784.98	14.9081
1786.49	14.7064
1787.99	15.221
1789.5	14.4083
1791.01	13.3583
1792.51	13.2498
1794.01	12.7953
1795.52	11.8948
1797.02	11.1959
1798.53	10.9027
1800.03	10.331
1801.53	10.3606
1803.04	9.74846
1804.54	9.65153
1806.04	9.76554
1807.54	9.2823
1809.05	9.53964
1810.55	9.2418
1812.05	9.05052
1813.55	8.81813
1815.05	8.0257
1816.55	8.12411
1818.05	8.47682
1819.55	7.62508
1821.05	7.79546
1822.55	7.21834
1824.05	6.85945
1825.55	6.22028
1827.05	5.53026
1828.55	5.52376
1830.04	4.99771
1831.54	4.3199
1833.04	4.3332
1834.54	4.74794
1836.03	4.9386
1837.53	4.88931
1839.03	5.87421
1840.52	5.78857
1842.02	6.20833
1843.51	6.01005
1845.01	5.9554
1846.5	5.788
1848	5.40564
1849.49	5.11021
1850.99	5.57127
1852.48	5.46957
1853.97	5.53188
1855.47	5.04751
1856.96	5.42632
1858.45	5.36246
1859.94	4.98784
1861.44	4.85474
1862.93	3.85617
1864.42	4.05041
1865.91	3.48716
1867.4	3.0193
1868.89	2.47421
1870.38	2.43285
1871.87	2.13734
1873.36	2.74609
1874.85	3.08477
1876.34	2.94898
1877.83	2.78365
1879.32	2.84022
1880.81	2.89356
1882.3	3.25135
1882.57	3.95592
1884.07	3.83112
1885.56	3.34947
1887.06	2.49919
1888.55	2.24497
1890.04	2.15971
1891.54	1.84508
1893.03	1.20321
1894.52	1.4151
1896.02	1.17812
1897.51	0.951366
1899	0.782999
1900.49	0.526395
1901.98	0.462577
1903.47	0.934873
1904.96	1.60967
1906.45	2.90117
1907.94	3.45038
1909.43	4.66533
1910.92	5.38782
1912.41	6.23564
1913.9	5.76415
1915.39	5.71068
1916.88	5.33955
1918.37	5.38884
1919.85	5.43607
1921.34	5.67517
1922.83	5.83085
1924.32	5.71586
1925.8	5.63152
1927.29	5.76086
1928.78	5.14857
1930.26	5.45041
1931.75	5.15279
1933.23	5.04538
1934.72	4.89994
1936.2	4.87959
1937.69	5.73967
1939.17	4.79194
1940.66	4.74969
1942.14	5.29906
1943.63	5.1557
1945.11	4.7846
1946.59	6.10528
1948.07	6.11848
1949.56	5.81365
1951.04	6.50557
1952.52	6.49421
1954	6.01145
1955.48	5.96672
1956.96	6.03349
1958.45	6.07351
1959.93	5.76603
1961.41	6.21613
1962.89	7.7199
1964.37	8.51483
1965.85	9.14468
1967.32	9.16895
1968.8	9.61138
1970.28	9.22546
1971.76	8.96954
1973.24	9.97132
1974.72	10.5676
1976.19	10.351
1977.67	11.1724
1979.15	11.4198
1980.63	11.2408
1982.1	10.6508
1983.58	10.9895
1985.05	10.466
1986.53	10.0925
1988	9.22402
1989.48	8.38161
1990.95	7.81298
1992.43	7.26083
1993.9	6.87674
1995.38	6.49637
1996.85	5.99928
1998.32	5.4028
1999.8	5.91659
2001.27	5.64698
2002.74	5.37238
2004.22	5.97519
2005.69	5.99988
2007.16	6.01657
2008.63	6.11549
2010.1	6.76088
2011.57	6.07512
2013.04	6.29329
2014.51	6.45509
2015.98	6.12944
2017.45	6.5189
2018.92	6.91651
2020.39	8.10739
2021.86	7.56575
2023.33	7.48924
2024.8	8.33791
2026.27	8.46101
2027.74	9.10345
2029.2	9.98612
2030.67	11.2322
2032.14	12.1348
2033.61	12.448
2035.07	14.2878
2036.54	15.107
2038.01	15.4625
2039.47	15.2539
2040.94	15.2074
2042.4	15.1371
2043.87	15.4128
2045.33	16.1628
2046.8	16.7134
2048.26	16.8078
2049.72	16.5771
2051.19	17.6271
2052.65	17.888
2054.12	17.911
2055.58	18.0889
2057.04	18.3718
2058.5	18.1321
2059.97	17.8873
2061.43	17.586
2062.89	17.7183
2064.35	18.4557
2065.81	19.1495
2067.27	19.8722
2068.73	20.5214
2070.19	21.1298
2071.65	22.2667
2073.11	22.9199
2074.57	23.7893
2076.03	25.0235
2077.49	25.8913
2078.95	26.4139
2080.41	26.8855
2081.87	27.2955
2083.32	27.7153
2084.78	27.5218
2086.24	29.1361
2087.7	30.0759
2089.15	31.3105
2090.61	32.9384
2092.07	34.1574
2093.52	35.3217
2094.98	36.4781
2096.43	38.5231
2097.89	39.7717
2099.34	41.0448
2100.8	42.3949
2102.25	44.133
2103.71	46.1501
2105.16	47.7714
2106.61	48.7735
2108.07	50.569
2109.52	51.3583
2110.97	52.8687
2112.43	54.7537
2113.88	56.832
2115.33	59.3385
2116.78	62.6957
2118.23	65.0204
2119.68	68.0664
2121.13	70.6073
2122.59	73.2919
2124.04	75.81
2125.49	77.7112
2126.94	80.3417
