#Acq. time (s)=	45
#Accumulations=	2
#Range (cm-¹)=	200...3150
#Windows=	2
#Auto scanning=	Off
#Autofocus=	Off
#Macrospot=	Off
#AutoExposure=	Off
#Spike filter=	Multiple accum.
#Delay time (s)=	0
#Binning=	1
#Readout mode=	Signal
#DeNoise=	Off
#ICS correction=	On
#Dark correction=	Off
#Inst. Process=	Off
#Detector Gain=	Best Dynamic Range
#Detector ADC=	20 kHz       
#Detector temperature (°C)=	-69.85
#Instrument=	LabRAM HR Evol
#Detector=	Synapse
#Objective=	x100
#Grating=	600 gr/mm
#ND Filter=	100%
#Laser (nm)=	532 
#Hole=	100.021
#Range=	Auto
#Laser Pol.=	No
#Raman. Pol.=	No
#Laser Pol. (°)=	-0.0007625
#Raman Pol. (°)=	89.9995
#Collection=	Microscope
#StageXY=	Marzhauser
#StageZ=	Marzhauser
#X (µm)=	4750.1
#Y (µm)=	-7736.3
#Z (µm)=	584.25
#Full time(mm:ss)=	3:19
#Project=	
#Sample=	
#Site=	
#Title=	Thy_30_10_07_2x_45s_532 nm_x100_100%_600 gr_mm
#Remark=	
#Date=	30.06.2022 11:52
#Acquired=	30.06.2022 11:52:23
#Base:Fit=	10.08.2022 09:56:48
#Base:Fit=	10.08.2022 09:57:06
#Base:Fit=	10.08.2022 09:57:43
#Base:Fit=	10.08.2022 09:57:50
#Base:Fit=	10.08.2022 09:58:11
#Base:Sub=	10.08.2022 09:58:44
#Filter:Polynom=	16.08.2022 10:22:53
#AxisType[0]=Intens
#AxisUnit[0]=Cnt
#AxisType[1]=Spectr
#AxisUnit[1]=1/cm
200.533	25.1113
202.348	27.3836
204.162	27.7223
205.976	27.4453
207.792	26.0185
209.605	24.9085
211.418	23.9649
213.23	23.0917
215.044	22.2412
216.856	21.9784
218.667	22.027
220.478	22.4736
222.289	21.4081
224.102	19.7813
225.912	18.7662
227.721	17.6727
229.531	16.5777
231.34	14.3067
233.148	13.574
234.956	13.3647
236.766	13.0507
238.574	12.2622
240.381	12.0252
242.188	11.6231
243.994	10.5506
245.801	10.2163
247.606	8.77975
249.412	7.77129
251.217	7.31868
253.024	6.98939
254.828	6.9417
256.632	6.1119
258.436	5.5429
260.239	4.67674
262.042	4.58368
263.845	4.6318
265.647	5.43184
267.449	4.98089
269.25	3.54954
271.052	3.58513
272.852	3.28913
274.653	3.86562
276.453	2.98552
278.253	3.99831
280.052	5.15812
281.852	5.79478
283.65	5.77524
285.449	5.68341
287.247	6.151
289.044	5.2466
290.842	5.41064
292.639	5.10299
294.436	5.70508
296.232	7.18982
298.028	9.0629
299.821	9.72163
301.617	11.0211
303.412	12.2472
305.206	13.1095
307	14.2359
308.794	14.2598
310.588	14.7905
312.381	14.3881
314.172	15.1467
315.964	15.9009
317.756	16.4347
319.548	17.6723
321.34	18.0285
323.131	18.8614
324.921	19.9795
326.71	20.8417
328.5	21.372
330.29	22.1811
332.079	21.6754
333.868	21.734
335.654	21.7787
337.443	21.5615
339.231	21.5453
341.018	21.7271
342.804	21.1184
344.591	20.9712
346.377	20.0101
348.163	19.2445
349.947	18.4117
351.733	17.6707
353.518	17.1469
355.303	16.5322
357.085	15.0407
358.869	14.196
360.653	14.631
362.435	13.6974
364.218	13.5937
366.001	13.9273
367.781	14.0558
369.563	12.951
371.345	11.4659
373.124	11.1638
374.905	10.8829
376.686	11.0411
378.464	10.1589
380.244	10.3882
382.022	10.7499
383.801	10.8125
385.58	11.1172
387.357	10.9395
389.135	10.1923
390.911	9.47963
392.689	9.03537
394.466	8.79919
396.241	8.81328
398.018	8.7272
399.792	9.77177
401.568	9.04168
403.341	9.34712
405.117	8.70284
406.889	9.39842
408.664	10.4137
410.436	10.2684
412.21	10.8871
413.981	11.6364
415.755	11.7891
417.525	11.3801
419.298	11.5783
421.068	10.8753
422.84	10.1897
424.609	10.1657
426.38	9.90368
428.149	9.1764
429.919	8.74308
431.688	8.81033
433.455	8.19217
435.225	7.33393
436.992	6.99307
438.76	7.63324
440.527	6.92047
442.293	6.86565
444.06	6.18181
445.826	5.81665
447.593	6.01922
449.357	6.42266
451.122	6.35777
452.888	6.37149
454.651	6.30327
456.415	5.60278
458.18	5.90688
459.942	6.01579
461.705	6.88799
463.469	7.56002
465.23	7.81447
466.991	7.28037
468.752	7.56765
470.515	7.77308
472.275	7.32194
474.035	6.89548
475.797	6.98916
477.556	7.01115
479.315	6.91314
481.073	7.72053
482.834	8.40662
484.592	8.98115
486.349	10.155
488.106	10.7937
489.863	11.1449
491.622	12.3039
493.378	13.0127
495.134	14.4689
496.889	15.078
498.645	15.6701
500.401	16.0492
502.156	16.1252
503.91	16.5531
505.664	16.6673
507.417	16.916
509.171	16.8517
510.923	16.7176
512.678	17.301
514.43	16.896
516.182	16.8904
517.933	16.8085
519.684	17.4859
521.435	17.3621
523.186	18.7329
524.936	19.1435
526.686	19.7595
528.435	19.1807
530.184	18.8166
531.933	18.5653
533.682	18.7956
535.43	18.4608
537.18	17.6371
538.927	16.6163
540.674	16.1022
542.421	16.4943
544.167	16.4088
545.913	15.5968
547.659	15.233
549.403	14.2441
551.148	13.2766
552.893	12.4498
554.637	11.6691
556.381	10.4627
558.125	10.1618
559.868	9.83287
561.611	8.80809
563.354	8.77528
565.097	8.15336
566.839	7.57378
568.581	7.86921
570.322	7.07951
572.063	6.97126
573.802	6.10234
575.542	5.44287
577.283	4.18977
579.022	3.47768
580.762	3.26755
582.501	2.58973
584.24	2.49537
585.976	1.8917
587.714	1.11494
589.452	-0.31649
591.19	-0.978143
592.927	-1.09114
594.663	-0.84917
596.398	-0.753116
598.134	-0.80178
599.87	-0.498984
601.605	0.393979
603.338	0.778462
605.073	1.40788
606.808	2.24627
608.542	2.94413
610.274	3.25295
612.007	2.9361
613.74	3.80033
615.473	3.24189
617.204	3.08914
618.936	3.72676
620.668	4.15587
622.397	4.64021
624.128	4.55926
625.859	5.15084
627.588	5.81103
629.318	6.45192
631.048	6.2857
632.775	6.99293
634.505	8.31493
636.233	9.41436
637.96	9.74969
639.688	11.2027
641.416	11.8442
643.142	13.2473
644.869	14.1688
646.594	14.5465
648.32	14.7339
650.045	15.5843
651.771	15.9835
653.496	16.4869
655.219	16.1282
656.944	16.478
658.667	16.8205
660.391	16.4719
662.113	17.0675
663.837	17.3836
665.558	18.539
667.281	18.9641
669.002	18.6062
670.724	19.4878
672.444	19.7143
674.166	20.0368
675.885	20.4178
677.606	22.3564
679.325	22.7052
681.045	23.79
682.763	24.2819
684.483	25.8312
686.2	27.0468
687.917	28.83
689.636	29.3599
691.352	30.2772
693.07	31.7011
694.786	32.646
696.501	33.9568
698.219	34.9455
699.933	35.9895
701.65	37.0781
703.364	38.5089
705.078	39.8697
706.793	40.5748
708.506	40.889
710.219	41.5497
711.934	42.8787
713.646	43.89
715.358	46.0049
717.071	47.1154
718.782	49.343
720.493	50.0592
722.204	50.7101
723.916	51.1697
725.626	53.5706
727.336	54.1638
729.045	55.5062
730.756	55.2048
732.464	56.9286
734.173	57.1458
735.881	57.0853
737.59	56.6314
739.297	56.964
741.004	58.1
742.711	58.7464
744.417	59.3318
746.125	59.7198
747.831	61.1435
749.537	61.2533
751.242	62.1238
752.946	62.091
754.651	63.1536
756.357	63.9729
758.061	64.5758
759.764	65.2435
761.467	65.9479
763.17	66.4762
764.872	66.2703
766.575	67.1483
768.276	67.8036
769.978	69.0947
771.679	69.9183
773.382	69.9283
775.083	69.511
776.783	70.3054
778.483	70.9375
780.182	71.2968
781.882	70.7484
783.581	70.8764
785.279	71.8
786.978	72.5499
788.676	72.8521
790.373	72.936
792.071	72.8456
793.768	74.0702
795.464	75.6562
797.161	75.7559
798.857	76.7192
800.552	77.8238
802.248	78.0566
803.941	79.0583
805.636	78.4863
807.33	78.8481
809.024	80.0726
810.718	80.4831
812.412	79.3246
814.105	79.8995
815.798	79.3934
817.49	79.9297
819.183	78.921
820.873	79.7197
822.564	80.4192
824.256	81.5293
825.947	82.5864
827.637	81.7616
829.328	81.3717
831.016	81.3803
832.705	81.1988
834.395	80.4984
836.084	81.2745
837.772	79.9854
839.459	80.4158
841.147	79.2745
842.835	78.6243
844.522	77.6191
846.209	76.5489
847.894	75.167
849.581	73.931
851.267	72.7434
852.953	71.7132
854.637	71.2721
856.322	71.0861
858.007	69.8529
859.689	68.1841
861.374	68.2483
863.058	67.8866
864.739	67.2508
866.423	65.9502
868.106	66.3308
869.787	65.5366
871.469	64.7905
873.151	64.2078
874.831	62.9015
876.512	62.8852
878.193	62.6092
879.872	61.5457
881.553	60.5782
883.231	60.539
884.911	59.4927
886.591	57.9675
888.268	56.6379
889.947	56.2552
891.623	56.1018
893.302	55.3609
894.978	53.7892
896.656	53.6748
898.331	54.1593
900.008	54.2231
901.683	53.9834
903.359	53.3205
905.033	53.4577
906.709	53.2531
908.383	52.5922
910.058	51.748
911.731	50.7662
913.405	51.1082
915.078	51.4983
916.752	50.6428
918.423	50.0985
920.096	49.6976
921.768	49.2927
923.438	50.0244
925.111	48.4579
926.781	47.4392
928.452	46.5359
930.122	45.4283
931.791	43.7369
933.462	43.4099
935.13	43.5245
936.799	43.2769
938.468	43.1085
940.136	41.9142
941.803	41.3722
943.472	40.6201
945.139	40.8864
946.805	39.539
948.473	38.7282
950.139	38.0253
951.804	37.8787
953.471	38.1018
955.136	38.3933
956.801	38.3252
958.465	37.8275
960.131	37.196
961.794	36.4453
963.458	36.5715
965.12	36.6273
966.785	37.2557
968.447	36.8748
970.109	37.8822
971.771	38.4387
973.432	39.5043
975.095	39.4076
976.756	39.8314
978.417	40.67
980.077	42.2456
981.737	41.7218
983.396	41.981
985.057	41.7592
986.716	43.0402
988.375	43.7183
990.033	44.4153
991.691	44.3112
993.349	44.8264
995.006	45.2313
996.663	45.5183
998.32	45.7054
999.976	45.3948
1001.63	44.7549
1003.29	45.2468
1004.95	45.7594
1006.6	44.7283
1008.26	43.6237
1009.91	42.996
1011.56	43.2554
1013.22	43.0579
1014.87	42.4663
1016.53	42.1678
1018.18	41.6005
1019.83	40.248
1021.48	39.5886
1023.14	39.1566
1024.79	38.9845
1026.44	37.0837
1028.09	35.9156
1029.74	35.4306
1031.39	35.7586
1033.04	35.5155
1034.69	35.446
1036.34	35.3075
1037.99	33.6128
1039.64	32.6316
1041.29	31.3907
1042.94	31.0987
1044.58	32.4058
1046.23	32.6575
1047.88	31.9108
1049.52	32.519
1051.17	31.8414
1052.82	31.7954
1054.46	29.6303
1056.11	28.9665
1057.75	27.97
1059.4	27.5472
1061.04	27.5975
1062.69	27.3105
1064.33	26.3858
1065.98	26.8581
1067.62	26.5024
1069.26	24.9586
1070.9	24.0979
1072.55	24.2807
1074.19	23.0763
1075.83	22.5985
1077.47	22.1559
1079.11	21.9636
1080.76	22.4334
1082.4	21.7557
1084.04	21.7795
1085.68	22.8642
1087.32	22.8644
1088.95	22.5019
1090.59	23.1512
1092.23	22.8835
1093.87	24.186
1095.51	24.2945
1097.15	25.5936
1098.78	25.589
1100.42	26.1136
1102.06	26.4087
1103.69	26.8886
1105.33	27.2622
1106.97	26.9984
1108.6	27.5119
1110.24	28.6278
1111.87	29.2159
1113.51	29.6556
1115.14	29.2493
1116.77	29.471
1118.41	29.0932
1120.04	28.7297
1121.67	28.5442
1123.31	28.9219
1124.94	28.9123
1126.57	28.3476
1128.2	27.1865
1129.83	26.4922
1131.47	26.2769
1133.1	24.6366
1134.72	23.8463
1136.36	22.8667
1137.98	23.721
1139.62	23.8997
1141.24	23.6407
1142.87	22.8967
1144.5	21.3459
1146.13	19.6952
1147.76	17.9373
1149.38	16.6194
1151.01	14.9666
1152.64	14.698
1154.27	13.283
1155.89	12.0874
1157.52	11.0827
1159.14	10.496
1160.77	9.59252
1162.39	8.93248
1164.02	8.09952
1165.64	8.2825
1167.27	8.13777
1168.89	7.27223
1170.51	7.43222
1172.14	8.18721
1173.76	8.56609
1175.38	9.42808
1177	10.0101
1178.63	10.3265
1180.25	8.83445
1181.87	9.28236
1183.49	9.80535
1185.11	10.3212
1186.73	10.9396
1188.35	11.9293
1189.97	13.4818
1191.59	14.4218
1193.21	14.8267
1194.83	15.2844
1196.45	16.9464
1198.07	18.0028
1199.68	19.0612
1201.3	19.9945
1202.92	21.0246
1204.53	22.942
1206.15	23.2476
1207.77	24.8048
1209.38	25.8045
1211	27.267
1212.62	28.7829
1214.23	30.9617
1215.84	34.0645
1217.46	35.1829
1219.07	37.5741
1220.69	38.7219
1222.3	39.086
1223.91	39.6348
1225.53	40.4407
1227.14	41.4977
1228.75	42.3677
1230.36	44.2469
1231.97	45.3794
1233.59	47.4581
1235.2	49.1075
1236.81	50.3312
1238.42	50.7706
1240.03	52.3503
1241.64	53.149
1243.25	54.8994
1244.85	56.9576
1246.46	57.9385
1248.07	58.8258
1249.68	60.1004
1251.29	61.6735
1252.9	62.2645
1254.5	63.1935
1256.11	64.4736
1257.72	65.4154
1259.32	66.5942
1260.93	67.3268
1262.54	68.6006
1264.14	69.8362
1265.75	70.8178
1267.35	72.363
1268.96	73.5415
1270.56	73.6711
1272.16	74.4011
1273.77	75.4064
1275.37	75.7984
1276.97	77.1103
1278.57	77.9339
1280.18	79.0783
1281.78	79.6296
1283.38	80.4243
1284.98	80.5329
1286.58	80.519
1288.18	81.2059
1289.78	82.0413
1291.38	82.8506
1292.99	83.4777
1294.58	84.3885
1296.18	83.6618
1297.78	82.7193
1299.38	83.465
1300.98	83.4391
1302.58	83.5075
1304.17	84.6135
1305.77	86.3181
1307.37	87.0898
1308.97	87.6276
1310.56	89.1205
1312.16	89.0463
1313.76	89.5926
1315.35	88.8282
1316.95	88.6693
1318.54	89.2665
1320.14	90.0738
1321.73	89.7644
1323.32	90.3379
1324.92	89.9755
1326.51	88.823
1328.1	88.7423
1329.7	88.0481
1331.29	86.9515
1332.88	86.1493
1334.47	85.5251
1336.07	84.1771
1337.66	83.1059
1339.25	82.0153
1340.84	80.1667
1342.43	77.7874
1344.02	76.4809
1345.61	74.8794
1347.2	73.8979
1348.79	72.2396
1350.37	70.6512
1351.96	68.9667
1353.55	67.4635
1355.14	65.0127
1356.73	64.3885
1358.31	63.3296
1359.9	61.2426
1361.49	59.8229
1363.07	57.5335
1364.66	55.5564
1366.25	55.0839
1367.83	53.5963
1369.42	52.5245
1371	51.2593
1372.59	50.2665
1374.17	49.5142
1375.75	47.7241
1377.34	48.1964
1378.92	48.3589
1380.5	48.7967
1382.09	47.9743
1383.67	48.0255
1385.25	47.7859
1386.83	47.6203
1388.42	46.543
1390	46.1986
1391.58	45.1811
1393.16	45.8102
1394.74	45.0454
1396.32	45.1983
1397.9	45.3548
1399.48	45.0067
1401.06	44.1966
1402.64	44.0327
1404.21	43.4808
1405.79	43.2398
1407.37	44.0193
1408.95	43.7859
1410.53	43.3367
1412.1	44.1932
1413.68	44.0721
1415.26	45.2363
1416.83	46.0164
1418.41	45.752
1419.98	46.4178
1421.56	46.5643
1423.13	48.7026
1424.71	50.3693
1426.28	52.9126
1427.86	54.4894
1429.43	56.2941
1431	58.9538
1432.58	61.4522
1434.15	64.1203
1435.72	67.4949
1437.29	69.6639
1438.87	71.2717
1440.44	73.3209
1442.01	74.8701
1443.58	77.1034
1445.15	78.9365
1446.72	79.1437
1448.29	80.1795
1449.86	80.8306
1451.43	80.9928
1453	81.0316
1454.57	81.0879
1456.14	81.0659
1457.71	80.8042
1459.27	80.1862
1460.84	77.6565
1462.41	76.6861
1463.98	74.2268
1465.54	71.6652
1467.11	68.7526
1468.67	66.7287
1470.24	63.5932
1471.81	60.2093
1473.37	56.7431
1474.94	53.565
1476.5	49.939
1478.07	46.7305
1479.63	43.0829
1481.19	40.3795
1482.76	37.5178
1484.32	34.8077
1485.88	32.0656
1487.45	28.9478
1489.01	26.5884
1490.57	24.1991
1492.13	22.1078
1493.69	20.4946
1495.26	18.6033
1496.82	17.0473
1498.38	16.5803
1499.94	16.2976
1501.5	17.0887
1503.06	16.6076
1504.62	16.7634
1506.17	15.6611
1507.73	16.3896
1509.29	16.527
1510.85	16.0316
1512.41	16.8961
1513.97	17.6001
1515.52	17.832
1517.08	18.2044
1518.64	18.3283
1520.19	18.6488
1521.75	20.2301
1523.31	21.073
1524.86	21.2294
1526.42	22.7227
1527.97	24.1492
1529.52	25.5445
1531.08	26.0157
1532.63	27.4275
1534.19	28.5065
1535.74	30.4783
1537.29	32.0307
1538.85	33.3605
1540.4	35.5642
1541.95	37.1019
1543.5	38.5918
1545.06	40.2556
1546.61	41.3173
1548.16	42.2549
1549.71	44.3135
1551.26	47.2426
1552.81	49.7202
1554.36	52.2544
1555.91	55.013
1557.46	56.3075
1559.01	57.7761
1560.56	59.6831
1562.11	61.9148
1563.65	63.702
1565.2	65.5849
1566.75	67.2968
1568.29	68.8318
1569.84	70.7633
1571.39	71.6321
1572.94	73.2767
1574.48	75.0257
1576.03	76.2018
1577.57	77.0694
1579.12	77.4926
1580.66	77.0401
1582.21	77.6259
1583.75	78.2465
1585.3	79.1223
1586.84	79.2904
1588.38	79.2369
1589.93	79.8874
1591.47	79.6581
1593.01	78.3839
1594.55	77.3675
1596.1	76.4668
1597.64	76.0527
1599.18	74.946
1600.72	73.0847
1602.26	71.4921
1603.8	71.3794
1605.34	70.4327
1606.88	69.5762
1608.42	69.0537
1609.96	69.3616
1611.5	69.0518
1613.04	69.3229
1614.58	68.5849
1616.12	67.3597
1617.65	66.7202
1619.19	66.2672
1620.73	66.1278
1622.27	66.6394
1623.8	67.1628
1625.34	68.354
1626.87	70.211
1628.41	71.4577
1629.95	71.7693
1631.48	71.7912
1633.02	72.015
1634.55	72.2184
1636.09	73.0505
1637.62	74.579
1639.15	76.1094
1640.69	77.4257
1642.22	78.8252
1643.76	80.221
1645.29	81.3676
1646.82	82.6833
1648.35	85.1988
1649.88	86.6357
1651.42	88.0168
1652.95	88.451
1654.48	89.624
1656.01	90.3018
1657.54	91.0625
1659.07	91.8585
1660.6	91.8153
1662.13	91.6837
1663.66	91.6202
1665.19	90.0841
1666.72	89.0631
1668.24	86.938
1669.77	85.3661
1671.3	82.6773
1672.83	80.2506
1674.35	77.401
1675.88	75.8575
1677.41	73.457
1678.93	70.1912
1680.46	67.6777
1681.99	65.4748
1683.51	62.4261
1685.04	59.6837
1686.56	55.7992
1688.09	52.3974
1689.61	49.2424
1691.13	45.5455
1692.66	42.2343
1694.18	39.6172
1695.71	37.0757
1697.23	34.4862
1698.75	31.5641
1700.27	28.8214
1701.8	26.4491
1703.32	23.4172
1704.84	20.7517
1706.36	17.4191
1707.88	15.4517
1709.4	13.2557
1710.92	11.3082
1712.44	10.1226
1713.96	9.37085
1715.48	8.62488
1717	7.56435
1718.52	6.76402
1720.04	6.20865
1721.56	5.5995
1723.07	5.51393
1724.59	5.75006
1726.11	5.13476
1727.63	5.31914
1729.14	4.88738
1730.66	4.25415
1732.18	3.13043
1733.69	3.11896
1735.21	3.09229
1736.72	3.07038
1738.24	3.67085
1739.75	2.98059
1741.27	2.39068
1742.78	2.27193
1744.3	2.13087
1745.81	2.38627
1747.32	1.83623
1748.84	2.08636
1750.35	2.40228
1751.86	2.05064
1753.37	0.886462
1754.89	0.484691
1756.4	0.876732
1757.91	1.0237
1759.42	0.391635
1760.93	0.0220707
1762.44	-0.418463
1763.95	-0.480774
1765.46	-0.830306
1766.97	-0.770356
1768.48	-0.962385
1769.99	-0.829653
1771.5	-0.909867
1773.01	-0.989368
1774.52	-1.44471
1776.03	-1.63566
1777.53	-1.18764
1779.04	-1.2557
1780.55	-0.564791
1782.06	-0.979308
1783.56	-0.471026
1785.07	-0.898546
1786.57	-0.614459
1788.08	-0.342922
1789.59	-0.757032
1791.09	-0.536749
1792.6	-0.108496
1794.1	0.0451053
1795.6	0.483191
1797.11	0.807393
1798.61	0.758956
1800.12	0.794071
1801.62	0.296526
1803.12	-0.118582
1804.63	0.0254662
1806.13	-0.121958
1807.63	0.0313133
1809.13	0.906891
1810.63	0.900899
1812.14	1.23768
1813.64	1.73802
1815.14	1.34471
1816.64	1.76045
1818.14	2.19408
1819.64	2.7194
1821.14	3.5074
1822.64	3.42797
1824.14	2.6865
1825.63	3.0767
1827.13	2.77503
1828.63	3.12378
1830.13	3.32943
1831.63	3.61393
1833.12	4.09074
1834.62	4.44946
1836.12	4.43581
1837.62	4.52398
1839.11	4.437
1840.61	4.987
1842.1	5.35766
1843.6	5.8417
1845.09	6.21817
1846.59	6.72567
1848.08	7.33595
1849.58	7.29924
1851.07	7.72744
1852.57	8.34247
1854.06	8.5346
1855.55	8.359
1857.04	7.66669
1858.54	7.43012
1860.03	7.37875
1861.52	8.39349
1863.01	8.50946
1864.5	8.86165
1866	9.29785
1867.49	9.00039
1868.98	9.23212
1870.47	9.5464
1871.96	9.07971
1873.45	8.84374
1874.94	9.31355
1876.43	9.11739
1877.92	9.56601
1879.41	9.372
1880.89	9.3856
1882.38	9.32569
1882.48	9.56566
1883.97	10.3109
1885.47	10.9413
1886.96	11.0712
1888.46	10.9804
1889.95	11.6279
1891.44	12.1502
1892.94	13.1183
1894.43	12.7865
1895.92	12.3411
1897.41	12.3235
1898.9	12.7083
1900.4	12.5407
1901.89	12.2753
1903.38	12.1772
1904.87	11.6175
1906.36	12.1049
1907.85	11.1645
1909.34	11.4082
1910.83	11.49
1912.32	12.2158
1913.81	12.5831
1915.29	12.8826
1916.78	13.1426
1918.27	13.109
1919.76	12.8652
1921.25	12.3283
1922.74	11.8734
1924.22	12.3054
1925.71	11.9941
1927.2	11.7211
1928.68	10.7013
1930.17	11.0873
1931.65	11.4461
1933.14	11.8318
1934.63	12.1068
1936.11	11.5851
1937.59	11.4188
1939.08	11.8234
1940.56	12.0295
1942.05	12.2103
1943.53	12.0628
1945.01	11.657
1946.5	11.8094
1947.98	11.6464
1949.46	11.3772
1950.94	12.0634
1952.43	11.7768
1953.91	12.4471
1955.39	12.397
1956.87	12.999
1958.35	13.4498
1959.83	13.7172
1961.31	13.456
1962.79	13.206
1964.27	13.5638
1965.75	13.49
1967.23	13.5035
1968.71	12.7521
1970.19	12.6366
1971.67	12.3927
1973.14	12.0461
1974.62	12.0936
1976.1	12.4822
1977.58	12.9648
1979.05	13.1975
1980.53	14.1077
1982.01	13.6917
1983.48	14.766
1984.96	15.0104
1986.43	15.8087
1987.91	15.739
1989.38	15.5734
1990.86	15.3813
1992.33	15.4675
1993.81	14.9885
1995.28	15.3611
1996.76	15.617
1998.23	15.5874
1999.7	15.0548
2001.18	15.0416
2002.65	14.86
2004.12	15.7751
2005.59	15.7291
2007.06	16.1558
2008.54	16.2427
2010.01	16.0981
2011.48	16.6168
2012.95	17.0778
2014.42	16.3996
2015.89	16.1139
2017.36	15.9093
2018.83	16.3543
2020.3	16.8217
2021.77	17.379
2023.24	17.9585
2024.71	18.1588
2026.17	17.8843
2027.64	17.7763
2029.11	17.6737
2030.58	17.3431
2032.04	17.1612
2033.51	17.5949
2034.98	17.1466
2036.45	17.1098
2037.91	17.4015
2039.38	16.9802
2040.84	17.1001
2042.31	16.8781
2043.77	17.2691
2045.24	17.6939
2046.7	18.584
2048.17	19.6603
2049.63	20.0794
2051.1	20.5049
2052.56	20.942
2054.02	21.1318
2055.48	21.0584
2056.95	21.9708
2058.41	22.1458
2059.87	22.3864
2061.33	22.028
2062.8	22.1374
2064.26	22.7207
2065.72	22.5544
2067.18	22.7414
2068.64	23.2773
2070.1	23.2829
2071.56	23.0377
2073.02	23.3357
2074.48	24.0093
2075.94	24.8404
2077.4	25.5394
2078.86	26.1609
2080.31	26.8382
2081.77	26.5943
2083.23	26.8269
2084.69	27.7136
2086.14	28.1157
2087.6	28.8799
2089.06	29.8448
2090.52	30.9988
2091.97	32.2604
2093.43	32.2553
2094.88	32.8019
2096.34	32.5074
2097.79	32.9044
2099.25	33.3672
2100.7	33.9705
2102.16	35.0919
2103.61	36.032
2105.07	37.0255
2106.52	38.6426
2107.97	38.8961
2109.43	39.7222
2110.88	41.3662
2112.33	42.1588
2113.78	43.5346
2115.24	45.385
2116.69	46.8629
2118.14	48.5015
