#Acq. time (s)=	45
#Accumulations=	2
#Range (cm-¹)=	200...3150
#Windows=	2
#Auto scanning=	Off
#Autofocus=	Off
#Macrospot=	Off
#AutoExposure=	Off
#Spike filter=	Multiple accum.
#Delay time (s)=	0
#Binning=	1
#Readout mode=	Signal
#DeNoise=	Off
#ICS correction=	On
#Dark correction=	Off
#Inst. Process=	Off
#Detector Gain=	Best Dynamic Range
#Detector ADC=	20 kHz       
#Detector temperature (°C)=	-69.85
#Instrument=	LabRAM HR Evol
#Detector=	Synapse
#Objective=	x100
#Grating=	600 gr/mm
#ND Filter=	100%
#Laser (nm)=	532 
#Hole=	100.021
#Range=	Auto
#Laser Pol.=	No
#Raman. Pol.=	No
#Laser Pol. (°)=	-0.0007625
#Raman Pol. (°)=	89.9995
#Collection=	Microscope
#StageXY=	Marzhauser
#StageZ=	Marzhauser
#X (µm)=	8989.4
#Y (µm)=	-3091.7
#Z (µm)=	-54.55
#Full time(mm:ss)=	3:18
#Project=	
#Sample=	
#Site=	
#Title=	Thy_00_07_10_2x_45s_532 nm_x100_100%_600 gr_mm
#Remark=	
#Date=	28.06.2022 10:44
#Acquired=	28.06.2022 10:44:31
#Base:Fit=	10.08.2022 10:06:44
#Base:Fit=	10.08.2022 10:07:16
#Base:Fit=	10.08.2022 10:07:25
#Base:Fit=	10.08.2022 10:07:44
#Base:Fit=	10.08.2022 10:07:56
#Base:Sub=	10.08.2022 10:08:39
#Filter:Polynom=	16.08.2022 10:26:06
#AxisType[0]=Intens
#AxisUnit[0]=Cnt
#AxisType[1]=Spectr
#AxisUnit[1]=1/cm
200.407	36.1361
202.221	33.286
204.035	32.2616
205.849	31.2698
207.665	29.5603
209.478	28.0716
211.291	26.3609
213.104	25.01
214.916	23.3437
216.73	22.0261
218.541	20.4655
220.352	18.7896
222.163	17.2474
223.973	16.3702
225.785	15.7507
227.595	15.0289
229.404	13.6657
231.213	13.3495
233.022	11.7764
234.83	9.71674
236.638	9.11232
238.448	7.98364
240.255	7.08606
242.062	6.41199
243.868	6.48895
245.675	5.40196
247.48	4.23084
249.286	3.40195
251.091	3.20522
252.896	1.91744
254.702	2.29044
256.506	2.25157
258.31	2.07547
260.113	1.85142
261.916	2.1419
263.719	2.43728
265.521	2.6393
267.323	2.55579
269.125	2.97358
270.926	3.74056
272.727	4.24402
274.527	3.91344
276.328	3.49231
278.127	3.734
279.927	3.75657
281.726	2.20328
283.525	2.59237
285.323	3.75799
287.121	4.85638
288.919	4.16471
290.716	4.14839
292.513	6.1075
294.31	6.49615
296.104	6.94158
297.9	9.13149
299.696	10.2835
301.491	10.235
303.286	10.8967
305.081	10.9203
306.875	11.1449
308.669	11.366
310.463	11.9498
312.256	12.8561
314.047	12.6942
315.839	12.7442
317.631	12.2818
319.423	11.1877
321.215	10.6659
323.006	10.2712
324.794	10.2826
326.585	10.8982
328.375	11.4699
330.165	11.5088
331.954	10.9891
333.741	10.6354
335.53	9.09391
337.318	7.97899
339.106	8.86657
340.894	8.88957
342.679	7.13322
344.466	6.67457
346.253	5.64293
348.039	4.17071
349.823	4.94163
351.608	5.10675
353.393	4.10806
355.176	5.39501
356.961	5.59307
358.745	7.45779
360.529	8.64922
362.31	8.94071
364.093	8.71131
365.876	9.31587
367.657	9.96498
369.439	10.8775
371.221	11.7537
373	13.745
374.781	14.5863
376.56	15.3153
378.34	16.2375
380.12	18.567
381.898	20.197
383.677	20.143
385.456	20.0674
387.233	20.8688
389.011	20.2045
390.787	19.9375
392.565	20.3625
394.34	21.0605
396.117	21.6664
397.894	22.1562
399.668	21.7903
401.444	20.8659
403.217	20.012
404.993	19.1096
406.766	18.5538
408.54	17.9904
410.312	17.7663
412.086	17.8778
413.858	16.7419
415.631	14.6438
417.402	12.325
419.174	10.2095
420.944	8.95872
422.716	8.57816
424.486	7.59929
426.257	7.08012
428.025	6.98932
429.794	5.81196
431.564	5.73544
433.332	6.39489
435.101	6.73049
436.868	6.68354
438.637	7.72276
440.403	7.07735
442.169	7.53772
443.937	9.04759
445.703	9.81288
447.468	11.0232
449.234	10.8225
450.999	11.4455
452.765	12.8755
454.528	13.8655
456.292	15.6751
458.057	16.8996
459.819	18.1166
461.582	18.649
463.344	18.4036
465.107	19.6435
466.868	20.9004
468.629	20.6546
470.392	19.6291
472.152	19.3276
473.912	19.9119
475.672	20.5594
477.433	21.5518
479.192	22.4485
480.951	23.0929
482.709	23.6797
484.469	23.8698
486.226	24.285
487.984	24.8933
489.74	25.8685
491.499	27.0979
493.255	28.2488
495.011	29.583
496.767	30.4146
498.522	31.3994
500.277	31.5485
502.033	31.5874
503.788	31.4128
505.541	32.1936
507.295	34.1043
509.048	34.0521
510.801	33.8168
512.553	33.6631
514.308	33.8096
516.06	34.1061
517.811	34.9574
519.562	34.5638
521.313	33.549
523.063	32.8527
524.814	32.5386
526.563	33.2872
528.313	32.6621
530.062	33.4442
531.811	32.8355
533.559	32.0502
535.308	30.7817
537.055	30.4476
538.803	29.9514
540.55	28.6752
542.297	27.2037
544.043	26.4726
545.789	23.0996
547.535	21.158
549.281	18.4216
551.026	17.3994
552.771	16.2468
554.515	13.9455
556.259	11.9487
558.003	10.9962
559.747	11.3382
561.49	10.5718
563.233	10.1748
564.975	9.74453
566.717	9.05054
568.459	9.15994
570.2	9.60105
571.942	9.60452
573.68	9.74337
575.421	9.52512
577.161	9.88513
578.901	9.92643
580.64	10.5138
582.379	9.88762
584.118	10.8604
585.855	10.668
587.593	9.18697
589.331	8.49001
591.068	7.52281
592.805	6.41961
594.54	6.69175
596.277	6.28408
598.013	5.7319
599.749	6.17216
601.484	6.26737
603.217	5.96132
604.952	4.72787
606.687	4.79181
608.421	5.75389
610.153	6.21377
611.886	6.79731
613.619	7.1616
615.35	6.80559
617.083	7.47353
618.815	7.1632
620.547	6.68633
622.276	6.23225
624.008	5.82681
625.738	5.34402
627.467	5.02155
629.197	4.33283
630.927	4.66627
632.655	5.02689
634.384	5.13327
636.113	5.55658
637.839	6.49618
639.568	6.57015
641.293	7.5545
643.021	8.62003
644.748	9.39732
646.473	10.7386
648.2	10.8367
649.924	11.9482
651.65	12.648
653.376	13.3538
655.099	14.0524
656.824	14.5728
658.546	14.9286
660.271	15.8995
661.993	17.4807
663.716	18.9451
665.438	20.2287
667.161	20.7346
668.881	20.6316
670.604	22.8245
672.324	23.3465
674.045	23.6108
675.765	24.0324
677.486	25.1765
679.204	27.6621
680.925	29.5489
682.643	31.3317
684.361	31.9783
686.08	34.9884
687.797	36.2826
689.516	37.2701
691.232	39.019
692.95	40.449
694.666	41.5761
696.382	42.2063
698.099	42.9993
699.813	43.1714
701.528	43.9033
703.244	42.3362
704.958	41.269
706.673	40.6267
708.387	41.0452
710.099	41.6437
711.814	42.1796
713.526	42.4561
715.238	43.084
716.949	44.7806
718.663	45.4808
720.374	45.9532
722.084	47.2296
723.796	48.6894
725.506	49.8106
727.216	50.7184
728.925	52.1143
730.636	52.5712
732.345	54.3277
734.053	54.6164
735.761	55.5056
737.471	56.5092
739.178	58.1634
740.885	60.4235
742.592	62.8518
744.298	64.7598
746.006	66.883
747.712	69.4944
749.417	72.5273
751.122	75.2629
752.827	76.7156
754.532	79.8635
756.236	82.9883
757.942	83.7694
759.645	85.5475
761.348	87.2886
763.051	90.8224
764.753	93.3356
766.456	93.8383
768.158	95.1913
769.859	95.6383
771.56	96.5206
773.261	95.1314
774.964	94.8973
776.664	95.0114
778.364	93.4369
780.064	92.6317
781.763	91.1291
783.462	88.352
785.16	85.6487
786.859	84.4035
788.557	82.9081
790.255	83.4642
791.952	82.3592
793.649	80.2297
795.346	78.0419
797.042	76.6037
798.738	75.8381
800.434	75.0659
802.127	73.7772
803.823	71.1778
805.517	69.9234
807.212	67.9516
808.906	67.2657
810.6	65.6082
812.293	64.1161
813.987	63.9625
815.68	62.7274
817.372	63.6928
819.064	63.1225
820.754	64.143
822.446	65.8031
824.137	66.7661
825.828	67.1778
827.519	67.4371
829.209	67.3911
830.897	68.6047
832.587	70.184
834.276	70.5685
835.966	70.059
837.654	69.5015
839.341	69.6033
841.029	70.2973
842.717	71.2537
844.404	72.3485
846.091	72.5558
847.776	73.5264
849.463	73.6984
851.149	72.9457
852.833	72.2116
854.519	70.9791
856.204	69.171
857.889	68.2237
859.572	66.8212
861.256	65.2417
862.94	61.949
864.622	60.6613
866.305	59.446
867.988	57.6692
869.669	57.5739
871.351	56.8696
873.033	55.0708
874.713	52.3224
876.395	50.3923
878.074	48.1225
879.755	46.0895
881.435	44.8166
883.114	43.2451
884.794	41.8338
886.471	39.5982
888.15	38.4577
889.829	39.4243
891.506	38.7536
893.184	39.2491
894.861	38.5705
896.538	37.9911
898.214	38.3005
899.891	37.5749
901.566	38.0025
903.242	38.3899
904.916	38.726
906.592	39.0678
908.266	39.7482
909.941	39.8746
911.614	40.2776
913.288	40.3085
914.961	41.4552
916.635	41.7435
918.306	41.3623
919.979	41.6984
921.651	42.4813
923.321	43.571
924.994	44.6282
926.664	44.3168
928.336	43.9626
930.005	43.4683
931.674	44.9389
933.345	44.3083
935.014	42.9251
936.682	41.6491
938.352	40.4674
940.019	39.5373
941.687	38.2425
943.356	36.7521
945.022	36.8125
946.689	36.3111
948.357	36.4347
950.022	35.1558
951.688	34.0474
953.355	33.1625
955.02	31.7836
956.684	30.3909
958.348	28.8019
960.014	26.5392
961.678	23.6704
963.341	22.2411
965.004	23.0309
966.669	23.0277
968.331	22.8327
969.993	22.9038
971.655	23.3872
973.316	24.9329
974.979	24.3173
976.64	24.2565
978.3	22.8039
979.961	22.3737
981.62	22.5415
983.28	21.897
984.941	22.5001
986.6	22.4976
988.259	21.8292
989.917	21.7593
991.575	21.575
993.233	21.0521
994.89	22.1956
996.547	22.8188
998.204	23.4159
999.86	24.6969
1001.52	25.8533
1003.17	27.0198
1004.83	28.8894
1006.49	30.9652
1008.14	32.2214
1009.79	33.6338
1011.45	34.3209
1013.1	36.7011
1014.76	38.3228
1016.41	37.4635
1018.06	37.8459
1019.72	38.2609
1021.37	39.2284
1023.02	40.3512
1024.67	41.215
1026.32	43.0054
1027.97	43.0531
1029.62	42.5712
1031.27	42.3765
1032.92	42.1407
1034.57	41.3242
1036.22	40.4403
1037.87	39.1664
1039.52	37.9315
1041.17	36.1679
1042.82	35.5378
1044.47	35.5073
1046.11	35.6413
1047.76	35.5836
1049.41	33.8166
1051.06	32.4826
1052.7	32.2565
1054.35	31.341
1055.99	30.9181
1057.64	28.1811
1059.28	27.4139
1060.93	25.4501
1062.57	25.0144
1064.22	24.2872
1065.86	22.6292
1067.5	21.767
1069.15	20.7096
1070.79	20.2735
1072.43	20.5639
1074.08	21.4194
1075.72	22.1358
1077.36	23.402
1079	22.9251
1080.64	22.2824
1082.28	23.5266
1083.92	23.5055
1085.56	23.6842
1087.2	24.4825
1088.84	25.4833
1090.48	25.4104
1092.12	25.5994
1093.76	26.6103
1095.39	28.5473
1097.03	28.9074
1098.67	29.0578
1100.31	29.7753
1101.94	31.7406
1103.58	31.465
1105.22	32.2811
1106.85	31.4255
1108.49	31.0439
1110.12	29.9368
1111.76	30.3951
1113.39	29.034
1115.03	28.4495
1116.66	27.0326
1118.29	25.7102
1119.93	25.3937
1121.56	25.0645
1123.19	23.8773
1124.82	24.2892
1126.46	23.7291
1128.09	23.8029
1129.72	23.2651
1131.35	23.0702
1132.98	23.6458
1134.61	23.0679
1136.24	22.4793
1137.87	22.0296
1139.5	22.0639
1141.13	22.7067
1142.76	21.4192
1144.39	21.8231
1146.01	21.9233
1147.64	21.1069
1149.27	20.7612
1150.9	20.1205
1152.53	20.6559
1154.15	20.2399
1155.78	19.57
1157.4	19.2142
1159.03	18.2641
1160.65	15.942
1162.28	15.002
1163.9	14.6414
1165.53	14.1953
1167.15	14.4534
1168.78	14.618
1170.4	13.9138
1172.02	13.3037
1173.65	12.3555
1175.27	12.0374
1176.89	11.7377
1178.51	11.8282
1180.14	11.2511
1181.76	11.1048
1183.38	11.0383
1185	9.92516
1186.62	9.89913
1188.24	9.05207
1189.86	9.59346
1191.48	9.55029
1193.1	9.14106
1194.71	8.56055
1196.33	9.53404
1197.95	9.71821
1199.57	9.9301
1201.19	11.4907
1202.8	11.9537
1204.42	13.8106
1206.04	15.1321
1207.65	16.4148
1209.27	17.6313
1210.88	18.555
1212.5	19.1567
1214.12	20.152
1215.73	21.4286
1217.35	24.9155
1218.96	27.0143
1220.57	29.3406
1222.19	30.7527
1223.8	32.4678
1225.41	34.6907
1227.03	36.4943
1228.64	37.4648
1230.25	39.2578
1231.86	39.9978
1233.47	41.7699
1235.08	41.6583
1236.69	41.848
1238.31	42.7029
1239.92	42.9536
1241.52	43.069
1243.13	42.4692
1244.74	44.3024
1246.35	45.055
1247.96	45.1513
1249.57	44.005
1251.18	43.0871
1252.78	43.7784
1254.39	43.8247
1256	44.2887
1257.6	44.2578
1259.21	44.2312
1260.82	43.5005
1262.42	43.0558
1264.03	43.5194
1265.63	44.4323
1267.24	43.6116
1268.84	42.8998
1270.45	43.3191
1272.05	43.1745
1273.65	43.9972
1275.26	44.3968
1276.86	44.0796
1278.46	44.6602
1280.06	44.8956
1281.67	46.9141
1283.27	48.6329
1284.87	50.3448
1286.47	50.9778
1288.07	53.3898
1289.67	55.7048
1291.27	57.4432
1292.87	59.5795
1294.47	62.5435
1296.07	65.8096
1297.67	69.5354
1299.27	71.7867
1300.87	75.987
1302.47	77.2903
1304.06	80.2453
1305.66	82.0669
1307.26	86.4182
1308.85	88.6919
1310.45	91.3258
1312.05	92.9546
1313.64	95.5729
1315.24	96.9851
1316.83	98.6742
1318.43	101.685
1320.02	102.851
1321.62	104.303
1323.21	105.683
1324.8	107.569
1326.4	106.772
1327.99	106.469
1329.59	106.747
1331.18	107.542
1332.77	107.874
1334.36	108.034
1335.95	108.138
1337.54	107.304
1339.14	106.547
1340.73	105.292
1342.32	104.239
1343.91	103.61
1345.5	103.156
1347.09	100.756
1348.67	100.351
1350.26	99.2882
1351.85	97.5743
1353.44	96.8541
1355.03	95.0836
1356.62	94.0111
1358.2	92.3594
1359.79	91.2695
1361.38	90.7078
1362.96	89.4169
1364.55	88.0544
1366.14	87.3503
1367.72	87.1469
1369.31	85.9285
1370.89	85.2052
1372.48	85.1659
1374.06	84.5729
1375.64	84.1766
1377.23	83.6486
1378.81	81.6766
1380.39	80.6339
1381.98	78.4848
1383.56	77.9913
1385.14	76.5039
1386.72	76.8488
1388.3	75.1129
1389.89	74.9132
1391.47	74.0332
1393.05	72.3745
1394.63	71.3572
1396.21	70.8786
1397.79	70.6421
1399.37	69.1229
1400.95	67.7742
1402.52	66.2982
1404.1	65.8148
1405.68	65.4678
1407.26	66.6833
1408.84	67.3251
1410.42	67.2349
1411.99	67.4105
1413.57	68.3346
1415.15	68.2814
1416.72	67.6984
1418.3	68.1701
1419.87	69.6389
1421.45	70.5953
1423.02	73.0121
1424.6	74.6318
1426.17	75.0356
1427.75	76.6632
1429.32	77.504
1430.89	79.6711
1432.47	81.3421
1434.04	83.2424
1435.61	83.9999
1437.18	85.0948
1438.76	88.0357
1440.33	89.6356
1441.9	91.4872
1443.47	92.932
1445.04	94.1638
1446.61	95.4805
1448.18	95.1911
1449.75	95.9638
1451.32	94.6079
1452.89	94.2758
1454.46	93.0063
1456.03	92.1976
1457.6	90.9005
1459.16	89.3981
1460.73	87.5844
1462.3	84.6502
1463.87	83.7987
1465.43	81.9992
1467	79.6264
1468.56	77.3373
1470.13	74.2903
1471.7	70.6159
1473.26	69.0631
1474.83	66.2813
1476.39	64.0307
1477.96	60.2075
1479.52	57.401
1481.08	55.1346
1482.65	53.272
1484.21	50.8336
1485.77	49.361
1487.34	46.0579
1488.9	42.9476
1490.46	40.8371
1492.02	38.5478
1493.58	36.3793
1495.15	34.7094
1496.71	32.8502
1498.27	31.8873
1499.83	30.299
1501.39	29.704
1502.95	29.6955
1504.51	28.6717
1506.07	28.3874
1507.63	27.9549
1509.18	27.3599
1510.74	27.7789
1512.3	28.103
1513.86	27.1571
1515.41	28.5225
1516.97	29.321
1518.53	29.5835
1520.08	30.0128
1521.64	31.0118
1523.2	31.3766
1524.75	32.3898
1526.31	32.7254
1527.86	34.7287
1529.42	35.4406
1530.97	37.3933
1532.52	37.4956
1534.08	38.6566
1535.63	39.937
1537.19	40.7385
1538.74	43.1445
1540.29	43.4952
1541.84	46.2963
1543.4	47.0423
1544.95	49.3806
1546.5	51.5266
1548.05	53.2772
1549.6	54.6513
1551.15	57.5296
1552.7	58.9095
1554.25	61.9134
1555.8	63.6441
1557.35	66.535
1558.9	69.1637
1560.45	72.1659
1562	73.8959
1563.54	75.4175
1565.09	77.1684
1566.64	77.739
1568.19	79.4469
1569.73	81.5834
1571.28	85.0034
1572.83	86.998
1574.37	90.5722
1575.92	93.7644
1577.47	97.2569
1579.01	100.321
1580.56	103.258
1582.1	103.88
1583.64	105.374
1585.19	106.077
1586.73	108.27
1588.28	110.023
1589.82	111.411
1591.36	113.357
1592.9	114.111
1594.45	114.068
1595.99	113.588
1597.53	113.649
1599.07	113.896
1600.61	112.357
1602.15	111.89
1603.69	111.289
1605.23	109.637
1606.77	108.39
1608.31	106.644
1609.85	105.328
1611.39	103.589
1612.93	101.563
1614.47	98.9143
1616.01	97.7375
1617.55	94.6928
1619.08	93.0554
1620.62	89.7564
1622.16	87.4761
1623.7	84.7938
1625.23	83.3499
1626.77	81.3756
1628.3	80.2446
1629.84	77.9341
1631.37	77.0597
1632.91	74.2059
1634.44	72.0663
1635.98	69.9961
1637.51	68.215
1639.05	66.6226
1640.58	64.8548
1642.11	63.9377
1643.65	62.1902
1645.18	63.0648
1646.71	63.6317
1648.24	64.5901
1649.78	64.1242
1651.31	64.9113
1652.84	63.6323
1654.37	63.6324
1655.9	63.1321
1657.43	62.1727
1658.96	61.6451
1660.49	60.6322
1662.02	60.0627
1663.55	60.2977
1665.08	58.7169
1666.61	57.144
1668.14	56.2033
1669.66	54.8236
1671.19	54.1747
1672.72	52.3997
1674.25	52.0876
1675.77	50.7832
1677.3	49.4854
1678.83	48.3576
1680.35	47.3657
1681.88	46.005
1683.4	44.9183
1684.93	42.8926
1686.45	41.1369
1687.98	38.2205
1689.5	36.235
1691.03	34.268
1692.55	33.0563
1694.07	30.2459
1695.6	26.9738
1697.12	25.2634
1698.64	23.8327
1700.17	22.0217
1701.69	21.1465
1703.21	18.8254
1704.73	17.0424
1706.25	15.2528
1707.77	14.2552
1709.29	12.057
1710.81	10.9802
1712.33	9.94036
1713.85	8.92681
1715.37	7.53875
1716.89	5.99058
1718.41	5.05025
1719.93	4.57732
1721.45	4.37141
1722.97	3.41973
1724.49	2.92424
1726	1.75438
1727.52	1.30433
1729.04	0.917261
1730.55	1.2223
1732.07	1.93382
1733.59	1.43899
1735.1	1.92286
1736.62	1.76682
1738.13	2.42535
1739.65	2.9058
1741.16	3.24768
1742.68	4.13954
1744.19	5.63475
1745.7	5.97498
1747.22	5.75354
1748.73	5.95343
1750.24	6.67421
1751.76	6.28889
1753.27	6.54652
1754.78	6.7588
1756.29	7.0771
1757.8	7.06734
1759.31	6.00522
1760.83	5.72828
1762.34	5.19636
1763.85	5.09995
1765.36	4.80595
1766.87	4.37611
1768.38	4.68677
1769.89	3.72471
1771.39	3.24116
1772.9	4.14266
1774.41	3.91707
1775.92	3.58444
1777.43	3.2179
1778.94	3.10698
1780.44	3.08632
1781.95	3.17687
1783.46	3.23885
1784.96	3.11149
1786.47	3.47671
1787.97	3.07174
1789.48	2.92435
1790.99	3.37004
1792.49	3.64929
1794	3.2298
1795.5	3.41024
1797	2.94692
1798.51	2.97476
1800.01	2.71406
1801.51	3.07127
1803.02	3.24073
1804.52	3.29175
1806.02	3.74568
1807.53	4.40287
1809.03	4.49832
1810.53	5.03538
1812.03	5.09904
1813.53	5.38526
1815.03	5.39762
1816.53	5.55194
1818.03	5.83777
1819.53	5.61413
1821.03	5.41329
1822.53	5.62793
1824.03	5.67908
1825.53	5.6716
1827.03	5.87961
1828.53	6.56626
1830.02	7.04681
1831.52	6.4797
1833.02	5.71901
1834.52	5.19162
1836.01	4.88865
1837.51	5.13975
1839.01	4.74605
1840.5	4.75198
1842	4.59333
1843.49	4.48754
1844.99	3.73954
1846.48	3.79473
1847.98	4.32917
1849.47	4.00885
1850.97	3.67922
1852.46	3.45788
1853.95	4.64785
1855.45	4.33024
1856.94	5.04276
1858.43	5.71502
1859.93	5.60708
1861.42	6.08568
1862.91	6.06225
1864.4	6.56505
1865.89	7.29983
1867.38	7.52758
1868.87	7.43237
1870.36	7.73818
1871.85	7.95428
1873.34	7.85422
1874.83	6.97917
1876.32	6.90453
1877.81	6.86276
1879.3	7.59204
1880.79	7.62098
1882.28	7.93256
1882.52	7.10401
1884.02	7.40245
1885.51	6.98473
1887.01	7.05179
1888.5	6.29903
1889.99	6.26205
1891.49	5.95347
1892.98	6.03873
1894.47	5.49287
1895.97	5.74386
1897.46	5.2695
1898.95	5.32645
1900.44	5.32908
1901.93	4.71883
1903.42	4.22644
1904.91	2.91177
1906.4	2.59757
1907.89	3.05478
1909.38	2.80421
1910.87	2.72324
1912.36	2.09631
1913.85	1.9119
1915.34	1.84412
1916.83	1.63301
1918.32	2.32436
1919.8	2.69604
1921.29	3.38098
1922.78	2.91479
1924.27	3.19541
1925.75	3.15764
1927.24	3.17194
1928.73	2.87505
1930.21	4.07054
1931.7	3.42547
1933.18	3.59959
1934.67	4.53938
1936.15	4.21056
1937.64	4.00338
1939.12	4.61547
1940.61	4.4492
1942.09	4.81301
1943.57	4.78871
1945.06	4.62662
1946.54	4.37636
1948.02	4.35028
1949.51	5.31497
1950.99	5.48226
1952.47	5.61969
1953.95	5.04789
1955.43	5.12769
1956.91	4.71711
1958.4	5.11549
1959.88	4.35495
1961.36	4.00153
1962.84	3.51853
1964.32	3.60118
1965.8	3.78354
1967.27	3.64826
1968.75	3.27299
1970.23	3.87216
1971.71	4.15795
1973.19	4.9038
1974.67	5.00635
1976.14	5.38809
1977.62	6.10074
1979.1	6.61327
1980.58	6.88828
1982.05	7.14844
1983.53	7.18784
1985	7.06503
1986.48	7.46235
1987.95	8.21776
1989.43	8.61981
1990.9	9.011
1992.38	9.40708
1993.85	8.60151
1995.33	8.44979
1996.8	8.19865
1998.27	7.93552
1999.75	8.08139
2001.22	8.78656
2002.69	9.00153
2004.16	8.94625
2005.64	8.38003
2007.11	9.19396
2008.58	9.48642
2010.05	9.32473
2011.52	9.88574
2012.99	10.3249
2014.46	10.2803
2015.93	10.9267
2017.4	10.8115
2018.87	10.8993
2020.34	10.75
2021.81	10.4861
2023.28	10.2133
2024.75	9.64503
2026.22	9.55858
2027.69	8.68361
2029.15	7.5012
2030.62	7.38257
2032.09	6.95619
2033.56	5.92677
2035.02	5.1896
2036.49	4.56569
2037.96	4.24325
2039.42	3.93359
2040.89	4.27446
2042.35	5.23469
2043.82	5.33672
2045.28	5.28014
2046.75	5.43111
2048.21	5.02817
2049.67	5.25875
2051.14	5.33034
2052.6	5.27424
2054.07	4.71098
2055.53	4.73746
2056.99	4.95543
2058.45	4.77512
2059.92	4.35773
2061.38	4.19384
2062.84	3.7034
2064.3	3.737
2065.76	2.90431
2067.22	3.06227
2068.68	3.75132
2070.14	3.86154
2071.6	3.71911
2073.06	4.24982
2074.52	3.68532
2075.98	3.62365
2077.44	4.05328
2078.9	4.41065
2080.36	5.06463
2081.82	5.28003
2083.27	5.02051
2084.73	4.7864
2086.19	4.82968
2087.65	4.93789
2089.1	5.30433
2090.56	5.26919
2092.02	5.13777
2093.47	4.98784
2094.93	5.70338
2096.38	6.09756
2097.84	6.47226
2099.29	6.12267
2100.75	5.24738
2102.2	5.01972
2103.66	6.23457
2105.11	5.55841
2106.56	5.19276
2108.02	5.40357
2109.47	5.34668
2110.92	6.08782
2112.38	6.89721
2113.83	8.32849
2115.28	8.42259
2116.73	7.72395
2118.18	7.74301
2119.63	8.81291
2121.09	9.05179
2122.54	9.22901
2123.99	9.14716
