#Acq. time (s)=	45
#Accumulations=	2
#Range (cm-¹)=	200...3150
#Windows=	2
#Auto scanning=	Off
#Autofocus=	Off
#Macrospot=	Off
#AutoExposure=	Off
#Spike filter=	Multiple accum.
#Delay time (s)=	0
#Binning=	1
#Readout mode=	Signal
#DeNoise=	Off
#ICS correction=	On
#Dark correction=	Off
#Inst. Process=	Off
#Detector Gain=	Best Dynamic Range
#Detector ADC=	20 kHz       
#Detector temperature (°C)=	-69.85
#Instrument=	LabRAM HR Evol
#Detector=	Synapse
#Objective=	x100
#Grating=	600 gr/mm
#ND Filter=	100%
#Laser (nm)=	532 
#Hole=	100.021
#Range=	Auto
#Laser Pol.=	No
#Raman. Pol.=	No
#Laser Pol. (°)=	-0.0007625
#Raman Pol. (°)=	89.9995
#Collection=	Microscope
#StageXY=	Marzhauser
#StageZ=	Marzhauser
#X (µm)=	4765.5
#Y (µm)=	-7731.1
#Z (µm)=	584.55
#Full time(mm:ss)=	3:18
#Project=	
#Sample=	
#Site=	
#Title=	Thy_30_10_19_2x_45s_532 nm_x100_100%_600 gr_mm
#Remark=	
#Date=	30.06.2022 12:49
#Acquired=	30.06.2022 12:49:45
#Base:Fit=	10.08.2022 09:58:11
#Base:Sub=	10.08.2022 09:58:44
#Filter:Polynom=	16.08.2022 10:22:53
#AxisType[0]=Intens
#AxisUnit[0]=Cnt
#AxisType[1]=Spectr
#AxisUnit[1]=1/cm
200.533	7.32043
202.348	9.77085
204.162	9.62656
205.976	9.61669
207.792	9.27345
209.605	8.86181
211.418	8.67606
213.23	8.29849
215.044	8.92684
216.856	8.60618
218.667	9.04733
220.478	9.1509
222.289	9.00678
224.102	9.47604
225.912	9.36645
227.721	10.0326
229.531	10.3652
231.34	10.5437
233.148	10.874
234.956	10.9518
236.766	10.8309
238.574	11.1295
240.381	11.6014
242.188	10.6098
243.994	10.1954
245.801	9.61588
247.606	8.94695
249.412	8.45068
251.217	8.03518
253.024	8.2698
254.828	7.45485
256.632	7.33399
258.436	6.84461
260.239	6.79977
262.042	6.86031
263.845	7.00318
265.647	5.68332
267.449	5.21063
269.25	3.29326
271.052	3.30358
272.852	2.87566
274.653	3.17733
276.453	2.84714
278.253	2.63563
280.052	2.08597
281.852	0.693832
283.65	1.25945
285.449	0.808909
287.247	0.282737
289.044	0.708422
290.842	1.18435
292.639	1.91408
294.436	2.47186
296.232	2.92281
298.028	4.29044
299.821	5.45017
301.617	6.51878
303.412	7.06613
305.206	8.23948
307	8.24166
308.794	9.77727
310.588	9.82759
312.381	9.63178
314.172	10.9069
315.964	11.8001
317.756	12.3888
319.548	13.1076
321.34	13.9806
323.131	14.3995
324.921	15.2868
326.71	16.2426
328.5	16.2174
330.29	16.9746
332.079	17.0105
333.868	17.4311
335.654	17.5371
337.443	18.08
339.231	18.254
341.018	18.7896
342.804	18.8065
344.591	17.7477
346.377	17.7738
348.163	17.2061
349.947	15.5472
351.733	14.8654
353.518	14.3702
355.303	13.7045
357.085	13.0663
358.869	13.3921
360.653	13.1245
362.435	12.9582
364.218	12.2413
366.001	11.1685
367.781	10.7931
369.563	10.4591
371.345	9.63928
373.124	9.7454
374.905	9.27223
376.686	9.90233
378.464	10.0321
380.244	9.96267
382.022	10.4603
383.801	10.1937
385.58	11.3414
387.357	11.6754
389.135	11.2748
390.911	10.9917
392.689	11.0669
394.466	11.3967
396.241	11.3584
398.018	11.8612
399.792	11.2423
401.568	11.0605
403.341	12.3258
405.117	11.7541
406.889	11.4772
408.664	12.7524
410.436	13.4134
412.21	14.1537
413.981	15.5125
415.755	16.5362
417.525	15.7861
419.298	16.9756
421.068	16.6841
422.84	16.2805
424.609	15.6662
426.38	15.7664
428.149	14.9945
429.919	14.4574
431.688	13.7189
433.455	13.2688
435.225	14.2245
436.992	13.4309
438.76	13.5271
440.527	13.4455
442.293	13.5507
444.06	12.3559
445.826	12.2821
447.593	11.6127
449.357	10.8304
451.122	10.3996
452.888	9.53441
454.651	10.1805
456.415	10.7125
458.18	11.0351
459.942	12.37
461.705	12.7928
463.469	13.7488
465.23	14.9689
466.991	15.1341
468.752	16.3233
470.515	17.1836
472.275	18.8098
474.035	19.3176
475.797	18.8922
477.556	19.1083
479.315	20.5276
481.073	21.0955
482.834	21.8009
484.592	22.851
486.349	24.0869
488.106	24.9369
489.863	25.1556
491.622	26.4328
493.378	27.4397
495.134	29.1329
496.889	30.8312
498.645	31.7238
500.401	33.1341
502.156	34.1907
503.91	34.6959
505.664	33.862
507.417	33.7931
509.171	33.4525
510.923	32.6352
512.678	31.8419
514.43	32.4272
516.182	32.5607
517.933	33.3332
519.684	32.9547
521.435	32.4783
523.186	32.4451
524.936	31.7056
526.686	30.9157
528.435	29.9046
530.184	29.5226
531.933	28.0975
533.682	28.136
535.43	26.5435
537.18	26.6581
538.927	25.2906
540.674	24.6935
542.421	24.9731
544.167	24.6804
545.913	23.9256
547.659	22.8608
549.403	21.3397
551.148	20.3444
552.893	18.5827
554.637	17.8613
556.381	15.9631
558.125	14.8176
559.868	14.4161
561.611	11.8931
563.354	10.5686
565.097	9.73977
566.839	9.46134
568.581	8.40273
570.322	8.1263
572.063	7.49306
573.802	5.91276
575.542	5.28917
577.283	4.78694
579.022	5.39973
580.762	4.78134
582.501	4.01296
584.24	3.66144
585.976	3.10143
587.714	2.88363
589.452	2.15571
591.19	1.27448
592.927	0.402325
594.663	-0.092201
596.398	0.358088
598.134	0.134708
599.87	0.714853
601.605	1.62255
603.338	2.61099
605.073	3.13442
606.808	3.01544
608.542	4.56274
610.274	5.39958
612.007	6.26558
613.74	7.17864
615.473	8.0796
617.204	8.52056
618.936	9.11841
620.668	9.82325
622.397	10.7979
624.128	12.5469
625.859	13.266
627.588	14.7298
629.318	15.791
631.048	15.7137
632.775	15.4667
634.505	16.2022
636.233	16.9286
637.96	17.6055
639.688	19.0582
641.416	19.9795
643.142	20.2516
644.869	21.2487
646.594	21.9622
648.32	21.732
650.045	22.8099
651.771	23.7992
653.496	24.3703
655.219	24.63
656.944	24.6277
658.667	24.9827
660.391	25.7971
662.113	27.563
663.837	27.1516
665.558	26.7837
667.281	26.2085
669.002	26.7666
670.724	27.4583
672.444	27.0768
674.166	26.9181
675.885	27.0269
677.606	27.9265
679.325	28.1976
681.045	28.5103
682.763	28.4195
684.483	28.9687
686.2	29.9167
687.917	30.0449
689.636	30.5812
691.352	31.0661
693.07	30.6201
694.786	31.2605
696.501	31.5225
698.219	32.8958
699.933	33.2233
701.65	33.4235
703.364	33.771
705.078	34.0499
706.793	34.9366
708.506	35.4651
710.219	35.9055
711.934	36.1222
713.646	36.2211
715.358	36.2928
717.071	36.5606
718.782	37.8913
720.493	38.6391
722.204	39.4474
723.916	41.1448
725.626	41.9765
727.336	42.3945
729.045	43.7191
730.756	45.419
732.464	46.5326
734.173	47.0026
735.881	47.6978
737.59	49.2378
739.297	50.0293
741.004	51.6196
742.711	53.747
744.417	55.9087
746.125	57.5476
747.831	59.5204
749.537	60.3838
751.242	62.9011
752.946	64.6687
754.651	66.0285
756.357	67.0974
758.061	67.6672
759.764	70.0648
761.467	71.9492
763.17	73.0074
764.872	73.14
766.575	73.4277
768.276	74.7132
769.978	75.772
771.679	76.541
773.382	77.2481
775.083	79.0705
776.783	79.8008
778.483	81.004
780.182	82.0479
781.882	82.8596
783.581	82.7644
785.279	82.4155
786.978	82.7439
788.676	83.053
790.373	83.5437
792.071	83.2126
793.768	83.131
795.464	83.3104
797.161	83.3728
798.857	83.084
800.552	82.8631
802.248	82.5368
803.941	82.3438
805.636	83.0243
807.33	82.3003
809.024	82.1065
810.718	82.0985
812.412	82.2362
814.105	82.9528
815.798	84.0642
817.49	83.0886
819.183	83.9197
820.873	84.7466
822.564	86.3039
824.256	87.2361
825.947	87.5014
827.637	88.3185
829.328	88.6839
831.016	89.2177
832.705	89.0943
834.395	88.7261
836.084	88.8375
837.772	87.862
839.459	87.2637
841.147	86.0113
842.835	85.1867
844.522	84.6027
846.209	82.9971
847.894	81.7371
849.581	80.8577
851.267	79.0792
852.953	78.6626
854.637	76.7929
856.322	75.9328
858.007	74.158
859.689	73.1027
861.374	72.0622
863.058	71.6355
864.739	69.5578
866.423	68.2625
868.106	67.5292
869.787	66.783
871.469	65.7232
873.151	64.7804
874.831	63.7039
876.512	61.1372
878.193	60.7706
879.872	59.7994
881.553	59.0241
883.231	56.9311
884.911	56.162
886.591	54.8582
888.268	53.6154
889.947	53.2495
891.623	51.5116
893.302	53.0212
894.978	53.5525
896.656	54.5136
898.331	55.5609
900.008	55.1303
901.683	54.7803
903.359	54.7957
905.033	54.5734
906.709	55.0319
908.383	55.2488
910.058	54.6746
911.731	55.0355
913.405	54.634
915.078	54.3637
916.752	53.0504
918.423	52.7777
920.096	51.5335
921.768	51.1674
923.438	51.2673
925.111	50.936
926.781	50.5775
928.452	50.4565
930.122	49.7487
931.791	48.944
933.462	48.8124
935.13	47.7621
936.799	48.348
938.468	47.928
940.136	47.7115
941.803	47.0656
943.472	46.8446
945.139	45.8746
946.805	44.5815
948.473	43.9161
950.139	45.0309
951.804	45.8917
953.471	45.208
955.136	46.3499
956.801	46.5953
958.465	46.0087
960.131	46.2061
961.794	47.0975
963.458	47.7871
965.12	48.0138
966.785	48.6417
968.447	50.0393
970.109	50.8917
971.771	52.3655
973.432	53.7411
975.095	55.0207
976.756	56.8608
978.417	57.9918
980.077	59.6598
981.737	59.7498
983.396	60.6342
985.057	62.4755
986.716	62.3822
988.375	63.7231
990.033	64.8533
991.691	64.8771
993.349	65.4254
995.006	65.05
996.663	64.8681
998.32	65.4387
999.976	65.8525
1001.63	66.3746
1003.29	66.7942
1004.95	68.1271
1006.6	67.5363
1008.26	66.9198
1009.91	66.7734
1011.56	67.0791
1013.22	66.0078
1014.87	66.5618
1016.53	66.322
1018.18	65.223
1019.83	64.3692
1021.48	62.6397
1023.14	61.417
1024.79	60.4991
1026.44	59.4897
1028.09	59.9747
1029.74	59.7142
1031.39	59.8044
1033.04	60.082
1034.69	59.3796
1036.34	58.624
1037.99	58.0131
1039.64	56.4984
1041.29	56.1114
1042.94	55.314
1044.58	54.2039
1046.23	53.7782
1047.88	53.0872
1049.52	52.5039
1051.17	51.7526
1052.82	51.5552
1054.46	50.5553
1056.11	48.8855
1057.75	48.4159
1059.4	47.2418
1061.04	45.2126
1062.69	44.4158
1064.33	43.1995
1065.98	41.3005
1067.62	38.5792
1069.26	36.8365
1070.9	36.6087
1072.55	35.5978
1074.19	33.6885
1075.83	33.1315
1077.47	32.1658
1079.11	32.0922
1080.76	31.713
1082.4	30.9288
1084.04	29.3308
1085.68	29.0879
1087.32	28.8739
1088.95	27.4636
1090.59	27.3935
1092.23	28.1031
1093.87	27.88
1095.51	27.4765
1097.15	28.0273
1098.78	27.3898
1100.42	27.0339
1102.06	26.1732
1103.69	26.522
1105.33	28.1139
1106.97	28.1397
1108.6	28.5773
1110.24	28.2437
1111.87	27.7214
1113.51	28.6364
1115.14	28.8426
1116.77	28.342
1118.41	27.2249
1120.04	26.314
1121.67	25.6076
1123.31	24.4903
1124.94	23.3829
1126.57	23.1701
1128.2	22.266
1129.83	21.8724
1131.47	20.7228
1133.1	19.7656
1134.72	18.1676
1136.36	16.7936
1137.98	15.4921
1139.62	14.5194
1141.24	12.4716
1142.87	11.8524
1144.5	11.653
1146.13	10.5213
1147.76	8.73664
1149.38	8.13866
1151.01	8.07266
1152.64	7.07836
1154.27	5.44472
1155.89	4.4971
1157.52	3.97557
1159.14	3.12979
1160.77	2.56076
1162.39	2.0483
1164.02	1.3736
1165.64	1.32584
1167.27	1.62261
1168.89	0.623266
1170.51	0.632874
1172.14	2.18221
1173.76	2.43756
1175.38	2.44921
1177	2.50432
1178.63	2.41899
1180.25	3.54234
1181.87	4.30136
1183.49	5.53333
1185.11	7.63192
1186.73	8.50889
1188.35	7.32388
1189.97	8.77284
1191.59	9.43446
1193.21	10.6529
1194.83	11.1533
1196.45	11.1812
1198.07	11.9691
1199.68	13.2519
1201.3	15.3467
1202.92	17.5906
1204.53	19.4957
1206.15	21.6935
1207.77	22.4429
1209.38	25.0766
1211	27.3879
1212.62	29.4324
1214.23	32.1196
1215.84	34.4189
1217.46	36.9074
1219.07	38.541
1220.69	40.9749
1222.3	43.2084
1223.91	46.7053
1225.53	47.7064
1227.14	48.8713
1228.75	50.438
1230.36	52.8428
1231.97	55.8086
1233.59	57.8553
1235.2	59.9579
1236.81	61.6385
1238.42	64.4995
1240.03	66.8986
1241.64	69.5522
1243.25	71.4462
1244.85	72.7449
1246.46	74.9466
1248.07	76.3071
1249.68	77.8649
1251.29	79.801
1252.9	80.1814
1254.5	80.1801
1256.11	81.5735
1257.72	82.2355
1259.32	84.1666
1260.93	85.2468
1262.54	86.4433
1264.14	87.6092
1265.75	88.8581
1267.35	89.6726
1268.96	90.4072
1270.56	91.8474
1272.16	91.4668
1273.77	92.1448
1275.37	93.3109
1276.97	93.5473
1278.57	94.5495
1280.18	95.5694
1281.78	95.6105
1283.38	96.4954
1284.98	96.6738
1286.58	96.9908
1288.18	97.2152
1289.78	98.3338
1291.38	98.1351
1292.99	98.3671
1294.58	97.7702
1296.18	96.0214
1297.78	95.6755
1299.38	95.8847
1300.98	97.3345
1302.58	97.3034
1304.17	97.2025
1305.77	97.0201
1307.37	97.6009
1308.97	99.8161
1310.56	99.8708
1312.16	100.086
1313.76	99.6107
1315.35	99.9109
1316.95	99.9842
1318.54	100.459
1320.14	99.9174
1321.73	100.187
1323.32	98.5076
1324.92	97.2965
1326.51	96.7138
1328.1	94.9968
1329.7	93.5063
1331.29	91.8664
1332.88	91.3709
1334.47	90.1338
1336.07	88.8858
1337.66	87.9428
1339.25	86.1769
1340.84	84.3289
1342.43	82.7631
1344.02	81.1638
1345.61	79.4808
1347.2	77.2562
1348.79	75.091
1350.37	72.7725
1351.96	70.7892
1353.55	69.9353
1355.14	66.8898
1356.73	63.4346
1358.31	61.3636
1359.9	59.5944
1361.49	57.8959
1363.07	56.4267
1364.66	52.7042
1366.25	50.4171
1367.83	48.7281
1369.42	46.8795
1371	43.7959
1372.59	41.3874
1374.17	39.6003
1375.75	38.5905
1377.34	38.7464
1378.92	38.5961
1380.5	37.7653
1382.09	35.0082
1383.67	33.9921
1385.25	33.9431
1386.83	32.6627
1388.42	32.5799
1390	32.1701
1391.58	32.1489
1393.16	32.0481
1394.74	31.0284
1396.32	29.5721
1397.9	29.3629
1399.48	29.1209
1401.06	28.4978
1402.64	27.9032
1404.21	28.5316
1405.79	28.9976
1407.37	29.2643
1408.95	30.5809
1410.53	32.152
1412.1	34.1383
1413.68	35.4129
1415.26	38.1714
1416.83	40.2895
1418.41	41.7764
1419.98	44.9014
1421.56	47.8631
1423.13	52.3275
1424.71	56.8084
1426.28	61.6696
1427.86	66.427
1429.43	70.6014
1431	75.0453
1432.58	80.0884
1434.15	83.4043
1435.72	87.504
1437.29	91.3242
1438.87	95.0317
1440.44	98.0746
1442.01	99.3745
1443.58	100.625
1445.15	102.857
1446.72	104.095
1448.29	103.798
1449.86	102.609
1451.43	102.877
1453	102.356
1454.57	100.871
1456.14	98.7752
1457.71	96.3084
1459.27	93.3113
1460.84	90.2834
1462.41	88.5308
1463.98	85.5368
1465.54	81.3225
1467.11	77.9011
1468.67	72.9365
1470.24	67.2086
1471.81	61.9468
1473.37	55.6482
1474.94	49.5431
1476.5	45.1401
1478.07	39.4741
1479.63	34.9302
1481.19	30.7072
1482.76	25.5487
1484.32	21.6928
1485.88	18.1991
1487.45	15.3161
1489.01	12.8931
1490.57	10.4995
1492.13	8.23241
1493.69	5.78886
1495.26	3.32023
1496.82	2.51142
1498.38	1.81708
1499.94	1.65894
1501.5	0.964467
1503.06	1.53299
1504.62	1.59628
1506.17	2.67821
1507.73	3.27274
1509.29	2.88119
1510.85	2.98776
1512.41	1.8817
1513.97	2.0044
1515.52	1.88596
1517.08	1.96387
1518.64	2.72912
1520.19	2.20633
1521.75	3.04757
1523.31	3.97622
1524.86	5.17657
1526.42	5.95767
1527.97	6.75871
1529.52	8.41083
1531.08	10.1079
1532.63	11.5149
1534.19	12.691
1535.74	13.0121
1537.29	14.0694
1538.85	15.86
1540.4	18.7388
1541.95	20.2919
1543.5	21.9137
1545.06	23.7757
1546.61	24.7432
1548.16	26.4816
1549.71	28.4457
1551.26	29.8936
1552.81	32.5058
1554.36	36.2429
1555.91	38.6102
1557.46	40.0444
1559.01	41.4631
1560.56	42.8899
1562.11	45.8654
1563.65	47.8031
1565.2	50.2328
1566.75	52.2482
1568.29	53.5695
1569.84	54.3541
1571.39	55.3172
1572.94	57.0688
1574.48	58.5958
1576.03	59.5851
1577.57	61.7827
1579.12	62.8554
1580.66	65.4454
1582.21	67.3193
1583.75	68.8505
1585.3	68.3447
1586.84	68.3006
1588.38	69.794
1589.93	70.4508
1591.47	71.3761
1593.01	72.1534
1594.55	73.8442
1596.1	75.1496
1597.64	74.8424
1599.18	74.7737
1600.72	75.2734
1602.26	76.0542
1603.8	75.825
1605.34	75.3642
1606.88	75.6517
1608.42	75.7265
1609.96	76.1397
1611.5	76.6429
1613.04	76.9301
1614.58	78.3367
1616.12	80.2162
1617.65	81.7787
1619.19	81.5228
1620.73	82.7173
1622.27	84.4796
1623.8	86.2572
1625.34	88.545
1626.87	90.7246
1628.41	92.9987
1629.95	95.707
1631.48	97.9973
1633.02	99.8636
1634.55	101.376
1636.09	104.273
1637.62	107.956
1639.15	111.496
1640.69	114.476
1642.22	117.588
1643.76	120.104
1645.29	122.416
1646.82	125.163
1648.35	128.767
1649.88	131.152
1651.42	132.479
1652.95	135.282
1654.48	136.914
1656.01	137.212
1657.54	138.364
1659.07	137.731
1660.6	136.764
1662.13	135.772
1663.66	134.394
1665.19	133.643
1666.72	130.761
1668.24	128.348
1669.77	125.999
1671.3	122.845
1672.83	117.761
1674.35	113.374
1675.88	109.546
1677.41	105.374
1678.93	100.082
1680.46	95.0302
1681.99	90.251
1683.51	85.5399
1685.04	80.9207
1686.56	76.054
1688.09	70.7342
1689.61	64.8927
1691.13	59.7543
1692.66	55.5003
1694.18	50.9613
1695.71	46.8138
1697.23	43.1479
1698.75	39.806
1700.27	36.6931
1701.8	33.6152
1703.32	30.4152
1704.84	27.8518
1706.36	25.1134
1707.88	23.0234
1709.4	21.414
1710.92	20.1486
1712.44	19.1579
1713.96	18.5769
1715.48	17.6019
1717	16.4929
1718.52	15.3486
1720.04	14.3135
1721.56	12.8524
1723.07	13.0148
1724.59	12.6187
1726.11	11.7036
1727.63	11.9586
1729.14	12.1987
1730.66	10.9987
1732.18	10.5411
1733.69	10.7299
1735.21	10.5814
1736.72	10.7448
1738.24	10.7334
1739.75	9.79314
1741.27	10.2949
1742.78	9.37332
1744.3	9.25812
1745.81	8.93172
1747.32	8.03525
1748.84	7.4546
1750.35	7.21056
1751.86	6.61581
1753.37	5.84142
1754.89	5.26334
1756.4	4.83741
1757.91	4.37943
1759.42	4.14567
1760.93	4.15857
1762.44	3.37479
1763.95	2.54731
1765.46	1.80117
1766.97	1.2715
1768.48	1.18657
1769.99	0.957594
1771.5	0.842048
1773.01	0.527446
1774.52	0.784938
1776.03	0.713982
1777.53	0.503382
1779.04	0.521352
1780.55	0.381624
1782.06	0.884983
1783.56	1.56438
1785.07	1.8595
1786.57	2.07809
1788.08	2.30492
1789.59	2.38094
1791.09	1.86512
1792.6	1.49585
1794.1	1.50222
1795.6	1.49326
1797.11	1.73147
1798.61	2.11798
1800.12	1.84597
1801.62	2.42486
1803.12	2.60642
1804.63	2.68633
1806.13	2.87743
1807.63	3.27861
1809.13	3.5027
1810.63	3.44953
1812.14	3.60909
1813.64	3.42828
1815.14	3.07325
1816.64	3.31077
1818.14	3.21985
1819.64	3.02297
1821.14	3.18256
1822.64	3.08252
1824.14	3.02685
1825.63	3.23659
1827.13	3.63275
1828.63	3.29413
1830.13	2.85974
1831.63	3.12331
1833.12	3.55036
1834.62	4.37634
1836.12	4.01653
1837.62	3.66711
1839.11	3.61339
1840.61	3.79875
1842.1	4.68969
1843.6	5.45087
1845.09	5.60344
1846.59	5.65401
1848.08	6.38365
1849.58	6.73675
1851.07	7.40656
1852.57	8.37558
1854.06	8.87375
1855.55	9.31986
1857.04	10.2185
1858.54	10.4484
1860.03	10.5062
1861.52	10.5943
1863.01	10.5333
1864.5	10.2563
1866	10.0068
1867.49	10.1971
1868.98	10.1652
1870.47	10.1441
1871.96	10.1791
1873.45	10.73
1874.94	11.5333
1876.43	11.7093
1877.92	11.4329
1879.41	11.3047
1880.89	11.654
1882.38	12.0633
1882.48	12.391
1883.97	12.9587
1885.47	13.6989
1886.96	13.613
1888.46	13.2578
1889.95	14.2433
1891.44	14.9895
1892.94	15.2188
1894.43	14.9953
1895.92	15.327
1897.41	15.0374
1898.9	15.3111
1900.4	15.8328
1901.89	15.8563
1903.38	16.278
1904.87	16.9649
1906.36	17.5646
1907.85	18.2249
1909.34	17.8018
1910.83	19.0485
1912.32	19.2411
1913.81	19.9252
1915.29	20.2037
1916.78	19.3227
1918.27	19.4907
1919.76	19.9051
1921.25	19.958
1922.74	19.5466
1924.22	19.8507
1925.71	20.3855
1927.2	20.2434
1928.68	19.8756
1930.17	19.5823
1931.65	18.723
1933.14	18.2963
1934.63	18.296
1936.11	17.8159
1937.59	17.971
1939.08	17.8328
1940.56	18.2084
1942.05	18.0618
1943.53	18.1304
1945.01	18.7413
1946.5	19.7207
1947.98	19.5948
1949.46	18.9721
1950.94	19.823
1952.43	20.0547
1953.91	20.8887
1955.39	20.826
1956.87	21.6658
1958.35	21.5048
1959.83	21.5239
1961.31	20.975
1962.79	20.7992
1964.27	21.7665
1965.75	21.4255
1967.23	21.3494
1968.71	21.1165
1970.19	21.9613
1971.67	21.8116
1973.14	22.0297
1974.62	22.7622
1976.1	22.2743
1977.58	22.5734
1979.05	22.8928
1980.53	22.646
1982.01	22.4377
1983.48	22.3942
1984.96	22.3138
1986.43	20.8362
1987.91	20.7591
1989.38	20.2418
1990.86	20.3012
1992.33	20.9016
1993.81	20.6896
1995.28	20.7164
1996.76	20.7011
1998.23	21.1249
1999.7	21.0223
2001.18	20.6992
2002.65	21.2902
2004.12	21.4639
2005.59	21.3608
2007.06	22.3963
2008.54	22.6342
2010.01	22.4215
2011.48	22.9719
2012.95	23.221
2014.42	23.594
2015.89	23.541
2017.36	24.2896
2018.83	25.0755
2020.3	25.1582
2021.77	25.5032
2023.24	25.9916
2024.71	26.6594
2026.17	26.3696
2027.64	26.3947
2029.11	27.6772
2030.58	27.6521
2032.04	27.5846
2033.51	28.09
2034.98	28.4083
2036.45	28.6984
2037.91	28.8707
2039.38	29.1263
2040.84	29.5241
2042.31	29.2785
2043.77	29.8508
2045.24	29.8554
2046.7	30.0922
2048.17	30.7143
2049.63	30.4382
2051.1	30.2511
2052.56	29.3725
2054.02	29.6015
2055.48	29.7436
2056.95	30.1318
2058.41	29.8855
2059.87	30.6521
2061.33	32.0879
2062.8	32.2942
2064.26	32.9813
2065.72	33.4544
2067.18	34.3726
2068.64	34.9131
2070.1	34.7302
2071.56	35.2702
2073.02	35.7121
2074.48	36.3509
2075.94	37.7077
2077.4	38.2745
2078.86	39.3537
2080.31	40.4115
2081.77	40.9628
2083.23	41.3811
2084.69	42.6501
2086.14	43.6416
2087.6	44.1155
2089.06	44.5294
2090.52	45.6339
2091.97	46.0382
2093.43	47.1881
2094.88	48.4171
2096.34	49.2126
2097.79	50.1622
2099.25	50.9914
2100.7	52.0143
2102.16	53.7862
2103.61	54.4758
2105.07	55.9832
2106.52	58.0122
2107.97	59.4999
2109.43	61.6702
2110.88	63.4592
2112.33	66.2452
2113.78	68.1938
2115.24	70.2158
2116.69	72.6357
2118.14	74.51
2119.59	76.6231
2121.04	78.9718
2122.49	80.5972
2123.94	83.1921
2125.39	85.7441
2126.84	88.4746
2128.29	91.0545
2129.74	93.9211
2131.19	96.7878
