#Acq. time (s)=	45
#Accumulations=	2
#Range (cm-¹)=	200...3150
#Windows=	2
#Auto scanning=	Off
#Autofocus=	Off
#Macrospot=	Off
#AutoExposure=	Off
#Spike filter=	Multiple accum.
#Delay time (s)=	0
#Binning=	1
#Readout mode=	Signal
#DeNoise=	Off
#ICS correction=	On
#Dark correction=	Off
#Inst. Process=	Off
#Detector Gain=	Best Dynamic Range
#Detector ADC=	20 kHz       
#Detector temperature (°C)=	-69.85
#Instrument=	LabRAM HR Evol
#Detector=	Synapse
#Objective=	x100
#Grating=	600 gr/mm
#ND Filter=	100%
#Laser (nm)=	532 
#Hole=	100.021
#Range=	Auto
#Laser Pol.=	No
#Raman. Pol.=	No
#Laser Pol. (°)=	-0.0007625
#Raman Pol. (°)=	89.9995
#Collection=	Microscope
#StageXY=	Marzhauser
#StageZ=	Marzhauser
#X (µm)=	4767.3
#Y (µm)=	-7713.5
#Z (µm)=	584.7
#Full time(mm:ss)=	3:18
#Project=	
#Sample=	
#Site=	
#Title=	Thy_30_10_26_2x_45s_532 nm_x100_100%_600 gr_mm
#Remark=	
#Date=	30.06.2022 13:21
#Acquired=	30.06.2022 13:21:17
#Base:Fit=	10.08.2022 09:58:11
#Base:Sub=	10.08.2022 09:58:44
#Filter:Polynom=	16.08.2022 10:22:53
#AxisType[0]=Intens
#AxisUnit[0]=Cnt
#AxisType[1]=Spectr
#AxisUnit[1]=1/cm
200.533	8.37013
202.348	7.34846
204.162	6.17101
205.976	5.67833
207.792	5.20388
209.605	4.89327
211.418	4.11138
213.23	3.31781
215.044	3.19139
216.856	2.6793
218.667	2.18128
220.478	3.50578
222.289	3.4969
224.102	3.44608
225.912	3.96691
227.721	3.94483
229.531	2.85046
231.34	2.20366
233.148	1.25953
234.956	1.69388
236.766	1.51631
238.574	2.12118
240.381	2.49956
242.188	2.61285
243.994	2.78955
245.801	3.12996
247.606	2.82854
249.412	3.54767
251.217	3.04305
253.024	4.67673
254.828	4.88008
256.632	5.59373
258.436	4.98306
260.239	5.81687
262.042	5.27525
263.845	5.7133
265.647	6.81001
267.449	7.22159
269.25	7.7761
271.052	7.70031
272.852	8.1324
274.653	7.86356
276.453	8.48999
278.253	9.04618
280.052	8.5974
281.852	8.53284
283.65	8.3187
285.449	10.9608
287.247	11.1104
289.044	12.1453
290.842	13.1216
292.639	13.9998
294.436	15.034
296.232	15.2834
298.028	15.9384
299.821	15.9308
301.617	16.4187
303.412	17.555
305.206	18.4302
307	18.5702
308.794	19.4432
310.588	20.6288
312.381	20.3731
314.172	20.6404
315.964	21.1971
317.756	20.597
319.548	20.1024
321.34	20.7172
323.131	21.898
324.921	22.7316
326.71	23.1167
328.5	22.6836
330.29	22.5475
332.079	21.219
333.868	21.3533
335.654	20.6183
337.443	19.9533
339.231	19.6094
341.018	17.8037
342.804	18.2236
344.591	17.131
346.377	16.3732
348.163	15.6453
349.947	15.3149
351.733	14.4895
353.518	13.7105
355.303	12.8125
357.085	12.8422
358.869	12.161
360.653	11.44
362.435	11.2557
364.218	11.8531
366.001	11.7897
367.781	12.3459
369.563	13.0795
371.345	13.9984
373.124	14.9214
374.905	16.5862
376.686	15.3664
378.464	15.4858
380.244	14.9349
382.022	14.957
383.801	14.9263
385.58	15.4016
387.357	15.0027
389.135	14.582
390.911	14.4773
392.689	14.0277
394.466	13.6
396.241	13.8497
398.018	14.374
399.792	14.7514
401.568	14.2008
403.341	13.3689
405.117	13.0075
406.889	11.5172
408.664	11.0435
410.436	11.2726
412.21	10.5787
413.981	9.2165
415.755	8.34194
417.525	7.16844
419.298	6.97233
421.068	7.12666
422.84	7.42438
424.609	6.92085
426.38	6.90112
428.149	6.58886
429.919	6.16046
431.688	7.44962
433.455	7.24469
435.225	7.1199
436.992	7.69765
438.76	7.94608
440.527	8.16678
442.293	7.60641
444.06	8.71925
445.826	10.3176
447.593	10.3124
449.357	11.4364
451.122	11.8377
452.888	13.2555
454.651	13.548
456.415	14.8392
458.18	15.3841
459.942	15.931
461.705	16.8941
463.469	17.0702
465.23	16.8914
466.991	17.3179
468.752	17.2613
470.515	17.4032
472.275	18.3143
474.035	19.1369
475.797	18.4047
477.556	19.099
479.315	19.0451
481.073	19.4678
482.834	20.0618
484.592	20.5396
486.349	20.6624
488.106	20.6457
489.863	19.9239
491.622	19.6162
493.378	19.7668
495.134	20.1405
496.889	20.9902
498.645	21.9354
500.401	21.8767
502.156	22.6967
503.91	23.6126
505.664	23.9136
507.417	24.1835
509.171	25.2186
510.923	23.8316
512.678	24.1532
514.43	24.4636
516.182	24.3789
517.933	24.2925
519.684	25.2478
521.435	24.9127
523.186	24.2909
524.936	24.0359
526.686	24.1983
528.435	24.0063
530.184	23.9908
531.933	24.6019
533.682	24.1626
535.43	23.5826
537.18	23.389
538.927	22.7211
540.674	22.7313
542.421	21.8518
544.167	21.2305
545.913	20.3396
547.659	19.7897
549.403	18.4094
551.148	17.7627
552.893	18.1549
554.637	17.4148
556.381	17.6843
558.125	18.3829
559.868	18.2763
561.611	17.0364
563.354	16.3818
565.097	16.283
566.839	15.4323
568.581	15.7205
570.322	14.0056
572.063	12.741
573.802	12.2461
575.542	10.9856
577.283	11.0651
579.022	10.826
580.762	11.1137
582.501	10.3341
584.24	9.9853
585.976	9.59132
587.714	8.18847
589.452	8.07308
591.19	7.93202
592.927	6.9528
594.663	6.7995
596.398	5.80585
598.134	5.06077
599.87	5.05551
601.605	4.89496
603.338	4.25416
605.073	4.08191
606.808	4.60155
608.542	3.93819
610.274	3.46351
612.007	4.4832
613.74	5.66036
615.473	5.4514
617.204	5.12173
618.936	5.03227
620.668	4.35079
622.397	4.78968
624.128	4.98157
625.859	4.69599
627.588	5.61853
629.318	5.54555
631.048	5.95877
632.775	6.41641
634.505	7.80297
636.233	8.4697
637.96	10.3298
639.688	10.9775
641.416	11.2692
643.142	12.5641
644.869	12.7149
646.594	11.6711
648.32	12.3122
650.045	12.8701
651.771	13.5841
653.496	13.1793
655.219	13.018
656.944	11.866
658.667	12.7872
660.391	13.3449
662.113	12.9918
663.837	14.2129
665.558	13.5966
667.281	14.3852
669.002	14.1788
670.724	15.0657
672.444	15.0625
674.166	16.0839
675.885	16.5741
677.606	16.3968
679.325	15.6668
681.045	15.6621
682.763	15.2824
684.483	15.5963
686.2	15.0663
687.917	15.9153
689.636	16.7169
691.352	17.1823
693.07	17.2038
694.786	17.9454
696.501	18.4278
698.219	19.2116
699.933	19.2
701.65	18.876
703.364	20.1236
705.078	21.1176
706.793	22.1401
708.506	24.1319
710.219	24.633
711.934	24.5163
713.646	25.7259
715.358	26.1947
717.071	27.0528
718.782	28.4601
720.493	30.5167
722.204	31.6154
723.916	33.2199
725.626	34.0829
727.336	35.372
729.045	36.5939
730.756	36.5825
732.464	37.3611
734.173	38.4168
735.881	39.2056
737.59	41.1705
739.297	42.3652
741.004	44.048
742.711	45.783
744.417	48.3288
746.125	49.1918
747.831	51.2555
749.537	54.0267
751.242	56.0342
752.946	58.5549
754.651	59.5441
756.357	62.094
758.061	63.1982
759.764	64.9044
761.467	66.2523
763.17	67.5551
764.872	68.0211
766.575	69.2124
768.276	70.1953
769.978	71.647
771.679	73.5474
773.382	74.4063
775.083	74.3585
776.783	74.2634
778.483	74.6947
780.182	75.9045
781.882	76.1477
783.581	77.3427
785.279	77.7559
786.978	78.4221
788.676	78.5684
790.373	78.187
792.071	78.5855
793.768	78.3757
795.464	77.3796
797.161	77.2256
798.857	78.0582
800.552	78.3847
802.248	78.9322
803.941	79.528
805.636	80.2072
807.33	79.9437
809.024	79.5531
810.718	79.6779
812.412	79.1203
814.105	79.0005
815.798	77.353
817.49	78.5989
819.183	77.8717
820.873	78.3979
822.564	78.9576
824.256	78.3679
825.947	77.7012
827.637	76.925
829.328	76.5726
831.016	75.2375
832.705	75.1612
834.395	74.3296
836.084	73.2614
837.772	71.5557
839.459	70.3896
841.147	70.9442
842.835	68.9117
844.522	68.5275
846.209	66.3923
847.894	63.7392
849.581	61.7372
851.267	61.7233
852.953	60.6618
854.637	59.3131
856.322	57.6595
858.007	55.1283
859.689	54.4626
861.374	54.3181
863.058	54.0614
864.739	53.0117
866.423	51.0567
868.106	49.579
869.787	49.4477
871.469	48.2706
873.151	48.1977
874.831	47.9787
876.512	47.6581
878.193	47.9232
879.872	47.9403
881.553	48.5746
883.231	48.6509
884.911	48.0886
886.591	48.129
888.268	48.1068
889.947	49.0371
891.623	48.4392
893.302	48.6415
894.978	48.5899
896.656	49.1087
898.331	49.5364
900.008	48.2554
901.683	48.8237
903.359	47.0492
905.033	47.6861
906.709	47.0707
908.383	46.407
910.058	45.3849
911.731	45.3248
913.405	45.3532
915.078	44.5209
916.752	44.314
918.423	43.576
920.096	43.2134
921.768	43.5693
923.438	44.1197
925.111	43.7976
926.781	42.3224
928.452	42.4808
930.122	41.6774
931.791	41.7348
933.462	41.742
935.13	42.1128
936.799	41.0691
938.468	40.8092
940.136	40.8809
941.803	39.5983
943.472	40.0551
945.139	39.5111
946.805	39.1432
948.473	38.3164
950.139	38.153
951.804	39.6566
953.471	41.1917
955.136	41.0336
956.801	42.1473
958.465	41.5776
960.131	41.2633
961.794	41.6036
963.458	41.1373
965.12	42.1996
966.785	42.9881
968.447	43.6064
970.109	44.3528
971.771	44.7426
973.432	45.4389
975.095	45.2232
976.756	46.3765
978.417	46.0252
980.077	47.0547
981.737	45.5367
983.396	44.9597
985.057	45.1968
986.716	44.933
988.375	44.5876
990.033	44.4045
991.691	44.7966
993.349	44.2747
995.006	45.539
996.663	45.3755
998.32	45.5819
999.976	45.8691
1001.63	46.6931
1003.29	47.926
1004.95	48.655
1006.6	48.6157
1008.26	49.16
1009.91	49.6804
1011.56	49.6398
1013.22	49.6061
1014.87	48.9329
1016.53	48.6352
1018.18	48.0426
1019.83	48.0875
1021.48	47.6141
1023.14	47.4678
1024.79	46.9598
1026.44	47.6161
1028.09	48.3127
1029.74	49.005
1031.39	49.1924
1033.04	49.4024
1034.69	49.3241
1036.34	48.8902
1037.99	47.1815
1039.64	45.7418
1041.29	44.9987
1042.94	44.146
1044.58	44.7407
1046.23	44.7693
1047.88	44.8908
1049.52	42.8825
1051.17	41.0065
1052.82	40.5475
1054.46	40.0521
1056.11	39.1973
1057.75	38.1811
1059.4	37.1118
1061.04	35.6305
1062.69	34.3675
1064.33	32.2766
1065.98	31.7781
1067.62	31.5373
1069.26	31.3803
1070.9	30.9402
1072.55	31.5927
1074.19	31.3057
1075.83	31.0102
1077.47	31.5848
1079.11	30.879
1080.76	31.1953
1082.4	30.7544
1084.04	31.1818
1085.68	30.7018
1087.32	30.8166
1088.95	30.1305
1090.59	29.7871
1092.23	29.2241
1093.87	28.9194
1095.51	28.9524
1097.15	28.1255
1098.78	27.6869
1100.42	28.1338
1102.06	27.7774
1103.69	27.4119
1105.33	27.4648
1106.97	27.7041
1108.6	27.0267
1110.24	27.0663
1111.87	25.3949
1113.51	24.3525
1115.14	23.1316
1116.77	23.0162
1118.41	21.9208
1120.04	20.2836
1121.67	19.9204
1123.31	18.9767
1124.94	17.9172
1126.57	17.9381
1128.2	16.4455
1129.83	15.858
1131.47	14.5803
1133.1	14.7155
1134.72	14.2522
1136.36	12.889
1137.98	12.1493
1139.62	12.1601
1141.24	12.5513
1142.87	12.6861
1144.5	11.142
1146.13	11.7032
1147.76	12.6978
1149.38	12.5509
1151.01	11.7907
1152.64	10.5864
1154.27	10.2554
1155.89	9.33543
1157.52	8.75646
1159.14	8.00156
1160.77	7.5076
1162.39	7.41408
1164.02	7.31687
1165.64	7.74393
1167.27	6.91
1168.89	6.35052
1170.51	5.04528
1172.14	5.49922
1173.76	5.41198
1175.38	5.15082
1177	4.73211
1178.63	4.1444
1180.25	3.07197
1181.87	4.00055
1183.49	2.88472
1185.11	2.79667
1186.73	2.9453
1188.35	3.47098
1189.97	3.19951
1191.59	2.94641
1193.21	3.12032
1194.83	3.53456
1196.45	3.88521
1198.07	4.42057
1199.68	3.77733
1201.3	4.96335
1202.92	5.83945
1204.53	6.08832
1206.15	7.21747
1207.77	7.99354
1209.38	9.70729
1211	11.1793
1212.62	12.519
1214.23	14.0002
1215.84	14.9847
1217.46	16.6319
1219.07	18.6358
1220.69	19.4482
1222.3	20.5396
1223.91	21.4908
1225.53	22.3713
1227.14	24.5352
1228.75	25.7206
1230.36	26.6695
1231.97	28.7102
1233.59	30.3976
1235.2	32.2222
1236.81	34.1644
1238.42	35.3794
1240.03	36.1673
1241.64	38.0283
1243.25	38.5326
1244.85	39.3931
1246.46	39.02
1248.07	39.2152
1249.68	39.9087
1251.29	40.3089
1252.9	41.1722
1254.5	40.6861
1256.11	40.092
1257.72	40.6658
1259.32	40.9521
1260.93	41.0706
1262.54	42.9998
1264.14	42.2785
1265.75	43.0621
1267.35	43.2919
1268.96	43.2869
1270.56	43.0078
1272.16	42.5569
1273.77	43.5392
1275.37	44.2429
1276.97	45.4506
1278.57	46.6025
1280.18	47.2789
1281.78	48.1837
1283.38	48.8604
1284.98	49.0869
1286.58	50.6203
1288.18	51.6922
1289.78	53.0635
1291.38	53.4517
1292.99	54.4062
1294.58	55.1161
1296.18	54.6148
1297.78	55.5291
1299.38	56.1746
1300.98	56.4594
1302.58	57.5625
1304.17	58.6862
1305.77	59.3744
1307.37	60.5513
1308.97	61.8122
1310.56	63.2713
1312.16	64.9449
1313.76	65.7986
1315.35	66.432
1316.95	66.7872
1318.54	66.4126
1320.14	66.87
1321.73	67.259
1323.32	65.8952
1324.92	65.6362
1326.51	64.9631
1328.1	64.8464
1329.7	64.1271
1331.29	63.2265
1332.88	62.0364
1334.47	60.7881
1336.07	60.0955
1337.66	59.3949
1339.25	57.8253
1340.84	56.4807
1342.43	54.5052
1344.02	51.9795
1345.61	50.798
1347.2	48.3562
1348.79	47.1473
1350.37	46.1502
1351.96	45.1997
1353.55	44.8457
1355.14	43.1894
1356.73	41.5762
1358.31	40.0306
1359.9	37.4781
1361.49	36.6143
1363.07	35.5488
1364.66	33.1837
1366.25	32.0556
1367.83	30.5346
1369.42	29.1556
1371	28.9399
1372.59	27.1849
1374.17	26.1441
1375.75	24.2251
1377.34	24.1074
1378.92	23.1954
1380.5	22.3804
1382.09	22.2205
1383.67	22.097
1385.25	22.2339
1386.83	22.6643
1388.42	23.0838
1390	23.5826
1391.58	24.6821
1393.16	24.4989
1394.74	24.4585
1396.32	24.7521
1397.9	24.2131
1399.48	24.8543
1401.06	25.4135
1402.64	25.5135
1404.21	26.8992
1405.79	27.8138
1407.37	28.7471
1408.95	29.8768
1410.53	30.8308
1412.1	31.3404
1413.68	32.0082
1415.26	33.1725
1416.83	34.4925
1418.41	35.6109
1419.98	37.2762
1421.56	38.3895
1423.13	41.6475
1424.71	43.2207
1426.28	44.638
1427.86	46.6496
1429.43	48.6667
1431	49.5862
1432.58	51.2066
1434.15	52.3914
1435.72	54.502
1437.29	56.054
1438.87	56.9197
1440.44	58.6127
1442.01	59.1323
1443.58	58.8643
1445.15	59.8049
1446.72	59.5446
1448.29	59.6663
1449.86	59.8903
1451.43	59.008
1453	58.004
1454.57	56.9238
1456.14	56.1093
1457.71	54.2378
1459.27	52.237
1460.84	50.8366
1462.41	49.1651
1463.98	47.2157
1465.54	45.6797
1467.11	43.1163
1468.67	41.161
1470.24	38.8777
1471.81	35.8064
1473.37	33.2602
1474.94	30.3224
1476.5	27.7024
1478.07	26.2922
1479.63	23.7548
1481.19	21.5144
1482.76	20.4013
1484.32	18.4314
1485.88	16.8881
1487.45	14.79
1489.01	12.7246
1490.57	10.4532
1492.13	8.86512
1493.69	8.26435
1495.26	6.9839
1496.82	6.48172
1498.38	6.85068
1499.94	6.22488
1501.5	6.28754
1503.06	5.10546
1504.62	4.49097
1506.17	4.55651
1507.73	4.98924
1509.29	5.11221
1510.85	5.88645
1512.41	6.22327
1513.97	6.08344
1515.52	5.60133
1517.08	5.5047
1518.64	5.26569
1520.19	5.48711
1521.75	5.87265
1523.31	6.52312
1524.86	6.45447
1526.42	7.61826
1527.97	8.16379
1529.52	8.79355
1531.08	7.68609
1532.63	9.31246
1534.19	9.47914
1535.74	9.61887
1537.29	10.4486
1538.85	11.6529
1540.4	12.649
1541.95	13.3583
1543.5	14.4877
1545.06	14.9472
1546.61	15.7243
1548.16	16.0649
1549.71	17.3629
1551.26	18.4927
1552.81	20.6921
1554.36	22.4743
1555.91	23.9311
1557.46	24.6013
1559.01	25.8782
1560.56	27.4712
1562.11	27.8161
1563.65	28.5812
1565.2	29.1353
1566.75	29.7548
1568.29	30.6369
1569.84	32.6437
1571.39	34.0784
1572.94	35.1556
1574.48	36.4008
1576.03	36.8783
1577.57	37.4368
1579.12	38.0785
1580.66	38.7615
1582.21	39.7467
1583.75	41.2362
1585.3	41.9325
1586.84	42.2818
1588.38	42.3962
1589.93	42.8881
1591.47	42.7846
1593.01	42.9635
1594.55	43.5108
1596.1	43.6709
1597.64	44.3238
1599.18	44.1763
1600.72	43.9423
1602.26	43.9785
1603.8	43.8226
1605.34	43.196
1606.88	42.8757
1608.42	42.7954
1609.96	44.4669
1611.5	43.8201
1613.04	44.146
1614.58	44.7001
1616.12	45.5738
1617.65	45.665
1619.19	46.1878
1620.73	46.8021
1622.27	47.0978
1623.8	47.9029
1625.34	49.1508
1626.87	50.3
1628.41	51.327
1629.95	52.3781
1631.48	52.1846
1633.02	52.6399
1634.55	52.968
1636.09	53.9254
1637.62	54.2455
1639.15	54.924
1640.69	56.1129
1642.22	57.0411
1643.76	57.5512
1645.29	59.5623
1646.82	61.1634
1648.35	61.852
1649.88	62.7261
1651.42	63.335
1652.95	64.3424
1654.48	65.1111
1656.01	65.9741
1657.54	65.9762
1659.07	65.6352
1660.6	64.4634
1662.13	64.1851
1663.66	63.3414
1665.19	62.7497
1666.72	62.054
1668.24	60.6635
1669.77	59.2582
1671.3	57.9957
1672.83	55.5486
1674.35	54.0695
1675.88	52.4767
1677.41	49.8554
1678.93	47.3455
1680.46	45.0272
1681.99	43.0066
1683.51	41.9632
1685.04	40.0849
1686.56	37.9871
1688.09	35.2026
1689.61	32.8814
1691.13	30.3872
1692.66	28.1319
1694.18	25.7332
1695.71	23.8918
1697.23	21.6443
1698.75	19.7553
1700.27	17.8896
1701.8	15.6936
1703.32	14.6657
1704.84	13.4152
1706.36	11.3596
1707.88	10.3049
1709.4	9.08277
1710.92	7.87078
1712.44	6.78569
1713.96	6.08357
1715.48	6.57001
1717	5.84599
1718.52	5.02788
1720.04	4.66113
1721.56	5.16164
1723.07	4.676
1724.59	4.60079
1726.11	4.21449
1727.63	4.55959
1729.14	4.84837
1730.66	5.17143
1732.18	4.9511
1733.69	4.03038
1735.21	3.57152
1736.72	4.01053
1738.24	4.71556
1739.75	4.33788
1741.27	4.48901
1742.78	4.42953
1744.3	4.77195
1745.81	4.56115
1747.32	4.55446
1748.84	4.01309
1750.35	4.47804
1751.86	4.08868
1753.37	3.30347
1754.89	4.08761
1756.4	4.15441
1757.91	4.09172
1759.42	3.69627
1760.93	3.20691
1762.44	3.18209
1763.95	2.61668
1765.46	2.22707
1766.97	2.11092
1768.48	2.70236
1769.99	2.44201
1771.5	2.35056
1773.01	2.33604
1774.52	2.03743
1776.03	1.73173
1777.53	2.00364
1779.04	2.4684
1780.55	1.83169
1782.06	1.61109
1783.56	1.76928
1785.07	1.09063
1786.57	0.999567
1788.08	0.913351
1789.59	0.757393
1791.09	0.456034
1792.6	-0.0657719
1794.1	-0.00655879
1795.6	0.301124
1797.11	0.300106
1798.61	0.0604943
1800.12	0.0979532
1801.62	-0.0524971
1803.12	0.10565
1804.63	-0.487074
1806.13	-0.700778
1807.63	-1.44563
1809.13	-1.68502
1810.63	-1.61126
1812.14	-1.26074
1813.64	-1.4427
1815.14	-0.665103
1816.64	-0.269481
1818.14	-0.715941
1819.64	-0.411068
1821.14	-0.562864
1822.64	-0.652333
1824.14	-0.591843
1825.63	-0.509528
1827.13	-0.624252
1828.63	-0.330223
1830.13	-0.287247
1831.63	-0.634855
1833.12	-0.367429
1834.62	-0.424727
1836.12	0.127699
1837.62	-0.045715
1839.11	0.156265
1840.61	0.493073
1842.1	1.59216
1843.6	2.37961
1845.09	1.96226
1846.59	2.18136
1848.08	2.37918
1849.58	2.56219
1851.07	3.16456
1852.57	3.35336
1854.06	3.0116
1855.55	2.70647
1857.04	2.62605
1858.54	2.79139
1860.03	2.88363
1861.52	3.04124
1863.01	3.1353
1864.5	3.32493
1866	3.88893
1867.49	4.15093
1868.98	3.65722
1870.47	3.44643
1871.96	3.24888
1873.45	3.43626
1874.94	3.52853
1876.43	4.01851
1877.92	4.04735
1879.41	3.46628
1880.89	3.15524
1882.38	3.05593
1882.48	3.14449
1883.97	3.90203
1885.47	3.66295
1886.96	4.17939
1888.46	4.34155
1889.95	3.93244
1891.44	3.59033
1892.94	3.98867
1894.43	3.88797
1895.92	3.7632
1897.41	3.41574
1898.9	3.11427
1900.4	3.22221
1901.89	3.79778
1903.38	3.47363
1904.87	3.15361
1906.36	3.59837
1907.85	3.59614
1909.34	4.59509
1910.83	4.60904
1912.32	5.33388
1913.81	4.5799
1915.29	4.58811
1916.78	4.40873
1918.27	4.38161
1919.76	4.66633
1921.25	4.88068
1922.74	5.18739
1924.22	4.94095
1925.71	4.52078
1927.2	4.06936
1928.68	3.70415
1930.17	3.96458
1931.65	4.17432
1933.14	4.3922
1934.63	4.24489
1936.11	4.36459
1937.59	4.25841
1939.08	3.84205
1940.56	3.26883
1942.05	2.65303
1943.53	3.24185
1945.01	3.44695
1946.5	3.63203
1947.98	3.79974
1949.46	3.46015
1950.94	3.06193
1952.43	3.34579
1953.91	3.83832
1955.39	4.52379
1956.87	4.96182
1958.35	5.11931
1959.83	4.36047
1961.31	4.34293
1962.79	4.88156
1964.27	5.56284
1965.75	6.23078
1967.23	6.84143
1968.71	7.31527
1970.19	8.05447
1971.67	8.06203
1973.14	8.94646
1974.62	9.1185
1976.1	9.5133
1977.58	9.8795
1979.05	10.0591
1980.53	10.9914
1982.01	11.4115
1983.48	12.3034
1984.96	12.0641
1986.43	12.4425
1987.91	12.0415
1989.38	12.7207
1990.86	12.7358
1992.33	12.6509
1993.81	12.5447
1995.28	12.2602
1996.76	12.051
1998.23	11.7354
1999.7	11.4973
2001.18	11.2518
2002.65	11.4002
2004.12	11.8478
2005.59	11.6735
2007.06	11.7064
2008.54	11.5077
2010.01	11.7062
2011.48	12.4197
2012.95	12.2761
2014.42	12.8001
2015.89	13.1733
2017.36	13.6316
2018.83	13.8668
2020.3	14.3857
2021.77	14.6177
2023.24	14.5958
2024.71	15.5806
2026.17	16.2992
2027.64	16.2894
2029.11	16.85
2030.58	17.1521
2032.04	17.0478
2033.51	17.7009
2034.98	18.8294
2036.45	19.86
2037.91	19.8573
2039.38	19.8972
2040.84	19.7923
2042.31	19.992
2043.77	20.0808
2045.24	19.6178
2046.7	19.8401
2048.17	19.4464
2049.63	19.953
2051.1	20.2328
2052.56	20.2459
2054.02	20.4171
2055.48	19.7608
2056.95	19.3894
2058.41	18.8909
2059.87	18.3947
2061.33	18.0478
2062.8	17.9191
2064.26	17.9514
2065.72	18.0053
2067.18	17.9643
2068.64	17.553
2070.1	17.8998
2071.56	18.6339
2073.02	18.2976
2074.48	18.6451
2075.94	18.6303
2077.4	18.7021
2078.86	18.7149
2080.31	19.2605
2081.77	19.8557
2083.23	20.5232
2084.69	21.7596
2086.14	22.0318
2087.6	22.9498
2089.06	23.7424
2090.52	24.5547
2091.97	25.6752
2093.43	26.8467
2094.88	27.5683
2096.34	28.2935
2097.79	29.8825
2099.25	30.8586
2100.7	31.4747
2102.16	32.5829
2103.61	33.229
2105.07	33.7657
2106.52	35.0338
2107.97	35.6085
2109.43	36.0563
2110.88	37.4235
2112.33	38.8287
2113.78	40.0784
2115.24	41.3479
2116.69	42.9521
2118.14	44.5425
2119.59	45.8581
2121.04	47.4458
2122.49	48.6294
2123.94	49.5399
2125.39	50.2766
2126.84	51.5226
2128.29	52.4589
2129.74	53.9886
