#Acq. time (s)=	45
#Accumulations=	2
#Range (cm-¹)=	200...3150
#Windows=	2
#Auto scanning=	Off
#Autofocus=	Off
#Macrospot=	Off
#AutoExposure=	Off
#Spike filter=	Multiple accum.
#Delay time (s)=	0
#Binning=	1
#Readout mode=	Signal
#DeNoise=	Off
#ICS correction=	On
#Dark correction=	Off
#Inst. Process=	Off
#Detector Gain=	Best Dynamic Range
#Detector ADC=	20 kHz       
#Detector temperature (°C)=	-69.85
#Instrument=	LabRAM HR Evol
#Detector=	Synapse
#Objective=	x100
#Grating=	600 gr/mm
#ND Filter=	100%
#Laser (nm)=	532 
#Hole=	100.021
#Range=	Auto
#Laser Pol.=	No
#Raman. Pol.=	No
#Laser Pol. (°)=	-0.0007625
#Raman Pol. (°)=	89.9995
#Collection=	Microscope
#StageXY=	Marzhauser
#StageZ=	Marzhauser
#X (µm)=	2194.9
#Y (µm)=	1215.9
#Z (µm)=	443.25
#Full time(mm:ss)=	3:18
#Project=	
#Sample=	
#Site=	
#Title=	Thy_10_08_30_2x_45s_532 nm_x100_100%_600 gr_mm
#Remark=	
#Date=	05.07.2022 16:22
#Acquired=	05.07.2022 16:22:57
#Base:Fit=	10.08.2022 09:46:25
#Base:Sub=	10.08.2022 09:46:49
#Filter:Polynom=	16.08.2022 10:24:56
#AxisType[0]=Intens
#AxisUnit[0]=Cnt
#AxisType[1]=Spectr
#AxisUnit[1]=1/cm
200.43	0.805676
202.244	1.03728
204.059	1.85583
205.873	1.29494
207.688	1.0351
209.501	0.842535
211.314	0.768331
213.127	0.834466
214.941	1.21799
216.753	2.04103
218.564	2.7022
220.375	2.89348
222.186	2.17104
223.999	3.55653
225.809	3.22804
227.618	4.73631
229.428	5.72582
231.236	5.28271
233.045	5.25092
234.855	5.588
236.663	5.60598
238.471	6.15238
240.278	6.39418
242.085	6.74234
243.891	7.31396
245.698	7.02154
247.503	7.59982
249.309	7.88442
251.116	8.0623
252.921	8.46366
254.725	9.0704
256.529	9.46537
258.333	9.72389
260.136	9.62724
261.939	10.2649
263.742	11.1808
265.544	10.6554
267.346	11.5146
269.148	11.1745
270.949	11.2134
272.75	11.6178
274.55	12.3261
276.351	12.3274
278.15	12.774
279.95	13.168
281.749	14.4604
283.548	15.3754
285.346	14.799
287.144	14.5495
288.942	14.0427
290.739	14.3749
292.536	14.5198
294.333	14.3999
296.129	15.3566
297.925	15.8358
299.721	16.7274
301.514	17.8518
303.309	19.3337
305.104	20.3131
306.898	20.7351
308.692	20.5974
310.486	20.5995
312.279	21.2266
314.072	22.8148
315.862	22.4701
317.654	23.2208
319.446	22.5872
321.238	22.2355
323.029	22.6625
324.819	23.119
326.608	22.6904
328.398	22.6899
330.188	22.4304
331.977	22.5866
333.766	22.8866
335.553	22.7634
337.341	23.2026
339.129	23.1039
340.917	22.6152
342.704	22.8737
344.489	23.1613
346.275	22.2614
348.062	21.4441
349.845	21.4988
351.631	20.3893
353.416	19.917
355.201	18.5774
356.984	17.926
358.768	17.4302
360.552	17.4496
362.333	17.478
364.116	17.5707
365.899	18.0163
367.68	17.5167
369.462	16.1664
371.243	15.876
373.023	13.9334
374.804	12.7833
376.585	12.5391
378.363	12.2185
380.143	12.6253
381.923	12.4041
383.7	11.2774
385.479	11.2067
387.256	12.0857
389.034	12.0023
390.812	12.0879
392.588	11.295
394.365	10.4445
396.14	9.88182
397.916	9.41969
399.691	9.70474
401.467	10.4378
403.24	10.7292
405.015	10.2287
406.788	9.90764
408.563	10.198
410.335	10.0854
412.109	10.0273
413.88	10.0063
415.654	9.37159
417.424	9.56526
419.197	9.99824
420.967	10.1489
422.739	10.5891
424.508	10.7342
426.279	9.9821
428.048	9.20589
429.819	8.91985
431.587	9.63177
433.356	9.10284
435.124	8.05856
436.891	7.77408
438.66	8.38492
440.426	8.29183
442.194	8.93988
443.96	9.72305
445.725	10.3255
447.492	11.4382
449.257	10.938
451.021	11.162
452.787	11.2002
454.551	10.8582
456.314	10.3603
458.079	10.7476
459.842	10.9726
461.604	11.412
463.368	12.5101
465.13	13.3459
466.891	13.6818
468.654	13.5041
470.415	13.3711
472.175	12.6289
473.935	14.2487
475.696	14.5627
477.456	14.2499
479.215	14.1192
480.973	14.6724
482.733	15.5552
484.491	16.1774
486.249	16.1908
488.006	16.8136
489.765	17.7614
491.522	17.5552
493.278	17.0061
495.034	16.728
496.789	17.7756
498.544	17.5952
500.301	18.0368
502.056	18.248
503.81	19.1093
505.564	19.8416
507.317	19.6122
509.071	20.4411
510.825	20.3985
512.578	19.7258
514.33	19.3662
516.082	19.0971
517.833	18.4906
519.585	18.3174
521.335	17.4507
523.086	17.4289
524.836	17.9353
526.586	17.9183
528.335	17.6563
530.085	16.9314
531.835	16.1337
533.584	15.3542
535.332	14.5962
537.08	12.7647
538.827	13.0804
540.574	12.449
542.321	11.6249
544.068	11.3166
545.814	11.0401
547.56	9.97326
549.305	9.66617
551.05	8.17626
552.795	7.87666
554.54	6.55484
556.282	5.88206
558.025	5.5936
559.769	4.89225
561.512	4.82325
563.255	4.39946
564.997	5.02352
566.739	4.6525
568.481	4.6648
570.223	4.00218
571.964	3.48747
573.705	3.18084
575.443	3.3196
577.183	3.36209
578.923	2.63521
580.663	2.88284
582.402	3.51458
584.141	4.54258
585.879	4.02687
587.615	4.29933
589.353	3.8328
591.09	4.42988
592.828	3.7633
594.564	3.41205
596.299	4.24133
598.035	3.6525
599.771	3.72908
601.506	4.20957
603.242	3.66571
604.974	3.68979
606.709	4.60893
608.443	5.0532
610.177	6.07376
611.908	7.22634
613.642	7.38733
615.374	7.90538
617.105	8.27837
618.837	8.88703
620.569	10.0422
622.3	11.3719
624.03	11.9004
625.761	13.3506
627.491	13.3967
629.219	14.0446
630.949	14.8222
632.677	15.4604
634.406	15.2295
636.135	15.4776
637.861	16.4864
639.59	17.7315
641.318	18.3771
643.043	19.6668
644.77	20.3487
646.495	20.6647
648.222	20.3559
649.948	21.1051
651.672	21.0239
653.398	20.5814
655.121	20.8695
656.846	21.2016
658.569	21.1052
660.293	21.1871
662.015	20.5398
663.738	20.6923
665.46	20.7595
667.183	20.6892
668.903	19.7853
670.626	18.4401
672.346	18.0676
674.067	17.9294
675.787	17.5986
677.508	18.4257
679.226	17.7929
680.947	18.4602
682.665	18.3014
684.385	18.9445
686.102	19.4765
687.821	20.1113
689.538	19.989
691.254	20.7595
692.972	22.151
694.688	23.1067
696.406	24.3421
698.121	25.1002
699.835	25.3154
701.552	25.7656
703.266	27.2502
704.98	28.1823
706.695	29.3976
708.409	30.5061
710.121	30.0939
711.836	31.0635
713.548	30.8318
715.26	31.6962
716.973	32.1352
718.685	32.565
720.396	33.249
722.108	34.5291
723.818	36.1374
725.528	37.076
727.238	38.1792
728.949	38.8515
730.658	39.0245
732.367	39.3964
734.075	39.2813
735.785	41.5945
737.493	42.5536
739.2	44.2319
740.907	45.5628
742.614	46.113
744.322	47.295
746.028	48.0134
747.734	48.4308
749.439	49.9982
751.144	51.1405
752.849	51.3653
754.555	52.5007
756.26	54.5195
757.963	57.1368
759.667	58.19
761.37	59.3146
763.073	60.6538
764.775	61.8581
766.477	63.8873
768.179	63.9452
769.883	65.8272
771.584	66.3901
773.285	67.4732
774.986	68.3437
776.686	69.9794
778.386	70.8037
780.085	71.2144
781.785	72.1468
783.484	73.2412
785.182	74.1515
786.881	75.6174
788.579	77.6597
790.276	77.9667
791.974	78.8831
793.671	78.6699
795.367	78.4384
797.064	79.0266
798.76	79.2818
800.456	80.8143
802.151	81.1097
803.846	81.4231
805.541	82.5858
807.234	82.4004
808.928	82.8578
810.622	82.7893
812.315	82.2801
814.008	82.1882
815.701	81.6464
817.394	81.7353
819.086	81.9857
820.778	82.4391
822.468	82.0429
824.159	82.3758
825.85	82.1146
827.541	81.4614
829.231	81.1038
830.921	80.0888
832.609	79.2797
834.298	79.4183
835.987	78.1781
837.676	76.3905
839.364	76.1525
841.051	74.7874
842.738	73.0742
844.426	70.7791
846.113	69.2653
847.798	68.0626
849.484	66.693
851.171	64.967
852.857	63.418
854.54	63.0636
856.226	62.0236
857.911	61.0103
859.593	58.9733
861.278	57.5398
862.961	55.9446
864.645	54.8581
866.327	54.0308
868.01	52.9529
869.692	51.5401
871.373	50.9497
873.055	50.6025
874.735	49.0631
876.416	48.2168
878.097	47.7718
879.776	48.3234
881.457	48.3561
883.135	48.2647
884.815	48.1121
886.495	47.5116
888.172	47.8252
889.851	47.3443
891.528	47.2367
893.206	48.09
894.882	48.0123
896.56	48.3184
898.237	48.2406
899.912	47.8026
901.589	48.4304
903.263	48.2272
904.94	48.1426
906.614	49.5501
908.289	49.6667
909.962	50.777
911.635	49.9355
913.31	49.7123
914.982	49.4609
916.656	48.883
918.328	48.9424
920.001	47.9299
921.672	47.918
923.345	47.6576
925.015	47.1979
926.685	46.7228
928.357	45.5093
930.026	44.9194
931.698	44.3318
933.366	43.5943
935.035	42.4752
936.705	42.2496
938.373	41.4774
940.041	40.6635
941.71	39.4216
943.377	37.9286
945.044	36.7853
946.712	36.7834
948.378	36.2871
950.044	35.7997
951.709	35.7594
953.376	35.4846
955.041	34.3892
956.706	33.3791
958.372	31.4891
960.036	30.2458
961.699	29.6755
963.362	29.4872
965.027	28.2321
966.69	27.7171
968.352	27.8395
970.014	28.3391
971.676	28.3434
973.339	28.6791
975	29.6918
976.661	29.2511
978.322	29.2698
979.982	29.4503
981.642	29.1159
983.303	29.3914
984.962	29.6761
986.621	29.9464
988.28	30.2453
989.938	30.8436
991.596	30.5285
993.254	30.3238
994.911	28.7466
996.57	28.5193
998.227	28.7712
999.884	28.8904
1001.54	28.4856
1003.2	27.5606
1004.85	27.7564
1006.51	27.0378
1008.16	26.8794
1009.82	25.7917
1011.47	24.9188
1013.12	25.1178
1014.78	25.1097
1016.43	24.9506
1018.08	24.3598
1019.74	24.1098
1021.39	23.3533
1023.04	22.5688
1024.69	21.2064
1026.34	20.4226
1028	19.6021
1029.65	19.2348
1031.3	17.6875
1032.95	17.5159
1034.6	15.705
1036.25	13.6519
1037.9	12.3815
1039.54	12.262
1041.19	12.4488
1042.84	12.8874
1044.49	13.7578
1046.14	13.7632
1047.78	13.251
1049.43	14.2004
1051.08	14.7239
1052.72	14.9323
1054.37	14.8124
1056.02	15.0409
1057.66	14.3791
1059.31	14.3679
1060.95	14.3375
1062.6	13.6128
1064.24	12.4745
1065.88	11.9142
1067.53	11.1525
1069.17	11.1702
1070.81	10.5042
1072.45	10.5927
1074.1	9.762
1075.74	9.21322
1077.38	9.02079
1079.02	9.07898
1080.66	9.35415
1082.3	9.81459
1083.94	9.29269
1085.58	9.67701
1087.22	10.058
1088.86	9.87574
1090.5	9.70023
1092.14	8.66246
1093.78	8.90021
1095.42	9.03412
1097.05	8.71103
1098.69	7.94015
1100.33	7.34595
1101.96	7.4683
1103.6	7.18051
1105.24	7.68407
1106.87	7.30739
1108.51	7.39515
1110.14	7.08748
1111.78	7.03667
1113.41	7.39184
1115.05	7.85698
1116.68	6.62458
1118.31	6.83459
1119.95	6.99031
1121.58	7.52646
1123.21	7.74995
1124.85	6.9317
1126.48	6.63841
1128.11	5.85507
1129.74	6.83913
1131.37	6.36712
1133	5.61039
1134.63	5.90124
1136.26	6.36723
1137.89	5.91274
1139.52	5.32586
1141.15	4.85943
1142.78	4.02518
1144.41	3.49449
1146.04	3.21099
1147.66	3.4516
1149.29	3.25181
1150.92	3.16409
1152.55	3.4551
1154.17	3.61386
1155.8	3.22465
1157.43	3.4297
1159.05	2.5716
1160.68	2.77841
1162.3	2.93297
1163.93	3.19299
1165.55	2.35208
1167.17	2.61823
1168.8	1.89874
1170.42	2.30312
1172.05	2.2944
1173.67	1.8621
1175.29	2.33408
1176.91	1.95166
1178.54	2.00425
1180.16	2.55879
1181.78	3.20111
1183.4	3.70204
1185.02	4.05765
1186.64	4.81102
1188.26	4.6695
1189.88	5.07062
1191.5	5.75334
1193.12	5.70042
1194.74	6.37609
1196.36	6.68891
1197.97	6.43509
1199.59	7.23394
1201.21	7.75687
1202.83	8.39715
1204.44	9.08278
1206.06	10.1039
1207.68	11.144
1209.29	11.6099
1210.91	12.7751
1212.52	13.0052
1214.14	15.1246
1215.75	17.1709
1217.37	18.3846
1218.98	18.7558
1220.59	18.8663
1222.21	19.9309
1223.82	21.1135
1225.43	22.0374
1227.05	23.743
1228.66	24.601
1230.27	25.0399
1231.88	25.2952
1233.49	25.8626
1235.1	26.2813
1236.72	26.7646
1238.33	27.8161
1239.94	27.8281
1241.55	29.9055
1243.16	30.6262
1244.76	31.2061
1246.37	32.4738
1247.98	33.7663
1249.59	33.6756
1251.2	33.6623
1252.8	33.6379
1254.41	33.6189
1256.02	33.1724
1257.62	33.8173
1259.23	34.6215
1260.84	34.3681
1262.44	34.7556
1264.05	34.9189
1265.66	34.9491
1267.26	34.2714
1268.86	33.2951
1270.47	32.1375
1272.07	31.6698
1273.67	30.1303
1275.28	29.6022
1276.88	29.9416
1278.48	30.0527
1280.09	30.5059
1281.69	30.1817
1283.29	31.0836
1284.89	31.8036
1286.49	32.098
1288.09	31.5039
1289.69	31.3423
1291.29	32.3327
1292.89	33.7809
1294.49	34.74
1296.09	35.1578
1297.69	34.5933
1299.29	34.3496
1300.89	33.812
1302.49	35.3569
1304.08	36.7041
1305.68	37.9462
1307.28	38.8455
1308.88	38.5257
1310.47	39.5022
1312.07	41.4225
1313.66	42.1963
1315.26	44.2546
1316.85	44.8578
1318.45	46.0368
1320.04	46.4569
1321.64	47.0002
1323.23	47.1189
1324.83	48.2002
1326.42	49.0413
1328.01	48.0192
1329.61	46.4602
1331.2	46.0578
1332.79	46.8483
1334.38	47.3206
1335.97	47.3058
1337.56	47.6763
1339.16	47.0853
1340.75	45.9775
1342.34	45.5849
1343.93	44.4334
1345.52	43.5646
1347.11	43.0396
1348.7	41.9276
1350.29	40.9271
1351.87	40.2087
1353.46	39.3762
1355.05	39.2861
1356.64	38.7293
1358.22	38.0059
1359.81	37.2076
1361.4	36.6777
1362.98	36.943
1364.57	35.6608
1366.16	34.5346
1367.74	33.0176
1369.33	32.8103
1370.91	32.4493
1372.5	31.5444
1374.08	30.2472
1375.67	28.7735
1377.25	27.9122
1378.83	28.1407
1380.41	27.8026
1382	28.2312
1383.58	27.7579
1385.16	26.6065
1386.74	25.5184
1388.33	24.8893
1389.91	25.0257
1391.49	24.8624
1393.07	23.5063
1394.65	24.0913
1396.23	23.4475
1397.81	23.455
1399.39	22.1333
1400.97	21.9643
1402.55	22.7897
1404.13	22.8466
1405.7	22.2312
1407.28	21.3074
1408.86	22.343
1410.44	24.3927
1412.01	25.969
1413.59	26.3493
1415.17	26.0352
1416.74	26.5517
1418.32	27.5057
1419.89	28.3377
1421.47	29.984
1423.04	31.7613
1424.62	33.8531
1426.19	35.0751
1427.77	36.9646
1429.34	37.9921
1430.91	40.5698
1432.49	42.1976
1434.06	43.8702
1435.63	44.9985
1437.2	47.1196
1438.78	48.2064
1440.35	50.5302
1441.92	51.1974
1443.49	51.3179
1445.06	52.1354
1446.63	53.0137
1448.2	53.6691
1449.77	53.7417
1451.34	53.7053
1452.91	54.1263
1454.48	54.1014
1456.05	54.0084
1457.62	53.4799
1459.18	52.228
1460.75	51.0562
1462.32	49.7789
1463.89	48.2247
1465.45	46.9345
1467.02	45.6249
1468.59	43.8097
1470.15	42.0782
1471.72	39.7488
1473.28	38.1892
1474.85	35.9995
1476.41	33.6065
1477.98	31.8447
1479.54	30.9199
1481.1	28.5029
1482.67	26.1228
1484.23	23.7788
1485.79	21.8223
1487.36	21.3987
1488.92	20.0001
1490.48	17.4167
1492.04	15.7509
1493.61	14.8026
1495.17	14.8559
1496.73	14.1039
1498.29	14.1837
1499.85	14.1752
1501.41	14.4861
1502.97	14.7287
1504.53	14.2971
1506.09	15.3963
1507.65	14.531
1509.2	15.3749
1510.76	14.0828
1512.32	14.2312
1513.88	14.5727
1515.43	14.9248
1516.99	15.594
1518.55	16.511
1520.1	15.8861
1521.66	16.8411
1523.22	17.5975
1524.77	18.784
1526.33	18.7568
1527.88	19.3194
1529.44	19.2474
1530.99	19.5842
1532.54	19.8993
1534.1	20.5469
1535.65	21.4165
1537.21	21.6364
1538.76	21.769
1540.31	22.345
1541.86	22.501
1543.42	23.1591
1544.97	23.4545
1546.52	23.6175
1548.07	24.2267
1549.62	25.3038
1551.17	27.2554
1552.72	27.6637
1554.27	28.0942
1555.82	28.8989
1557.37	29.2371
1558.92	29.4718
1560.47	30.2848
1562.02	31.5221
1563.56	32.6279
1565.11	33.6928
1566.66	34.6896
1568.21	35.6116
1569.75	37.3227
1571.3	38.4761
1572.85	39.4973
1574.39	40.9629
1575.94	42.61
1577.49	43.4753
1579.03	44.8206
1580.57	45.4203
1582.12	46.7327
1583.66	48.0553
1585.21	48.2744
1586.75	49.1889
1588.3	49.2104
1589.84	50.6527
1591.38	51.1066
1592.92	50.986
1594.47	51.5887
1596.01	51.8656
1597.55	51.1716
1599.09	51.4468
1600.63	50.6732
1602.17	49.8131
1603.71	48.5981
1605.25	47.9356
1606.79	46.5937
1608.33	46.4475
1609.87	46.333
1611.41	45.6951
1612.95	44.647
1614.49	43.1009
1616.03	42.0315
1617.57	41.6913
1619.1	40.1432
1620.64	40.0604
1622.18	39.2774
1623.72	38.9252
1625.25	38.7184
1626.79	39.0621
1628.32	39.1848
1629.86	38.8081
1631.39	39.2456
1632.93	38.9606
1634.46	39.2548
1636	40.5768
1637.53	41.7858
1639.07	42.7507
1640.6	43.2676
1642.13	44.2122
1643.67	45.9697
1645.2	46.845
1646.73	47.564
1648.26	48.992
1649.8	50.054
1651.33	51.1474
1652.86	52.1527
1654.39	52.5621
1655.92	53.7804
1657.45	54.167
1658.98	54.7427
1660.51	55.07
1662.04	55.1488
1663.57	55.2136
1665.1	54.4309
1666.63	54.2027
1668.16	53.1896
1669.68	52.2154
1671.21	51.7466
1672.74	50.4125
1674.27	48.754
1675.79	48.0622
1677.32	45.8304
1678.85	44.798
1680.37	43.44
1681.9	41.8686
1683.42	40.2545
1684.95	38.9548
1686.47	37.4075
1688	35.7503
1689.52	33.6052
1691.05	31.4854
1692.57	29.7695
1694.09	28.0965
1695.62	26.6231
1697.14	26.3086
1698.66	24.3528
1700.18	22.9383
1701.71	21.8149
1703.23	21.4564
1704.75	20.6906
1706.27	19.4639
1707.79	18.5264
1709.31	17.4449
1710.83	17.2404
1712.35	17.111
1713.87	15.4708
1715.39	14.1072
1716.91	13.4591
1718.43	12.9735
1719.95	12.7523
1721.47	11.972
1722.99	11.5172
1724.5	11.3921
1726.02	10.3438
1727.54	10.4338
1729.06	10.5707
1730.57	9.91745
1732.09	10.4591
1733.61	9.94247
1735.12	9.93817
1736.64	9.97166
1738.15	9.63047
1739.67	9.37935
1741.18	8.74521
1742.7	8.89827
1744.21	8.81665
1745.72	8.44444
1747.24	8.17094
1748.75	7.3912
1750.26	7.6205
1751.77	7.48885
1753.29	7.29653
1754.8	8.28987
1756.31	8.32773
1757.82	8.36729
1759.33	8.43049
1760.84	8.23729
1762.36	8.57334
1763.87	8.29938
1765.38	7.82586
1766.89	8.07767
1768.4	8.06372
1769.91	8.05904
1771.41	8.48658
1772.92	8.38413
1774.43	7.46938
1775.94	7.58243
1777.45	7.85166
1778.95	8.2976
1780.46	7.72856
1781.97	7.48352
1783.48	7.27974
1784.98	6.81486
1786.49	6.52612
1787.99	6.31659
1789.5	5.667
1791.01	5.69603
1792.51	5.64673
1794.01	5.64701
1795.52	5.58096
1797.02	5.43033
1798.53	5.08734
1800.03	4.87772
1801.53	4.85294
1803.04	5.17627
1804.54	4.54054
1806.04	4.41608
1807.54	4.85257
1809.05	4.37445
1810.55	3.82841
1812.05	3.28012
1813.55	3.26573
1815.05	3.09624
1816.55	3.2209
1818.05	3.40712
1819.55	3.50676
1821.05	3.29728
1822.55	3.30298
1824.05	3.50395
1825.55	3.83733
1827.05	3.8189
1828.55	4.1469
1830.04	4.24736
1831.54	3.53543
1833.04	3.02552
1834.54	3.42916
1836.03	3.51742
1837.53	3.56053
1839.03	3.47161
1840.52	3.42647
1842.02	3.46308
1843.51	2.91756
1845.01	2.53943
1846.5	2.48469
1848	2.19832
1849.49	1.92137
1850.99	2.45946
1852.48	2.79426
1853.97	2.96632
1855.47	2.19963
1856.96	2.19674
1858.45	2.50915
1859.94	2.93628
1861.44	3.12881
1862.93	2.75916
1864.42	2.09636
1865.91	2.4053
1867.4	3.11896
1868.89	3.07973
1870.38	3.02915
1871.87	2.83348
1873.36	2.86237
1874.85	3.19659
1876.34	3.16053
1877.83	3.24357
1879.32	4.05934
1880.81	4.77464
1882.3	4.68017
1882.57	4.52827
1884.07	4.1311
1885.56	4.20011
1887.06	4.81504
1888.55	4.51351
1890.04	4.20455
1891.54	4.28573
1893.03	4.58837
1894.52	4.14891
1896.02	3.90224
1897.51	3.97716
1899	4.61625
1900.49	4.64424
1901.98	4.62285
1903.47	4.57348
1904.96	4.83948
1906.45	5.44425
1907.94	5.60524
1909.43	5.3611
1910.92	4.97777
1912.41	4.16514
1913.9	3.42172
1915.39	3.0495
1916.88	2.30283
1918.37	1.57997
1919.85	1.80117
1921.34	1.67321
1922.83	2.58048
1924.32	2.96648
1925.8	3.17102
1927.29	3.11797
1928.78	3.23837
1930.26	3.21885
1931.75	3.36536
1933.23	2.83384
1934.72	2.9815
1936.2	2.88846
1937.69	2.72161
1939.17	3.47449
1940.66	3.6906
1942.14	3.07236
1943.63	3.41733
1945.11	3.63945
1946.59	3.86273
1948.07	3.78813
1949.56	4.07651
1951.04	4.6458
1952.52	4.85906
1954	4.1727
1955.48	3.8435
1956.96	3.87419
1958.45	3.35885
1959.93	3.11811
1961.41	3.06134
1962.89	2.88085
1964.37	2.68465
1965.85	3.47458
1967.32	3.48509
1968.8	3.39034
1970.28	4.0737
1971.76	4.25594
1973.24	4.57529
1974.72	4.38024
1976.19	4.11047
1977.67	4.63078
1979.15	4.46547
1980.63	4.67696
1982.1	4.46924
1983.58	4.20137
1985.05	3.29245
1986.53	2.69642
1988	2.74017
1989.48	2.99869
1990.95	3.08589
1992.43	3.57813
1993.9	4.26195
1995.38	4.70348
1996.85	5.09159
1998.32	4.86817
1999.8	5.07284
2001.27	4.97015
2002.74	5.00379
2004.22	4.68877
2005.69	5.87906
2007.16	6.48688
2008.63	7.35636
2010.1	7.4666
2011.57	7.81081
2013.04	8.55343
2014.51	9.29157
2015.98	9.90305
2017.45	10.3169
2018.92	10.3315
2020.39	11.1559
2021.86	11.1695
2023.33	11.7789
2024.8	11.863
2026.27	11.8536
2027.74	12.2468
2029.2	12.7158
2030.67	12.0371
2032.14	12.0642
2033.61	12.1864
2035.07	12.6478
2036.54	12.7357
2038.01	12.9089
2039.47	13.3109
2040.94	13.6342
2042.4	13.352
2043.87	12.9971
2045.33	12.3847
2046.8	12.4672
2048.26	12.0695
2049.72	12.0009
2051.19	12.5117
2052.65	11.8719
2054.12	11.9794
2055.58	11.7346
2057.04	11.1818
2058.5	10.654
2059.97	10.294
2061.43	10.4548
2062.89	10.7125
2064.35	10.6135
2065.81	10.1779
2067.27	9.72174
2068.73	10.0033
2070.19	9.76877
2071.65	9.23778
2073.11	9.03208
2074.57	8.91736
2076.03	9.22
2077.49	9.17194
2078.95	9.97554
2080.41	10.3055
2081.87	10.3851
2083.32	10.8891
2084.78	11.5126
2086.24	11.6897
2087.7	12.1472
2089.15	12.2865
2090.61	12.0529
2092.07	12.3876
2093.52	13.3915
2094.98	12.7129
2096.43	12.602
2097.89	12.9471
2099.34	13.426
2100.8	14.2693
2102.25	14.4484
2103.71	14.277
2105.16	14.9726
2106.61	15.257
2108.07	15.2768
2109.52	15.3277
2110.97	15.8903
2112.43	15.7723
2113.88	15.6681
2115.33	15.5113
2116.78	15.3712
2118.23	16.3664
2119.68	16.5243
2121.13	16.4513
2122.59	16.5171
2124.04	16.2781
2125.49	16.2665
2126.94	16.9627
2128.39	16.9986
2129.83	16.692
2131.28	16.9647
2132.73	16.8267
2134.18	17.3345
2135.63	17.1737
