#Acq. time (s)=	45
#Accumulations=	2
#Range (cm-¹)=	200...3150
#Windows=	2
#Auto scanning=	Off
#Autofocus=	Off
#Macrospot=	Off
#AutoExposure=	Off
#Spike filter=	Multiple accum.
#Delay time (s)=	0
#Binning=	1
#Readout mode=	Signal
#DeNoise=	Off
#ICS correction=	On
#Dark correction=	Off
#Inst. Process=	Off
#Detector Gain=	Best Dynamic Range
#Detector ADC=	20 kHz       
#Detector temperature (°C)=	-69.85
#Instrument=	LabRAM HR Evol
#Detector=	Synapse
#Objective=	x100
#Grating=	600 gr/mm
#ND Filter=	100%
#Laser (nm)=	532 
#Hole=	100.021
#Range=	Auto
#Laser Pol.=	No
#Raman. Pol.=	No
#Laser Pol. (°)=	-0.0007625
#Raman Pol. (°)=	89.9995
#Collection=	Microscope
#StageXY=	Marzhauser
#StageZ=	Marzhauser
#X (µm)=	-5126.9
#Y (µm)=	1517.1
#Z (µm)=	63.4
#Full time(mm:ss)=	3:18
#Project=	
#Sample=	
#Site=	
#Title=	Thy_50_12_40_2x_45s_532 nm_x100_100%_600 gr_mm
#Remark=	
#Date=	07.07.2022 12:12
#Acquired=	07.07.2022 12:12:08
#Base:Fit=	10.08.2022 10:04:30
#Base:Sub=	10.08.2022 10:04:45
#Filter:Polynom=	16.08.2022 10:20:25
#AxisType[0]=Intens
#AxisUnit[0]=Cnt
#AxisType[1]=Spectr
#AxisUnit[1]=1/cm
200.43	27.9642
202.246	30.5829
204.061	32.335
205.875	31.5708
207.688	30.1356
209.501	28.4861
211.316	26.7594
213.129	25.3494
214.941	23.7064
216.753	23.2479
218.566	22.3979
220.377	20.7152
222.188	19.4379
223.999	17.9428
225.809	17.1688
227.618	14.8525
229.43	13.2442
231.239	12.5118
233.047	13.3297
234.855	12.6565
236.663	12.9125
238.471	11.6785
240.278	11.2674
242.087	11.4227
243.894	12.021
245.7	12.3983
247.506	12.3737
249.311	11.7311
251.116	11.4669
252.921	12.0339
254.725	12.7076
256.529	13.0111
258.333	13.9525
260.136	16.4199
261.939	16.8309
263.744	17.5604
265.546	18.1911
267.348	19.4198
269.15	19.7115
270.951	20.4377
272.752	20.6136
274.552	20.4773
276.353	20.5638
278.152	20.7797
279.952	21.073
281.751	20.7125
283.55	21.1526
285.348	21.7613
287.146	22.047
288.942	22.1242
290.739	22.0228
292.536	21.983
294.333	23.6473
296.129	25.2298
297.925	25.6968
299.721	26.1857
301.516	26.95
303.311	27.2292
305.106	27.3325
306.9	27.2062
308.694	26.3166
310.486	25.6931
312.279	25.2483
314.072	24.4346
315.864	24.9851
317.656	24.0772
319.448	24.7956
321.24	25.9699
323.029	24.9579
324.819	23.6942
326.61	22.7812
328.4	20.9175
330.19	20.8214
331.977	20.4569
333.766	20.8993
335.555	20.4878
337.343	20.8434
339.131	20.3555
340.917	19.9566
342.704	18.3637
344.491	17.2136
346.277	16.9206
348.062	15.7936
349.848	15.0891
351.633	13.3162
353.416	12.7765
355.201	11.1555
356.986	10.0048
358.77	8.30478
360.552	8.11706
362.335	6.84158
364.118	6.91534
365.899	6.76447
367.682	6.79307
369.464	5.98665
371.243	5.1376
373.025	5.88721
374.806	5.88946
376.585	5.83216
378.365	6.35183
380.143	6.4281
381.923	7.43135
383.702	7.47383
385.479	6.32945
387.258	5.69721
389.034	6.97495
390.812	7.5502
392.59	7.35631
394.365	7.83745
396.142	7.93044
397.916	8.77671
399.693	8.59658
401.467	8.54691
403.242	9.08726
405.015	9.56189
406.79	8.3828
408.565	8.28336
410.337	7.99226
412.111	6.92381
413.882	7.009
415.656	6.70123
417.426	7.91653
419.197	9.64034
420.969	10.1742
422.739	12.0384
424.51	12.1973
426.279	12.8112
428.05	13.9341
429.819	14.6053
431.589	15.066
433.356	16.3266
435.124	17.2538
436.893	17.5318
438.66	18.0961
440.428	18.6916
442.194	18.4943
443.96	19.544
445.727	20.8994
447.492	21.3788
449.259	22.3442
451.023	22.8069
452.787	23.2437
454.553	23.7222
456.316	24.7676
458.079	25.597
459.844	26.5302
461.606	27.5255
463.368	27.56
465.132	28.1845
466.893	28.9725
468.654	29.4697
470.415	29.973
472.177	30.8249
473.937	32.3423
475.696	33.9439
477.456	36.498
479.217	36.6547
480.975	37.2505
482.733	37.5974
484.491	37.3122
486.251	36.5276
488.008	37.4057
489.765	37.706
491.522	37.9228
493.278	38.0556
495.036	38.2237
496.791	38.4246
498.546	37.9759
500.301	38.3565
502.056	38.7656
503.81	39.6414
505.566	39.8154
507.319	38.6629
509.073	36.9914
510.825	36.6344
512.578	36.0508
514.33	36.6062
516.082	37.3307
517.833	36.9208
519.587	36.6462
521.337	36.3313
523.088	36.4356
524.838	35.44
526.588	34.6969
528.337	34.812
530.087	34.2197
531.835	34.3556
533.584	32.5725
535.332	31.3842
537.08	31.2522
538.827	30.3817
540.574	28.7109
542.321	28.6867
544.068	28.5793
545.814	28.2301
547.56	26.3104
549.305	26.0748
551.05	25.2439
552.795	24.7604
554.54	23.3329
556.284	23.7021
558.027	24.1495
559.771	25.9435
561.514	26.1234
563.257	25.9326
564.999	25.4281
566.742	24.4598
568.481	24.1293
570.223	24.1652
571.964	23.9075
573.705	23.2616
575.445	24.9804
577.185	24.0039
578.925	23.8727
580.665	23.4113
582.402	22.6007
584.141	20.776
585.879	19.3058
587.617	19.6066
589.355	17.7857
591.092	16.064
592.828	15.0613
594.564	13.4223
596.301	12.4889
598.037	12.6178
599.773	13.2412
601.506	13.6953
603.242	13.0856
604.976	13.3707
606.711	13.4979
608.443	12.8329
610.177	12.7565
611.91	13.0461
613.644	13.5395
615.374	14.7551
617.107	14.1626
618.839	13.9559
620.569	12.9957
622.3	12.6081
624.032	11.6119
625.761	11.3731
627.491	10.4735
629.221	11.4452
630.949	11.7067
632.679	11.9561
634.408	12.3828
636.135	13.6107
637.863	14.1468
639.592	15.861
641.318	17.4133
643.045	18.9171
644.77	19.0867
646.497	20.1007
648.224	20.0387
649.948	21.7711
651.674	22.4913
653.398	23.4703
655.123	25.0554
656.846	25.7503
658.57	26.0232
660.293	26.1493
662.017	27.2905
663.738	26.6057
665.462	26.0873
667.185	25.4317
668.905	25.5095
670.628	25.8995
672.348	27.735
674.067	29.6468
675.789	29.9656
677.508	31.3598
679.228	33.1116
680.947	33.4082
682.667	35.4265
684.385	36.6031
686.104	38.6657
687.821	39.5492
689.538	39.8093
691.256	41.8917
692.972	42.0595
694.69	43.1008
696.406	45.5534
698.121	47.5136
699.837	48.2457
701.552	49.0039
703.268	48.2719
704.982	49.3294
706.695	49.1637
708.41	49.9798
710.123	51.168
711.836	52.4302
713.55	52.2151
715.262	53.5048
716.973	54.0586
718.685	55.2959
720.398	57.6171
722.108	57.5218
723.818	58.4971
725.53	59.5643
727.24	60.399
728.949	60.9945
730.658	61.2504
732.369	61.7746
734.077	61.9044
735.785	61.5565
737.493	61.354
739.2	61.137
740.909	62.0811
742.616	60.943
744.322	60.3952
746.028	60.3675
747.734	60.2353
749.441	60.3199
751.146	61.7905
752.851	63.7685
754.555	65.3126
756.26	66.5582
757.963	67.8998
759.667	67.9681
761.372	69.0834
763.075	71.3018
764.777	71.8235
766.479	71.7738
768.181	72.4088
769.883	72.1816
771.584	73.1964
773.285	74.2263
774.986	75.7388
776.686	77.398
778.386	78.9434
780.085	78.1157
781.785	76.6437
783.484	75.1644
785.182	76.9277
786.881	79.2418
788.579	81.3691
790.276	83.9894
791.974	85.7417
793.671	87.0444
795.367	87.4517
797.064	89.0711
798.76	90.0768
800.456	91.0476
802.151	91.9809
803.846	93.5702
805.541	94.8516
807.236	94.0098
808.93	95.2993
810.624	96.3072
812.317	96.1178
814.01	95.5181
815.703	93.6734
817.394	93.5228
819.086	93.0293
820.778	92.1664
822.47	91.965
824.161	90.4801
825.852	90.7521
827.543	89.158
829.231	88.0079
830.921	87.9375
832.611	87.1225
834.3	86.5045
835.989	86.1292
837.676	84.8372
839.364	83.0731
841.053	82.9338
842.74	81.9687
844.426	79.744
846.113	78.0768
847.8	75.9604
849.486	73.2027
851.171	71.6566
852.857	70.4836
854.542	69.3333
856.227	68.1056
857.911	66.7056
859.595	64.4416
861.279	63.42
862.961	60.9386
864.645	58.3043
866.329	59.0266
868.01	61.7984
869.692	64.435
871.375	64.675
873.055	63.6631
874.737	62.5208
876.418	60.4579
878.097	58.6066
879.778	57.4981
881.457	57.33
883.137	55.2162
884.817	54.7996
886.495	54.0776
888.174	52.7846
889.851	52.4106
891.53	51.7792
893.206	51.1771
894.884	50.6546
896.562	49.0608
898.237	48.3768
899.914	47.0185
901.589	46.6088
903.265	46.0638
904.94	44.9755
906.615	44.2941
908.289	43.5496
909.964	43.4636
911.637	41.3872
913.31	41.0416
914.984	40.0874
916.656	39.154
918.33	37.1612
920.001	36.4866
921.674	35.9252
923.345	35.0363
925.015	34.9129
926.687	33.9113
928.357	32.3895
930.028	31.4941
931.698	31.0618
933.366	29.8201
935.037	28.3357
936.705	27.3044
938.373	26.0745
940.043	25.082
941.71	24.2513
943.379	23.4684
945.046	23.2919
946.712	22.1758
948.378	22.2719
950.046	23.0162
951.711	25.0492
953.376	26.0596
955.043	26.0758
956.708	25.1401
958.372	24.8885
960.036	24.8455
961.701	25.8579
963.364	26.6963
965.027	27.4806
966.69	28.5047
968.354	29.9061
970.016	29.6435
971.678	30.3424
973.339	31.9212
975	33.5687
976.661	34.4376
978.324	35.323
979.984	35.7369
981.644	37.529
983.303	38.7228
984.962	39.9619
986.621	41.5696
988.282	42.3864
989.94	42.5772
991.598	43.6606
993.256	43.2535
994.913	43.0713
996.57	44.2117
998.227	43.413
999.884	43.9389
1001.54	43.2437
1003.2	44.0962
1004.85	44.0593
1006.51	43.6356
1008.16	44.3602
1009.82	44.5054
1011.47	43.7698
1013.12	43.6294
1014.78	43.3569
1016.43	43.5717
1018.08	44.3855
1019.74	44.376
1021.39	44.8176
1023.04	45.8157
1024.69	46.8361
1026.34	47.6778
1028	49.606
1029.65	49.7471
1031.3	50.987
1032.95	52.9295
1034.6	53.1029
1036.25	51.7724
1037.9	51.0744
1039.55	49.7467
1041.19	50.1328
1042.84	50.4362
1044.49	50.2525
1046.14	50.0066
1047.79	49.7009
1049.43	49.5
1051.08	48.3278
1052.73	47.7657
1054.37	47.5736
1056.02	46.9375
1057.66	47.1672
1059.31	46.4025
1060.95	45.1524
1062.6	44.2175
1064.24	43.7261
1065.88	41.9566
1067.53	40.1136
1069.17	38.8711
1070.81	36.2236
1072.46	34.1651
1074.1	32.7275
1075.74	30.6121
1077.38	29.7043
1079.02	28.0506
1080.66	25.9703
1082.3	25.6285
1083.94	24.1544
1085.58	22.779
1087.22	22.4046
1088.86	22.5861
1090.5	23.639
1092.14	23.5428
1093.78	23.76
1095.42	24.8129
1097.05	25.701
1098.69	27.3088
1100.33	27.9984
1101.97	27.7
1103.6	29.3602
1105.24	30.9707
1106.87	32.1876
1108.51	32.6235
1110.15	31.9882
1111.78	31.0417
1113.41	32.4873
1115.05	32.2186
1116.68	31.7837
1118.31	31.6454
1119.95	32.2099
1121.58	31.4922
1123.21	32.0941
1124.85	31.27
1126.48	31.4842
1128.11	32.2929
1129.74	31.757
1131.37	30.8179
1133	30.105
1134.63	29.28
1136.26	27.0593
1137.89	25.8659
1139.52	24.1968
1141.15	22.2657
1142.78	20.6635
1144.41	18.7389
1146.04	17.4459
1147.66	15.4489
1149.29	14.4082
1150.92	12.3685
1152.55	9.78895
1154.17	8.21206
1155.8	7.64519
1157.43	5.59815
1159.05	4.64109
1160.68	3.35186
1162.3	3.28297
1163.93	1.60897
1165.55	1.24241
1167.17	1.6772
1168.8	3.19441
1170.42	3.94032
1172.05	4.22204
1173.67	4.86871
1175.29	5.82145
1176.91	6.20149
1178.54	5.70274
1180.16	6.46376
1181.78	6.32997
1183.4	6.67287
1185.02	8.33951
1186.64	8.86819
1188.26	8.7851
1189.88	6.8074
1191.5	5.98066
1193.12	7.58507
1194.74	7.96403
1196.36	9.14267
1197.97	10.2433
1199.59	10.285
1201.21	10.2199
1202.83	11.4293
1204.44	12.4385
1206.06	14.4538
1207.68	16.8473
1209.29	17.3313
1210.91	18.1572
1212.52	18.7552
1214.14	20.3422
1215.75	22.0865
1217.37	23.3931
1218.98	25.5371
1220.6	27.5968
1222.21	31.1229
1223.82	33.8971
1225.44	35.9174
1227.05	38.2223
1228.66	40.1966
1230.27	42.1081
1231.88	43.7036
1233.49	46.0519
1235.1	47.5596
1236.72	51.1731
1238.33	53.4841
1239.94	57.4943
1241.55	60.4872
1243.16	63.0923
1244.76	64.8749
1246.37	68.311
1247.98	70.0271
1249.59	71.7791
1251.2	73.4612
1252.8	74.4866
1254.41	76.9417
1256.02	78.7233
1257.63	79.2268
1259.23	80.9805
1260.84	83.6155
1262.44	85.3872
1264.05	87.8724
1265.66	89.9304
1267.26	91.2166
1268.87	93.0023
1270.47	95.6392
1272.07	98.1043
1273.68	99.0888
1275.28	99.2408
1276.88	101.791
1278.48	102.08
1280.09	102.357
1281.69	105.086
1283.29	107.376
1284.89	108.331
1286.49	109.156
1288.09	109.013
1289.69	109.161
1291.3	110.337
1292.9	110.459
1294.49	111.562
1296.09	112.253
1297.69	111.559
1299.29	111.875
1300.89	113.101
1302.49	113.132
1304.09	113.239
1305.68	112.736
1307.28	111.943
1308.88	111.369
1310.47	110.885
1312.07	110.532
1313.66	109.774
1315.26	108.986
1316.86	109.867
1318.45	109.526
1320.05	108.162
1321.64	107.836
1323.23	106.763
1324.83	106.258
1326.42	105.456
1328.01	105.303
1329.61	104.031
1331.2	102.884
1332.79	100.939
1334.38	99.8066
1335.98	98.9516
1337.57	97.7101
1339.16	98.3734
1340.75	97.855
1342.34	96.9069
1343.93	95.9413
1345.52	95.0226
1347.11	93.8128
1348.7	92.6458
1350.29	92.0037
1351.87	89.4296
1353.46	88.0908
1355.05	86.7375
1356.64	86.179
1358.23	84.3609
1359.81	82.8522
1361.4	81.5685
1362.99	78.4629
1364.57	75.8396
1366.16	74.8882
1367.74	73.7326
1369.33	73.2693
1370.91	72.2392
1372.5	72.128
1374.08	71.3551
1375.67	71.3844
1377.25	70.4733
1378.83	70.7459
1380.42	70.2001
1382	69.8663
1383.58	69.9059
1385.16	68.9316
1386.75	68.3157
1388.33	67.6123
1389.91	67.9271
1391.49	68.1186
1393.07	67.4873
1394.65	67.2183
1396.23	69.1441
1397.81	68.3784
1399.39	67.6812
1400.97	68.7519
1402.55	68.9869
1404.13	69.0394
1405.7	68.7309
1407.28	69.5334
1408.86	70.248
1410.44	71.8159
1412.01	72.7271
1413.59	74.3954
1415.17	76.7745
1416.74	78.4508
1418.32	79.9335
1419.89	82.3226
1421.47	85.5374
1423.05	88.4363
1424.62	92.2451
1426.19	96.156
1427.77	100.888
1429.34	105.518
1430.92	108.06
1432.49	111.028
1434.06	113.469
1435.63	117.673
1437.2	120.633
1438.78	123.267
1440.35	125.117
1441.92	127.012
1443.49	128.88
1445.06	131.404
1446.63	132.087
1448.2	132.593
1449.77	133.323
1451.34	133.163
1452.91	131.859
1454.48	131.391
1456.05	129.676
1457.62	128.195
1459.18	124.769
1460.75	121.799
1462.32	117.975
1463.89	114.674
1465.45	110.942
1467.02	106.93
1468.59	102.112
1470.15	96.3812
1471.72	90.8268
1473.28	85.7942
1474.85	80.2867
1476.41	72.5333
1477.98	67.5355
1479.54	63.2176
1481.11	58.097
1482.67	52.8147
1484.23	47.7293
1485.8	43.9246
1487.36	39.7538
1488.92	35.0752
1490.48	30.9339
1492.05	27.9964
1493.61	25.8585
1495.17	23.7084
1496.73	22.0627
1498.29	21.9021
1499.85	21.6093
1501.41	20.6657
1502.97	21.9145
1504.53	22.2331
1506.09	22.2781
1507.65	22.0866
1509.2	22.5912
1510.76	23.57
1512.32	24.1793
1513.88	24.7993
1515.44	25.1055
1516.99	25.9344
1518.55	27.1972
1520.1	28.2184
1521.66	30.0943
1523.22	33.1451
1524.77	35.3558
1526.33	37.72
1527.88	39.7836
1529.44	41.0267
1530.99	42.7443
1532.55	45.704
1534.1	47.6058
1535.65	49.3556
1537.21	50.6179
1538.76	53.9802
1540.31	57.4968
1541.86	60.2867
1543.42	62.8378
1544.97	65.742
1546.52	68.9862
1548.07	71.5442
1549.62	75.0695
1551.17	77.7797
1552.72	81.0413
1554.27	84.7016
1555.82	88.0476
1557.37	90.6208
1558.92	92.8484
1560.47	95.8751
1562.02	98.5235
1563.57	101.732
1565.11	103.83
1566.66	106.358
1568.21	108.443
1569.75	110.459
1571.3	113.409
1572.85	115.719
1574.39	118.073
1575.94	120.437
1577.49	121.04
1579.03	120.618
1580.58	122.029
1582.12	122.17
1583.67	122.138
1585.21	122.672
1586.75	123.002
1588.3	122.209
1589.84	121.77
1591.38	121.077
1592.93	121.24
1594.47	120.257
1596.01	119.178
1597.55	118.047
1599.09	117.987
1600.63	117.166
1602.18	114.686
1603.72	113.17
1605.26	111.907
1606.8	110.223
1608.34	108.908
1609.87	107.904
1611.41	106.688
1612.95	105.71
1614.49	105.467
1616.03	106.169
1617.57	106.255
1619.11	105.819
1620.64	107.066
1622.18	108.11
1623.72	108.606
1625.25	109.204
1626.79	110.849
1628.32	111.902
1629.86	113.499
1631.4	114.379
1632.93	115.783
1634.47	116.585
1636	118.084
1637.53	120.629
1639.07	121.926
1640.6	123.417
1642.14	124.509
1643.67	126.728
1645.2	127.977
1646.73	129.917
1648.27	132.026
1649.8	132.282
1651.33	131.918
1652.86	131.484
1654.39	129.887
1655.92	130.651
1657.45	131.465
1658.98	130.566
1660.51	128.508
1662.04	127.462
1663.57	126.132
1665.1	123.579
1666.63	121.039
1668.16	117.631
1669.69	115.531
1671.21	112.054
1672.74	108.862
1674.27	105.481
1675.79	101.298
1677.32	96.8483
1678.85	92.517
1680.37	88.5266
1681.9	84.0304
1683.42	79.0746
1684.95	74.9121
1686.47	70.3702
1688	66.8456
1689.52	62.352
1691.05	58.7751
1692.57	55.3513
1694.1	51.4166
1695.62	47.8648
1697.14	44.7825
1698.66	41.4639
1700.19	38.3171
1701.71	36.4807
1703.23	33.2927
1704.75	31.594
1706.27	29.4452
1707.79	27.5065
1709.32	25.8836
1710.83	23.0656
1712.35	21.973
1713.88	20.9177
1715.39	18.7834
1716.91	17.9619
1718.43	16.8125
1719.95	16.8934
1721.47	14.9091
1722.99	13.9708
1724.5	13.1686
1726.02	11.5051
1727.54	10.5719
1729.06	11.3521
1730.57	10.923
1732.09	11.1098
1733.61	10.3518
1735.12	9.7313
1736.64	8.85468
1738.15	8.97977
1739.67	8.35585
1741.18	7.28958
1742.7	6.98435
1744.21	6.70651
1745.72	6.87434
1747.24	5.93211
1748.75	5.98042
1750.26	5.76758
1751.78	5.78113
1753.29	5.74815
1754.8	5.85349
1756.31	5.44401
1757.82	5.18958
1759.34	4.80738
1760.85	4.42912
1762.36	3.81772
1763.87	4.13353
1765.38	3.75648
1766.89	3.97069
1768.4	3.68015
1769.91	3.65423
1771.41	3.46953
1772.92	3.53266
1774.43	4.05085
1775.94	4.54081
1777.45	4.2792
1778.96	3.50553
1780.46	3.69037
1781.97	3.31616
1783.48	3.11421
1784.98	2.47155
1786.49	2.16795
1788	2.15542
1789.5	1.56163
1791.01	0.846036
1792.51	1.23785
1794.01	0.347402
1795.52	0.410639
1797.02	-0.766751
1798.53	0.156912
1800.03	0.00737647
1801.54	0.0644792
1803.04	0.463166
1804.54	0.676086
1806.04	-0.20593
1807.54	0.0455386
1809.05	0.00858295
1810.55	-0.864147
1812.05	-1.14221
1813.55	-0.936901
1815.05	-0.808455
1816.55	-0.71983
1818.05	-0.394921
1819.55	0.0137833
1821.05	0.278735
1822.55	0.608573
1824.05	0.653319
1825.55	0.482322
1827.05	0.516676
1828.55	-0.0191266
1830.04	0.251069
1831.54	-0.0660887
1833.04	0.26868
1834.54	0.249216
1836.03	0.98258
1837.53	1.05975
1839.03	1.42325
1840.52	1.43851
1842.02	1.8115
1843.51	2.03581
1845.01	2.32964
1846.5	2.48961
1848	2.72469
1849.49	3.00449
1850.99	3.40942
1852.48	2.95253
1853.97	3.65565
1855.47	3.70825
1856.96	3.90624
1858.45	4.18572
1859.94	4.51876
1861.44	4.36586
1862.93	3.75487
1864.42	4.30402
1865.91	4.61863
1867.4	4.75103
1868.89	3.94147
1870.38	3.87496
1871.87	3.94644
1873.36	4.1516
1874.85	3.32747
1876.34	3.23106
1877.83	2.79652
1879.32	2.97499
1880.81	3.78083
1882.3	4.56373
1882.56	4.23208
1884.06	3.60445
1885.55	3.83538
1887.04	4.91457
1888.54	4.6863
1890.03	4.62409
1891.52	4.32831
1893.02	4.35207
1894.51	4.24248
1896	4.00835
1897.49	3.69149
1898.99	4.13575
1900.48	4.90622
1901.97	4.62043
1903.46	4.50136
1904.95	3.92487
1906.44	4.52945
1907.93	5.01343
1909.42	5.44605
1910.91	4.78947
1912.4	4.80937
1913.89	6.02815
1915.38	6.35577
1916.86	6.52951
1918.35	6.50116
1919.84	6.06622
1921.33	5.18954
1922.82	6.03901
1924.3	5.29535
1925.79	4.55252
1927.28	4.75905
1928.76	4.40158
1930.25	4.2087
1931.74	4.04671
1933.22	3.32498
1934.71	2.78821
1936.19	3.25814
1937.67	3.06567
1939.16	2.01274
1940.64	1.57497
1942.13	1.40523
1943.61	1.3659
1945.09	1.65509
1946.58	0.898362
1948.06	0.909055
1949.54	1.10747
1951.03	1.00869
1952.51	1.73265
1953.99	1.57443
1955.47	0.961613
1956.95	0.689261
1958.43	0.315751
1959.91	1.03137
1961.39	1.4128
1962.87	0.232249
1964.35	0.413006
1965.83	0.534313
1967.31	1.11198
1968.79	0.790578
1970.27	0.857493
1971.75	1.77374
1973.22	1.93478
1974.7	1.54426
1976.18	1.13615
1977.66	1.52534
1979.13	1.60225
1980.61	2.46852
1982.09	2.42517
1983.56	1.41347
1985.04	2.15218
1986.52	2.78498
1987.99	2.83109
1989.47	2.47675
1990.94	2.29325
1992.41	2.4205
1993.89	1.80156
1995.36	1.98827
1996.84	3.0567
1998.31	2.67937
1999.78	3.19748
2001.26	4.11967
2002.73	4.44185
2004.2	4.51994
2005.67	5.04667
2007.15	5.53225
2008.62	5.84494
2010.09	5.63498
2011.56	4.96946
2013.03	4.93489
2014.5	4.84259
2015.97	4.98015
2017.44	4.68357
2018.91	4.62611
2020.38	4.12799
2021.85	4.45527
2023.32	3.79683
2024.79	4.13553
2026.25	4.11752
2027.72	4.08386
2029.19	4.36968
2030.66	4.66968
2032.13	4.11426
2033.59	4.55959
2035.06	4.86156
2036.53	5.02175
2037.99	4.98628
2039.46	5.04698
2040.92	5.23647
2042.39	6.00299
2043.85	6.96843
2045.32	7.32422
2046.78	7.32359
2048.25	7.93568
2049.71	7.91542
2051.18	7.68212
2052.64	7.53676
2054.1	8.09935
2055.56	8.35294
2057.03	8.61491
2058.49	10.4314
2059.95	10.9098
2061.42	11.1536
2062.88	12.1727
2064.34	13.0137
2065.8	13.9761
2067.26	15.1837
2068.72	16.6833
2070.18	18.7924
2071.64	20.1143
2073.1	21.408
2074.56	22.6923
2076.02	23.8576
2077.48	25.4424
2078.94	26.3914
2080.39	27.697
2081.85	29.2264
2083.31	29.892
2084.77	30.9614
2086.22	32.3668
2087.68	33.6641
2089.14	35.5541
2090.6	36.432
2092.05	37.83
2093.51	39.3323
2094.96	41.1488
2096.42	43.1388
2097.87	45.265
2099.33	47.2492
2100.78	50.121
2102.24	52.3228
2103.69	54.8755
2105.15	56.8012
2106.6	59.9968
2108.05	62.8262
2109.51	64.8654
2110.96	67.8026
2112.41	71.3434
2113.86	74.3139
2115.32	76.9619
2116.77	79.6332
2118.22	82.6999
2119.67	85.0308
2121.12	87.3719
2122.57	89.3902
2124.02	92.8066
2125.47	96.1645
2126.92	99.2828
2128.37	102.068
2129.82	105.081
2131.27	109.098
