#Acq. time (s)=	45
#Accumulations=	2
#Range (cm-¹)=	200...3150
#Windows=	2
#Auto scanning=	Off
#Autofocus=	Off
#Macrospot=	Off
#AutoExposure=	Off
#Spike filter=	Multiple accum.
#Delay time (s)=	0
#Binning=	1
#Readout mode=	Signal
#DeNoise=	Off
#ICS correction=	On
#Dark correction=	Off
#Inst. Process=	Off
#Detector Gain=	Best Dynamic Range
#Detector ADC=	20 kHz       
#Detector temperature (°C)=	-69.85
#Instrument=	LabRAM HR Evol
#Detector=	Synapse
#Objective=	x100
#Grating=	600 gr/mm
#ND Filter=	100%
#Laser (nm)=	532 
#Hole=	100.021
#Range=	Auto
#Laser Pol.=	No
#Raman. Pol.=	No
#Laser Pol. (°)=	-0.0007625
#Raman Pol. (°)=	89.9995
#Collection=	Microscope
#StageXY=	Marzhauser
#StageZ=	Marzhauser
#X (µm)=	231.2
#Y (µm)=	1688.1
#Z (µm)=	427.55
#Full time(mm:ss)=	3:18
#Project=	
#Sample=	
#Site=	
#Title=	Thy_40_11_37_2x_45s_532 nm_x100_100%_600 gr_mm
#Remark=	
#Date=	05.07.2022 12:38
#Acquired=	05.07.2022 12:38:37
#Base:Fit=	10.08.2022 10:01:35
#Base:Sub=	10.08.2022 10:01:52
#Filter:Polynom=	16.08.2022 10:21:53
#AxisType[0]=Intens
#AxisUnit[0]=Cnt
#AxisType[1]=Spectr
#AxisUnit[1]=1/cm
200.43	23.6476
202.244	23.5188
204.059	22.4542
205.873	21.5307
207.688	20.7767
209.501	19.8079
211.314	18.4056
213.127	16.9656
214.941	15.5649
216.753	15.4191
218.564	13.6366
220.375	12.172
222.186	10.6266
223.999	9.44291
225.809	8.94753
227.618	8.67557
229.428	6.96914
231.236	6.51038
233.045	6.34696
234.855	6.29214
236.663	5.94503
238.471	5.78606
240.278	6.07195
242.085	6.07573
243.891	6.17284
245.698	5.82999
247.503	5.21106
249.309	5.24922
251.116	5.0688
252.921	6.0151
254.725	5.15071
256.529	4.93301
258.333	5.1788
260.136	4.3176
261.939	4.45867
263.742	4.81355
265.544	5.10113
267.346	5.29405
269.148	5.95892
270.949	5.11122
272.75	4.88444
274.55	4.8409
276.351	5.21917
278.15	5.18988
279.95	5.54633
281.749	5.15764
283.548	6.34862
285.346	6.48298
287.144	6.01151
288.942	6.04498
290.739	5.08062
292.536	5.36974
294.333	5.34753
296.129	5.79666
297.925	5.29855
299.721	5.50746
301.514	5.18601
303.309	5.63769
305.104	5.56057
306.898	6.10406
308.692	5.0729
310.486	5.20833
312.279	4.85742
314.072	4.70937
315.862	4.98096
317.654	4.82631
319.446	4.80345
321.238	5.65738
323.029	5.96001
324.819	5.93367
326.608	6.27822
328.398	7.23853
330.188	7.56843
331.977	6.87494
333.766	6.13306
335.553	6.38742
337.341	6.67813
339.129	7.26991
340.917	6.5572
342.704	6.48503
344.489	5.88908
346.275	6.13514
348.062	5.7271
349.845	4.94776
351.631	5.07974
353.416	5.37466
355.201	5.00662
356.984	4.33555
358.768	3.5125
360.552	2.34866
362.333	2.61925
364.116	2.73147
365.899	2.46403
367.68	2.3081
369.462	1.60669
371.243	2.15313
373.023	2.38821
374.804	1.64984
376.585	2.09299
378.363	2.76725
380.143	3.34984
381.923	4.31314
383.7	4.61074
385.479	5.20301
387.256	4.75872
389.034	4.1735
390.812	3.68623
392.588	4.01635
394.365	3.68393
396.14	4.67238
397.916	4.51538
399.691	4.98275
401.467	4.82339
403.24	5.38227
405.015	6.40683
406.788	5.93439
408.563	6.58758
410.335	7.19322
412.109	8.23479
413.88	9.11843
415.654	9.98019
417.424	10.6645
419.197	10.0376
420.967	9.77935
422.739	9.72777
424.508	10.925
426.279	9.74534
428.048	10.2603
429.819	9.73252
431.587	10.2178
433.356	9.86082
435.124	10.0657
436.891	9.69859
438.66	9.45012
440.426	9.02603
442.194	9.14035
443.96	8.06148
445.725	7.31942
447.492	6.93455
449.257	7.08349
451.021	7.46888
452.787	7.70576
454.551	8.01742
456.314	9.29786
458.079	9.37073
459.842	10.5653
461.604	10.9008
463.368	11.9802
465.13	12.7576
466.891	12.5392
468.654	12.5449
470.415	12.3632
472.175	12.8278
473.935	12.6951
475.696	13.263
477.456	13.4489
479.215	15.0069
480.973	15.8245
482.733	16.7229
484.491	17.7449
486.249	17.9661
488.006	18.4106
489.765	18.2028
491.522	19.0982
493.278	19.2314
495.034	19.1265
496.789	20.3616
498.544	20.6975
500.301	20.9623
502.056	19.9778
503.81	19.6549
505.564	19.8445
507.317	19.968
509.071	20.4113
510.825	20.7956
512.578	20.9691
514.33	21.2878
516.082	22.142
517.833	21.1022
519.585	21.5791
521.335	21.0908
523.086	20.5928
524.836	20.4997
526.586	20.1145
528.335	19.2097
530.085	19.7161
531.835	18.6725
533.584	19.0422
535.332	18.4713
537.08	18.5622
538.827	18.7778
540.574	18.6512
542.321	18.9694
544.068	17.7641
545.814	16.4483
547.56	16.8362
549.305	16.5207
551.05	15.4838
552.795	14.3162
554.54	12.7967
556.282	11.8317
558.025	11.1488
559.769	11.1663
561.512	10.7486
563.255	10.4422
564.997	9.99462
566.739	9.66783
568.481	8.89229
570.223	7.4074
571.964	6.5668
573.705	5.343
575.443	5.03545
577.183	4.45273
578.923	4.01351
580.663	3.23632
582.402	3.01091
584.141	2.89061
585.879	2.83626
587.615	3.19609
589.353	3.24929
591.09	4.10313
592.828	4.97808
594.564	5.70538
596.299	6.2179
598.035	6.62862
599.771	7.25309
601.506	8.30352
603.242	8.47941
604.974	9.65465
606.709	10.7611
608.443	10.8116
610.177	11.2262
611.908	12.5527
613.642	13.1189
615.374	14.073
617.105	14.8282
618.837	14.5792
620.569	15.4364
622.3	15.2718
624.03	15.2946
625.761	15.3318
627.491	15.3459
629.219	15.535
630.949	14.851
632.677	15.7984
634.406	16.3516
636.135	15.6874
637.861	15.1471
639.59	15.4773
641.318	15.6509
643.043	16.2939
644.77	17.5145
646.495	17.7173
648.222	17.7309
649.948	18.1825
651.672	18.2334
653.398	17.9762
655.121	18.7021
656.846	19.0114
658.569	19.2979
660.293	19.3401
662.015	20.1039
663.738	19.7937
665.46	20.2277
667.183	20.6201
668.903	21.6098
670.626	22.714
672.346	22.529
674.067	23.5604
675.787	24.7923
677.508	25.4987
679.226	26.7462
680.947	27.347
682.665	28.0628
684.385	29.217
686.102	30.4052
687.821	32.0447
689.538	33.4614
691.254	34.3791
692.972	34.4085
694.688	34.6783
696.406	35.4441
698.121	36.8352
699.835	37.7613
701.552	38.1439
703.266	38.4452
704.98	38.8384
706.695	39.1901
708.409	40.0961
710.121	40.7725
711.836	42.3624
713.548	43.7282
715.26	44.9327
716.973	45.5063
718.685	45.81
720.396	46.2654
722.108	47.339
723.818	48.7815
725.528	49.9384
727.238	49.9719
728.949	49.7876
730.658	50.4992
732.367	51.0638
734.075	52.99
735.785	54.6402
737.493	55.8548
739.2	57.7905
740.907	59.3858
742.614	59.8659
744.322	60.7042
746.028	62.4877
747.734	63.7847
749.439	65.06
751.144	67.1215
752.849	69.0691
754.555	71.0176
756.26	72.3534
757.963	73.6214
759.667	76.3536
761.37	78.145
763.073	78.3757
764.775	79.9891
766.477	81.6453
768.179	83.179
769.883	85.0727
771.584	85.7843
773.285	87.304
774.986	88.0392
776.686	88.6667
778.386	89.1345
780.085	89.9002
781.785	91.2691
783.484	91.8795
785.182	91.9608
786.881	92.4963
788.579	93.077
790.276	93.3971
791.974	94.0955
793.671	94.8367
795.367	93.8233
797.064	93.8687
798.76	92.926
800.456	91.7252
802.151	90.4628
803.846	89.1552
805.541	88.6027
807.234	89.0685
808.928	88.3799
810.622	87.1821
812.315	85.9814
814.008	85.8333
815.701	86.1177
817.394	86.4314
819.086	86.7763
820.778	86.0586
822.468	86.1486
824.159	86.1863
825.85	85.511
827.541	85.4942
829.231	85.645
830.921	85.521
832.609	85.5542
834.298	85.3141
835.987	85.6861
837.676	85.9486
839.364	85.6415
841.051	85.6593
842.738	84.9329
844.426	84.4235
846.113	83.0657
847.798	81.8759
849.484	81.6523
851.171	80.7677
852.857	79.6721
854.54	78.705
856.226	77.4683
857.911	76.4214
859.593	75.1768
861.278	73.6875
862.961	71.684
864.645	71.1173
866.327	69.4248
868.01	68.5695
869.692	67.9223
871.373	67.5362
873.055	65.6511
874.735	64.4907
876.416	63.5574
878.097	61.8843
879.776	60.324
881.457	59.6188
883.135	58.399
884.815	57.9993
886.495	57.4887
888.172	56.9022
889.851	56.1493
891.528	56.2272
893.206	54.9262
894.882	53.5504
896.56	53.276
898.237	52.4293
899.912	51.8919
901.589	51.3831
903.263	50.8779
904.94	50.3874
906.614	49.7708
908.289	49.4795
909.962	49.2851
911.635	49.4058
913.31	49.6334
914.982	49.62
916.656	49.2918
918.328	49.9426
920.001	50.1646
921.672	49.7919
923.345	48.6921
925.015	47.8285
926.685	47.0964
928.357	46.5775
930.026	45.6183
931.698	45.5328
933.366	44.4034
935.035	44.0046
936.705	43.9056
938.373	43.4018
940.041	43.0385
941.71	42.6539
943.377	42.5304
945.044	41.8884
946.712	41.0134
948.378	41.177
950.044	40.403
951.709	41.8447
953.376	41.1795
955.041	41.1909
956.706	40.9259
958.372	40.727
960.036	40.4899
961.699	40.0055
963.362	40.2395
965.027	40.4683
966.69	40.9024
968.352	40.9214
970.014	40.3829
971.676	40.2365
973.339	40.9698
975	41.5671
976.661	41.3119
978.322	40.9101
979.982	40.3372
981.642	39.5925
983.303	39.163
984.962	39.1337
986.621	39.2908
988.28	39.973
989.938	40.2741
991.596	41.2497
993.254	41.3177
994.911	41.5637
996.57	41.4748
998.227	41.1503
999.884	40.8761
1001.54	40.4111
1003.2	38.6458
1004.85	38.4092
1006.51	38.2782
1008.16	38.2551
1009.82	37.6376
1011.47	36.952
1013.12	36.6833
1014.78	35.952
1016.43	36.3688
1018.08	36.6625
1019.74	35.3183
1021.39	34.4898
1023.04	33.501
1024.69	32.7811
1026.34	31.972
1028	31.0117
1029.65	31.3753
1031.3	31.8508
1032.95	32.6153
1034.6	32.11
1036.25	32.0079
1037.9	32.8598
1039.54	32.4438
1041.19	31.4803
1042.84	31.992
1044.49	31.5292
1046.14	32.1086
1047.78	31.5807
1049.43	31.094
1051.08	30.3287
1052.72	30.1485
1054.37	29.3524
1056.02	29.0658
1057.66	27.8449
1059.31	27.0366
1060.95	26.6831
1062.6	26.6605
1064.24	27.7466
1065.88	27.4399
1067.53	27.7063
1069.17	27.2473
1070.81	26.8185
1072.45	25.7063
1074.1	25.0081
1075.74	24.1825
1077.38	23.2134
1079.02	22.0175
1080.66	21.5909
1082.3	20.2869
1083.94	19.7584
1085.58	19.3038
1087.22	18.9614
1088.86	17.6234
1090.5	17.4243
1092.14	16.3759
1093.78	16.6128
1095.42	15.5696
1097.05	15.1923
1098.69	15.8228
1100.33	14.1474
1101.96	13.5366
1103.6	13.9109
1105.24	12.919
1106.87	13.2743
1108.51	13.1622
1110.14	13.6657
1111.78	14.2685
1113.41	13.5478
1115.05	13.302
1116.68	12.9505
1118.31	12.7974
1119.95	11.1146
1121.58	9.13473
1123.21	8.33859
1124.85	8.41203
1126.48	7.23847
1128.11	6.18816
1129.74	5.02984
1131.37	5.0132
1133	4.89134
1134.63	4.64137
1136.26	4.0174
1137.89	4.09138
1139.52	4.40555
1141.15	4.27361
1142.78	4.80622
1144.41	4.85197
1146.04	4.28582
1147.66	3.19013
1149.29	2.55345
1150.92	2.61625
1152.55	2.21352
1154.17	2.12326
1155.8	2.05985
1157.43	1.5736
1159.05	1.56909
1160.68	2.00809
1162.3	2.71726
1163.93	2.849
1165.55	3.04571
1167.17	2.58457
1168.8	2.72719
1170.42	3.38037
1172.05	3.8073
1173.67	3.05106
1175.29	3.47158
1176.91	3.59484
1178.54	4.36157
1180.16	4.73984
1181.78	4.86235
1183.4	5.58503
1185.02	5.46685
1186.64	5.64344
1188.26	6.5028
1189.88	6.85242
1191.5	6.80665
1193.12	6.99722
1194.74	7.08871
1196.36	7.24231
1197.97	7.33329
1199.59	6.96615
1201.21	8.55872
1202.83	10.3259
1204.44	12.4751
1206.06	14.2367
1207.68	13.9706
1209.29	15.4167
1210.91	16.6763
1212.52	17.182
1214.14	17.8814
1215.75	17.8779
1217.37	18.5034
1218.98	19.1447
1220.59	20.4538
1222.21	21.5797
1223.82	22.6773
1225.43	23.2842
1227.05	24.4262
1228.66	25.2593
1230.27	26.161
1231.88	27.3439
1233.49	28.882
1235.1	30.4188
1236.72	31.248
1238.33	32.3182
1239.94	33.8606
1241.55	34.6422
1243.16	35.387
1244.76	35.6502
1246.37	35.3871
1247.98	36.1795
1249.59	36.9927
1251.2	38.4626
1252.8	38.2191
1254.41	38.6057
1256.02	39.0323
1257.62	39.599
1259.23	40.1292
1260.84	40.7636
1262.44	41.5312
1264.05	42.0509
1265.66	42.1056
1267.26	43.598
1268.86	44.171
1270.47	44.782
1272.07	45.2751
1273.67	46.7122
1275.28	47.2395
1276.88	47.5226
1278.48	49.3186
1280.09	51.3249
1281.69	52.8856
1283.29	53.1332
1284.89	53.5078
1286.49	53.164
1288.09	53.0953
1289.69	53.809
1291.29	53.5416
1292.89	53.8312
1294.49	54.8339
1296.09	54.4967
1297.69	55.3828
1299.29	56.1047
1300.89	56.6024
1302.49	57.2431
1304.08	57.5345
1305.68	58.174
1307.28	58.2554
1308.88	58.5333
1310.47	59.4945
1312.07	59.861
1313.66	60.169
1315.26	58.834
1316.85	58.1729
1318.45	57.3297
1320.04	56.8667
1321.64	56.451
1323.23	56.0077
1324.83	55.1471
1326.42	53.645
1328.01	52.9739
1329.61	51.9386
1331.2	50.9523
1332.79	49.4799
1334.38	49.1676
1335.97	48.1023
1337.56	47.1436
1339.16	46.3825
1340.75	45.4063
1342.34	44.6852
1343.93	43.4374
1345.52	42.1078
1347.11	41.6756
1348.7	40.4132
1350.29	39.7739
1351.87	38.2566
1353.46	37.0459
1355.05	36.0591
1356.64	35.3204
1358.22	35.3317
1359.81	34.4036
1361.4	32.8959
1362.98	31.5527
1364.57	30.322
1366.16	29.1383
1367.74	28.2856
1369.33	28.2001
1370.91	27.9425
1372.5	27.3585
1374.08	26.3779
1375.67	25.2782
1377.25	25.6112
1378.83	24.9728
1380.41	23.9292
1382	23.107
1383.58	22.7135
1385.16	21.6437
1386.74	21.5689
1388.33	21.5115
1389.91	20.4664
1391.49	19.4131
1393.07	18.7627
1394.65	17.438
1396.23	17.6905
1397.81	16.7821
1399.39	16.8011
1400.97	17.0148
1402.55	16.3554
1404.13	15.2856
1405.7	15.0443
1407.28	15.348
1408.86	16.7033
1410.44	16.9618
1412.01	17.653
1413.59	17.5319
1415.17	18.0706
1416.74	19.7606
1418.32	21.8188
1419.89	23.4378
1421.47	24.5819
1423.04	25.4577
1424.62	27.4392
1426.19	29.5552
1427.77	31.0188
1429.34	32.6898
1430.91	34.618
1432.49	37.6453
1434.06	39.8224
1435.63	41.5993
1437.2	43.3243
1438.78	45.2067
1440.35	46.4806
1441.92	47.5465
1443.49	49.2781
1445.06	51.1257
1446.63	52.5648
1448.2	53.7879
1449.77	53.8706
1451.34	54.0191
1452.91	54.071
1454.48	54.2254
1456.05	53.6669
1457.62	52.8761
1459.18	51.7009
1460.75	51.2096
1462.32	49.9345
1463.89	48.976
1465.45	47.4964
1467.02	45.1508
1468.59	43.1372
1470.15	40.477
1471.72	38.0275
1473.28	35.0504
1474.85	32.8679
1476.41	29.6387
1477.98	27.3714
1479.54	25.0913
1481.1	21.9343
1482.67	19.1068
1484.23	17.5331
1485.79	15.5452
1487.36	14.1591
1488.92	11.4071
1490.48	10.094
1492.04	8.93649
1493.61	8.34826
1495.17	7.31354
1496.73	5.61452
1498.29	4.03294
1499.85	2.37379
1501.41	2.09202
1502.97	3.05153
1504.53	2.85956
1506.09	2.93468
1507.65	4.06084
1509.2	4.01016
1510.76	4.66268
1512.32	4.51245
1513.88	4.63448
1515.43	5.18216
1516.99	6.15312
1518.55	7.43995
1520.1	8.34997
1521.66	9.79217
1523.22	11.009
1524.77	11.8846
1526.33	12.8154
1527.88	13.983
1529.44	13.8822
1530.99	14.0938
1532.54	15.1648
1534.1	15.2011
1535.65	15.6322
1537.21	15.019
1538.76	15.5025
1540.31	16.1075
1541.86	17.3398
1543.42	18.2755
1544.97	18.9966
1546.52	19.8122
1548.07	21.0022
1549.62	22.2387
1551.17	22.8205
1552.72	23.5021
1554.27	23.623
1555.82	24.0352
1557.37	24.8519
1558.92	25.8034
1560.47	26.9245
1562.02	28.6608
1563.56	29.9067
1565.11	31.317
1566.66	31.5469
1568.21	32.7305
1569.75	33.5326
1571.3	34.7663
1572.85	35.1889
1574.39	35.403
1575.94	37.0014
1577.49	38.5409
1579.03	40.4418
1580.57	41.689
1582.12	42.6037
1583.66	44.1202
1585.21	45.2364
1586.75	45.5788
1588.3	47.3363
1589.84	47.8199
1591.38	48.7052
1592.92	49.6175
1594.47	50.2181
1596.01	50.442
1597.55	50.0799
1599.09	49.4906
1600.63	49.0738
1602.17	48.363
1603.71	47.9004
1605.25	46.6191
1606.79	46.0957
1608.33	45.0825
1609.87	45.0411
1611.41	44.0612
1612.95	44.5631
1614.49	45.0286
1616.03	45.3679
1617.57	46.2915
1619.1	46.5021
1620.64	47.2109
1622.18	46.7204
1623.72	47.4684
1625.25	48.8338
1626.79	48.6176
1628.32	48.8817
1629.86	49.8571
1631.39	50.767
1632.93	51.1612
1634.46	51.6338
1636	52.7712
1637.53	53.2571
1639.07	53.5315
1640.6	55.0467
1642.13	56.3546
1643.67	56.5306
1645.2	57.8266
1646.73	58.686
1648.26	59.8233
1649.8	60.8537
1651.33	62.0187
1652.86	63.7545
1654.39	64.4789
1655.92	64.7307
1657.45	65.679
1658.98	66.5066
1660.51	65.9282
1662.04	65.3143
1663.57	64.9132
1665.1	64.1048
1666.63	63.2685
1668.16	62.4283
1669.68	60.8183
1671.21	59.7597
1672.74	58.9836
1674.27	57.1839
1675.79	55.5073
1677.32	54.4924
1678.85	53.3529
1680.37	51.0732
1681.9	48.1539
1683.42	46.7133
1684.95	45.2814
1686.47	44.7833
1688	42.6387
1689.52	40.9454
1691.05	38.5126
1692.57	35.9672
1694.09	34.447
1695.62	33.1793
1697.14	32.3017
1698.66	31.1176
1700.18	30.0559
1701.71	28.4431
1703.23	26.6015
1704.75	24.9951
1706.27	23.8068
1707.79	22.0639
1709.31	20.2864
1710.83	19.2848
1712.35	18.8225
1713.87	17.8085
1715.39	17.6136
1716.91	18.0761
1718.43	16.6124
1719.95	15.8365
1721.47	15.6849
1722.99	15.5112
1724.5	15.3433
1726.02	14.9258
1727.54	13.976
1729.06	13.4873
1730.57	13.1058
1732.09	12.7813
1733.61	12.836
1735.12	11.7427
1736.64	10.6032
1738.15	10.635
1739.67	10.6118
1741.18	10.0337
1742.7	10.1771
1744.21	9.51595
1745.72	8.63794
1747.24	8.76984
1748.75	8.3969
1750.26	8.18979
1751.77	7.89286
1753.29	7.33973
1754.8	6.65125
1756.31	5.59583
1757.82	5.45902
1759.33	5.92022
1760.84	6.12604
1762.36	5.05806
1763.87	3.67983
1765.38	3.57436
1766.89	2.52622
1768.4	2.65495
1769.91	2.83548
1771.41	3.15993
1772.92	2.51603
1774.43	2.35118
1775.94	1.81187
1777.45	1.61179
1778.95	1.5086
1780.46	1.59774
1781.97	1.61343
1783.48	1.68524
1784.98	1.12328
1786.49	1.13755
1787.99	1.88129
1789.5	2.10313
1791.01	2.62775
1792.51	2.55146
1794.01	2.14044
1795.52	2.24469
1797.02	2.10827
1798.53	2.21058
1800.03	2.27558
1801.53	1.9687
1803.04	2.18141
1804.54	2.35138
1806.04	2.76037
1807.54	2.59506
1809.05	2.44049
1810.55	2.03987
1812.05	1.91596
1813.55	1.84244
1815.05	1.94685
1816.55	1.61601
1818.05	1.84881
1819.55	2.21964
1821.05	2.29891
1822.55	2.85913
1824.05	3.28423
1825.55	3.56898
1827.05	2.97134
1828.55	2.65559
1830.04	2.24677
1831.54	2.44202
1833.04	2.62986
1834.54	3.05852
1836.03	2.74155
1837.53	2.26393
1839.03	1.86372
1840.52	1.80549
1842.02	1.12708
1843.51	1.18068
1845.01	1.24856
1846.5	1.65308
1848	1.13734
1849.49	0.945447
1850.99	0.475298
1852.48	0.388268
1853.97	0.211368
1855.47	0.00792096
1856.96	-0.0678386
1858.45	0.285606
1859.94	-0.0164896
1861.44	0.144801
1862.93	0.176471
1864.42	0.343997
1865.91	0.705045
1867.4	0.22201
1868.89	0.36426
1870.38	0.554193
1871.87	1.18167
1873.36	1.54194
1874.85	1.23222
1876.34	1.57988
1877.83	2.15796
1879.32	2.10329
1880.81	1.79007
1882.3	1.81373
1882.57	1.47295
1884.07	1.56243
1885.56	1.24303
1887.06	1.59029
1888.55	2.03721
1890.04	2.74644
1891.54	3.51986
1893.03	3.88345
1894.52	3.96361
1896.02	4.48204
1897.51	5.00069
1899	4.3923
1900.49	4.59877
1901.98	4.93006
1903.47	4.77667
1904.96	4.79734
1906.45	4.93535
1907.94	5.25434
1909.43	4.93899
1910.92	5.12518
1912.41	4.48886
1913.9	4.25118
1915.39	4.32642
1916.88	4.32656
1918.37	4.452
1919.85	4.16849
1921.34	3.6431
1922.83	3.55598
1924.32	4.16897
1925.8	4.19459
1927.29	4.19837
1928.78	4.40257
1930.26	4.7196
1931.75	4.38877
1933.23	4.13082
1934.72	4.56451
1936.2	5.22209
1937.69	4.82066
1939.17	4.4461
1940.66	4.4392
1942.14	4.60255
1943.63	4.77542
1945.11	4.67273
1946.59	4.13707
1948.07	3.41928
1949.56	3.59836
1951.04	2.96282
1952.52	2.67682
1954	2.67337
1955.48	2.97649
1956.96	2.2319
1958.45	1.90804
1959.93	1.71415
1961.41	2.63957
1962.89	2.74838
1964.37	3.12968
1965.85	2.541
1967.32	2.25504
1968.8	1.75755
1970.28	1.98083
1971.76	2.20542
1973.24	1.79672
1974.72	2.40617
1976.19	2.12315
1977.67	1.11262
1979.15	1.54413
1980.63	1.9462
1982.1	1.78723
1983.58	1.82113
1985.05	1.21668
1986.53	0.913663
1988	1.50225
1989.48	2.21335
1990.95	2.38836
1992.43	2.41949
1993.9	2.97337
1995.38	2.70406
1996.85	3.1093
1998.32	3.88747
1999.8	4.33004
2001.27	4.06494
2002.74	4.29922
2004.22	5.0617
2005.69	5.66875
2007.16	6.3598
2008.63	6.91726
2010.1	6.80518
2011.57	6.58679
2013.04	6.67531
2014.51	7.22156
2015.98	7.20617
2017.45	7.05567
2018.92	6.29636
2020.39	5.93792
2021.86	6.40907
2023.33	7.05311
2024.8	7.23116
2026.27	7.59589
2027.74	7.49232
2029.2	7.75745
2030.67	7.64217
2032.14	7.91772
2033.61	8.58451
2035.07	8.67109
2036.54	8.19016
2038.01	8.1987
2039.47	7.76127
2040.94	7.94821
2042.4	7.71424
2043.87	8.17214
2045.33	7.84344
2046.8	7.35971
2048.26	7.27034
2049.72	6.74853
2051.19	5.97564
2052.65	6.81559
2054.12	6.64125
2055.58	6.82856
2057.04	7.45092
2058.5	6.62945
2059.97	6.76206
2061.43	7.12548
2062.89	7.20223
2064.35	6.88276
2065.81	7.08304
2067.27	7.74875
2068.73	7.52628
2070.19	8.74832
2071.65	9.48657
2073.11	9.91917
2074.57	10.1528
2076.03	11.1145
2077.49	11.6854
2078.95	11.2077
2080.41	11.4001
2081.87	11.7053
2083.32	11.9329
2084.78	12.7112
2086.24	12.7034
2087.7	13.5015
2089.15	13.9587
2090.61	13.9846
2092.07	14.2695
2093.52	15.2235
2094.98	16.2424
2096.43	16.9991
2097.89	17.881
2099.34	18.8097
2100.8	19.5115
2102.25	20.4323
2103.71	20.8055
2105.16	21.1611
2106.61	21.9062
2108.07	22.2885
2109.52	22.8541
2110.97	23.6483
2112.43	25.2065
2113.88	26.5085
2115.33	26.9163
2116.78	27.6566
2118.23	28.5178
2119.68	29.6427
2121.13	30.4339
2122.59	30.8917
2124.04	31.8393
2125.49	33.4217
2126.94	34.206
2128.39	35.1085
2129.83	35.7425
2131.28	36.3022
2132.73	38.0146
2134.18	39.1217
2135.63	40.4275
