#Acq. time (s)=	45
#Accumulations=	2
#Range (cm-¹)=	200...3150
#Windows=	2
#Auto scanning=	Off
#Autofocus=	Off
#Macrospot=	Off
#AutoExposure=	Off
#Spike filter=	Multiple accum.
#Delay time (s)=	0
#Binning=	1
#Readout mode=	Signal
#DeNoise=	Off
#ICS correction=	On
#Dark correction=	Off
#Inst. Process=	Off
#Detector Gain=	Best Dynamic Range
#Detector ADC=	20 kHz       
#Detector temperature (°C)=	-69.85
#Instrument=	LabRAM HR Evol
#Detector=	Synapse
#Objective=	x100
#Grating=	600 gr/mm
#ND Filter=	100%
#Laser (nm)=	532 
#Hole=	100.021
#Range=	Auto
#Laser Pol.=	No
#Raman. Pol.=	No
#Laser Pol. (°)=	-0.0007625
#Raman Pol. (°)=	89.9995
#Collection=	Microscope
#StageXY=	Marzhauser
#StageZ=	Marzhauser
#X (µm)=	-5126
#Y (µm)=	1482.5
#Z (µm)=	62.85
#Full time(mm:ss)=	3:19
#Project=	
#Sample=	
#Site=	
#Title=	Thy_50_12_15_2x_45s_532 nm_x100_100%_600 gr_mm
#Remark=	
#Date=	07.07.2022 10:20
#Acquired=	07.07.2022 10:20:50
#Base:Fit=	10.08.2022 10:04:29
#Base:Sub=	10.08.2022 10:04:45
#Filter:Polynom=	16.08.2022 10:20:24
#AxisType[0]=Intens
#AxisUnit[0]=Cnt
#AxisType[1]=Spectr
#AxisUnit[1]=1/cm
200.43	-4.35993
202.246	-1.81651
204.061	0.608089
205.875	1.47149
207.688	2.18344
209.501	2.53658
211.316	2.94414
213.129	3.92815
214.941	3.36748
216.753	3.91465
218.566	4.36811
220.377	4.23885
222.188	4.13598
223.999	5.11806
225.809	5.25262
227.618	5.49933
229.43	4.85767
231.239	5.36731
233.047	5.62473
234.855	5.681
236.663	5.58579
238.471	5.24304
240.278	5.51855
242.087	6.06099
243.894	6.26977
245.7	5.53674
247.506	5.78271
249.311	6.07023
251.116	5.20794
252.921	4.24576
254.725	4.43503
256.529	4.62796
258.333	3.56728
260.136	3.5407
261.939	3.162
263.744	2.92339
265.546	3.64743
267.348	3.21994
269.15	3.03907
270.951	3.80726
272.752	3.12097
274.552	3.19004
276.353	2.96934
278.152	2.49812
279.952	2.74601
281.751	2.06911
283.55	2.90762
285.348	2.85016
287.146	3.86763
288.942	3.69471
290.739	3.37393
292.536	2.44148
294.333	2.53673
296.129	3.67764
297.925	3.85298
299.721	3.57975
301.516	4.4862
303.311	4.98377
305.106	4.96533
306.9	6.49832
308.694	6.82847
310.486	6.67044
312.279	7.63285
314.072	8.06572
315.864	7.96593
317.656	7.88352
319.448	7.47195
321.24	8.45136
323.029	8.52132
324.819	8.59554
326.61	8.64792
328.4	8.3535
330.19	9.38068
331.977	9.4956
333.766	9.35244
335.555	8.95484
337.343	9.88002
339.131	9.17632
340.917	8.47203
342.704	8.79136
344.491	9.12479
346.277	9.6229
348.062	9.53234
349.848	9.26218
351.633	9.30277
353.416	9.88167
355.201	10.1697
356.986	9.6954
358.77	10.0203
360.552	10.575
362.335	9.91266
364.118	9.30183
365.899	9.4242
367.682	9.6815
369.464	10.8145
371.243	10.573
373.025	11.789
374.806	11.9058
376.585	11.9621
378.365	11.6304
380.143	11.7557
381.923	11.5404
383.702	11.9155
385.479	11.8188
387.258	11.4252
389.034	12.2298
390.812	13.5366
392.59	13.8409
394.365	13.7037
396.142	12.8006
397.916	12.7391
399.693	13.0012
401.467	12.8995
403.242	12.583
405.015	12.1838
406.79	11.4445
408.565	10.5555
410.337	10.1615
412.111	9.97786
413.882	8.79646
415.656	7.78425
417.426	7.6008
419.197	8.23408
420.969	7.32027
422.739	6.81088
424.51	6.59285
426.279	5.80858
428.05	5.20381
429.819	5.46338
431.589	4.8594
433.356	4.57881
435.124	5.07925
436.893	4.35017
438.66	4.80538
440.428	5.77964
442.194	6.13465
443.96	6.02408
445.727	5.72575
447.492	5.47718
449.259	4.91576
451.023	4.03253
452.787	3.85312
454.553	4.74725
456.316	4.9142
458.079	4.80962
459.844	5.10726
461.606	5.05616
463.368	5.77037
465.132	5.63352
466.893	5.41282
468.654	6.209
470.415	7.28507
472.177	9.03865
473.937	10.0026
475.696	11.0264
477.456	11.8976
479.217	11.8828
480.975	12.1233
482.733	12.1011
484.491	12.2896
486.251	12.6651
488.008	12.4343
489.765	11.4618
491.522	12.0477
493.278	11.3192
495.036	10.7749
496.791	10.2894
498.546	10.9231
500.301	10.8441
502.056	10.3998
503.81	11.0289
505.566	11.9251
507.319	11.8452
509.073	12.5025
510.825	12.7823
512.578	12.5861
514.33	12.2932
516.082	13.154
517.833	13.2371
519.587	13.4392
521.337	15.2801
523.088	16.3417
524.838	15.8531
526.588	16.544
528.337	15.9798
530.087	15.1774
531.835	15.0907
533.584	14.7087
535.332	14.5702
537.08	15.2407
538.827	15.9072
540.574	16.1919
542.321	16.1875
544.068	15.385
545.814	15.3815
547.56	16.4588
549.305	15.9288
551.05	16.1816
552.795	15.7986
554.54	15.1743
556.284	15.7029
558.027	15.2452
559.771	14.7394
561.514	14.0527
563.257	13.4917
564.999	12.6353
566.742	12.9247
568.481	12.4205
570.223	11.8728
571.964	11.1674
573.705	10.3539
575.445	9.89477
577.185	9.3666
578.925	10.2668
580.665	9.25378
582.402	8.24981
584.141	8.33938
585.879	8.38752
587.617	7.84169
589.355	8.1121
591.092	8.2079
592.828	8.05849
594.564	7.89356
596.301	8.47634
598.037	8.048
599.773	8.83419
601.506	9.81591
603.242	10.6045
604.976	10.9565
606.711	11.7801
608.443	12.6538
610.177	12.1669
611.91	12.9074
613.644	13.1327
615.374	13.0309
617.107	12.8134
618.839	13.7653
620.569	14.2082
622.3	15.2638
624.032	15.6983
625.761	15.3763
627.491	15.3554
629.221	15.3528
630.949	15.3446
632.679	16.2031
634.408	16.3953
636.135	16.1716
637.863	16.2467
639.592	15.9257
641.318	16.4731
643.045	17.979
644.77	18.1221
646.497	18.2179
648.224	18.5924
649.948	18.3478
651.674	18.522
653.398	19.2901
655.123	19.064
656.846	18.9072
658.57	18.0165
660.293	17.4432
662.017	16.9718
663.738	17.207
665.462	17.8717
667.185	18.1059
668.905	19.2315
670.628	19.9568
672.348	20.8347
674.067	21.9267
675.789	22.3602
677.508	23.0969
679.228	24.1705
680.947	25.2311
682.667	26.8102
684.385	27.3182
686.104	28.262
687.821	28.5026
689.538	28.7062
691.256	28.6948
692.972	29.5423
694.69	30.8972
696.406	32.0707
698.121	33.5703
699.837	34.2955
701.552	34.9252
703.268	35.7706
704.982	37.0581
706.695	38.122
708.41	39.0115
710.123	39.3108
711.836	40.6463
713.55	42.4867
715.262	42.7103
716.973	42.9984
718.685	44.0221
720.398	45.3896
722.108	45.6605
723.818	46.4174
725.53	48.1898
727.24	48.2366
728.949	48.4074
730.658	48.2836
732.369	49.0116
734.077	48.8117
735.785	48.6204
737.493	49.3494
739.2	50.0572
740.909	50.8109
742.616	50.5009
744.322	50.7166
746.028	52.2376
747.734	53.655
749.441	55.8806
751.146	57.209
752.851	58.0108
754.555	58.4192
756.26	58.6417
757.963	60.9498
759.667	61.6111
761.372	61.4426
763.075	62.691
764.777	63.5871
766.479	64.7305
768.181	66.0249
769.883	66.2992
771.584	66.7026
773.285	67.2049
774.986	67.9184
776.686	68.641
778.386	70.2735
780.085	71.5036
781.785	72.7125
783.484	73.8014
785.182	74.0144
786.881	73.4473
788.579	74.7596
790.276	75.115
791.974	76.6032
793.671	77.1182
795.367	78.1414
797.064	79.0242
798.76	79.9452
800.456	79.9179
802.151	81.1985
803.846	82.0613
805.541	82.0419
807.236	81.9756
808.93	82.096
810.624	82.4127
812.317	80.6026
814.01	81.2982
815.703	80.1998
817.394	79.3914
819.086	78.651
820.778	77.7163
822.47	78.1902
824.161	78.0943
825.852	77.687
827.543	76.5654
829.231	75.6736
830.921	74.6522
832.611	73.3415
834.3	72.6773
835.989	71.9007
837.676	70.9767
839.364	70.1297
841.053	69.396
842.74	68.8279
844.426	67.6586
846.113	66.5368
847.8	66.1303
849.486	64.5417
851.171	63.1021
852.857	61.7659
854.542	60.7006
856.227	59.7631
857.911	60.0209
859.595	59.4449
861.279	58.4872
862.961	59.0045
864.645	58.2138
866.329	57.3623
868.01	57.0915
869.692	55.7589
871.375	55.4446
873.055	55.531
874.737	54.9421
876.418	55.4682
878.097	54.3522
879.778	54.3518
881.457	54.2366
883.137	54.0649
884.817	54.0757
886.495	53.3126
888.174	52.6978
889.851	52.5323
891.53	52.4858
893.206	51.3163
894.884	51.7335
896.562	50.5062
898.237	49.108
899.914	47.9148
901.589	48.3567
903.265	48.1733
904.94	48.3434
906.615	49.768
908.289	49.9152
909.964	50.1472
911.637	49.3312
913.31	48.8681
914.984	48.5342
916.656	48.3937
918.33	48.1332
920.001	47.4148
921.674	45.4776
923.345	44.8239
925.015	44.2332
926.687	43.116
928.357	42.7031
930.028	41.3137
931.698	40.1278
933.366	39.363
935.037	39.0362
936.705	39.2183
938.373	38.4479
940.043	37.2704
941.71	36.5368
943.379	34.7507
945.046	34.9447
946.712	34.2645
948.378	33.5622
950.046	33.6299
951.711	34.8336
953.376	34.8668
955.043	34.8904
956.708	33.7734
958.372	32.9617
960.036	32.5985
961.701	32.7477
963.364	33.1238
965.027	33.2527
966.69	32.4951
968.354	32.6924
970.016	31.5271
971.678	31.1308
973.339	31.3506
975	31.2473
976.661	31.2353
978.324	31.0788
979.984	30.2174
981.644	30.1909
983.303	31.895
984.962	32.2754
986.621	32.2594
988.282	33.0493
989.94	33.0604
991.598	32.8625
993.256	33.285
994.913	31.8444
996.57	30.5572
998.227	30.4143
999.884	29.7225
1001.54	29.6291
1003.2	29.0742
1004.85	28.6054
1006.51	28.9465
1008.16	28.9376
1009.82	29.0352
1011.47	29.1229
1013.12	28.7182
1014.78	28.0198
1016.43	27.9845
1018.08	26.5816
1019.74	25.5926
1021.39	25.8135
1023.04	26.184
1024.69	26.8419
1026.34	27.0484
1028	28.3748
1029.65	28.5977
1031.3	30.2886
1032.95	30.1797
1034.6	30.9363
1036.25	31.105
1037.9	30.2617
1039.55	30.1301
1041.19	29.7078
1042.84	29.9837
1044.49	29.2702
1046.14	27.8188
1047.79	26.428
1049.43	25.8766
1051.08	25.9647
1052.73	25.5657
1054.37	25.1626
1056.02	24.8425
1057.66	23.4638
1059.31	22.9485
1060.95	21.7657
1062.6	21.385
1064.24	21.3629
1065.88	20.0599
1067.53	18.8667
1069.17	19.4022
1070.81	18.9213
1072.46	18.4049
1074.1	18.0613
1075.74	17.9315
1077.38	16.3149
1079.02	16.4591
1080.66	18.1586
1082.3	17.5897
1083.94	18.3334
1085.58	17.7615
1087.22	18.1566
1088.86	18.6142
1090.5	18.217
1092.14	17.4231
1093.78	16.5097
1095.42	15.7633
1097.05	14.825
1098.69	14.9341
1100.33	14.6159
1101.97	14.467
1103.6	15.2844
1105.24	15.3911
1106.87	15.3334
1108.51	14.7451
1110.15	14.5752
1111.78	14.8719
1113.41	14.706
1115.05	13.6644
1116.68	13.3783
1118.31	12.2703
1119.95	11.1479
1121.58	9.8665
1123.21	7.99865
1124.85	7.63197
1126.48	5.43749
1128.11	4.99936
1129.74	5.59817
1131.37	5.55072
1133	4.78354
1134.63	4.35571
1136.26	3.53785
1137.89	2.82612
1139.52	2.52061
1141.15	2.2336
1142.78	1.20322
1144.41	1.29446
1146.04	1.17164
1147.66	0.948517
1149.29	1.16019
1150.92	1.70381
1152.55	1.98418
1154.17	2.24602
1155.8	3.2311
1157.43	3.81876
1159.05	4.3198
1160.68	5.97315
1162.3	6.88269
1163.93	6.42092
1165.55	7.023
1167.17	6.70904
1168.8	7.11933
1170.42	7.14369
1172.05	7.08077
1173.67	7.48249
1175.29	6.85505
1176.91	6.53297
1178.54	6.0175
1180.16	6.62164
1181.78	6.1228
1183.4	6.324
1185.02	6.832
1186.64	6.22108
1188.26	5.43216
1189.88	5.64695
1191.5	5.25961
1193.12	4.53766
1194.74	4.2058
1196.36	3.24383
1197.97	2.99535
1199.59	3.47312
1201.21	3.30842
1202.83	3.24746
1204.44	3.84866
1206.06	4.81657
1207.68	4.76887
1209.29	6.49571
1210.91	6.94028
1212.52	6.9994
1214.14	7.67963
1215.75	7.44115
1217.37	8.01547
1218.98	8.91388
1220.6	10.1727
1222.21	10.8569
1223.82	11.9697
1225.44	13.1723
1227.05	14.3185
1228.66	15.207
1230.27	15.2574
1231.88	17.4233
1233.49	18.191
1235.1	18.325
1236.72	19.7396
1238.33	21.034
1239.94	21.8228
1241.55	22.5941
1243.16	23.579
1244.76	24.1902
1246.37	24.4952
1247.98	25.3449
1249.59	26.2027
1251.2	27.2799
1252.8	27.7085
1254.41	28.9259
1256.02	29.3284
1257.63	30.5521
1259.23	32.1788
1260.84	34.0371
1262.44	34.4751
1264.05	35.5639
1265.66	35.7551
1267.26	36.1436
1268.87	37.0706
1270.47	37.887
1272.07	37.0998
1273.68	38.3353
1275.28	40.069
1276.88	40.8177
1278.48	43.2268
1280.09	44.4845
1281.69	45.0207
1283.29	46.4834
1284.89	47.1193
1286.49	48.8723
1288.09	48.9137
1289.69	49.5078
1291.3	49.5727
1292.9	50.1685
1294.49	50.5298
1296.09	50.6668
1297.69	51.3374
1299.29	50.4583
1300.89	49.9194
1302.49	49.4869
1304.09	50.0577
1305.68	49.3096
1307.28	49.0793
1308.88	48.2667
1310.47	47.5177
1312.07	47.9243
1313.66	46.2723
1315.26	46.4015
1316.86	46.1213
1318.45	45.9629
1320.05	44.9153
1321.64	45.1899
1323.23	45.1282
1324.83	44.786
1326.42	43.9654
1328.01	44.1103
1329.61	44.7592
1331.2	45.5714
1332.79	45.7621
1334.38	45.9682
1335.98	45.0055
1337.57	44.4935
1339.16	43.7955
1340.75	42.4872
1342.34	41.6481
1343.93	41.5058
1345.52	41.1004
1347.11	40.4417
1348.7	39.6872
1350.29	39.256
1351.87	38.9835
1353.46	39.2875
1355.05	38.3061
1356.64	38.4527
1358.23	38.179
1359.81	36.9807
1361.4	36.0811
1362.99	35.8978
1364.57	35.54
1366.16	36.5512
1367.74	34.3731
1369.33	33.8891
1370.91	33.1772
1372.5	32.4281
1374.08	32.1291
1375.67	31.2028
1377.25	30.2458
1378.83	29.6459
1380.42	30.1052
1382	30.129
1383.58	29.8482
1385.16	27.5615
1386.75	27.0213
1388.33	25.7961
1389.91	24.7624
1391.49	24.3136
1393.07	22.9515
1394.65	22.959
1396.23	21.7853
1397.81	21.4504
1399.39	21.6523
1400.97	21.6629
1402.55	21.5882
1404.13	22.6233
1405.7	22.6651
1407.28	23.1879
1408.86	23.4029
1410.44	23.0068
1412.01	23.1276
1413.59	23.0944
1415.17	23.7661
1416.74	23.843
1418.32	24.5763
1419.89	25.7969
1421.47	27.8696
1423.05	28.461
1424.62	29.7939
1426.19	30.755
1427.77	32.7783
1429.34	34.5722
1430.92	36.1931
1432.49	37.6637
1434.06	39.148
1435.63	41.5307
1437.2	42.4881
1438.78	45.0803
1440.35	46.2214
1441.92	48.0805
1443.49	49.5215
1445.06	51.3097
1446.63	51.027
1448.2	52.1507
1449.77	52.9791
1451.34	53.695
1452.91	54.8589
1454.48	54.6166
1456.05	54.32
1457.62	53.7033
1459.18	52.7622
1460.75	51.3244
1462.32	49.5391
1463.89	47.1126
1465.45	46.394
1467.02	44.9264
1468.59	43.3854
1470.15	41.7101
1471.72	39.5489
1473.28	37.5987
1474.85	35.8871
1476.41	35.2852
1477.98	33.7268
1479.54	31.8685
1481.11	30.9729
1482.67	29.0809
1484.23	26.3502
1485.8	24.347
1487.36	23.0858
1488.92	22.4404
1490.48	20.6498
1492.05	18.9128
1493.61	16.9671
1495.17	16.1014
1496.73	15.7331
1498.29	14.5066
1499.85	13.8477
1501.41	12.7965
1502.97	13.7535
1504.53	13.4592
1506.09	14.0777
1507.65	13.5284
1509.2	13.7257
1510.76	13.706
1512.32	13.7853
1513.88	13.9969
1515.44	14.2826
1516.99	14.4706
1518.55	13.8951
1520.1	15.5887
1521.66	16.5701
1523.22	17.5912
1524.77	17.9025
1526.33	18.8522
1527.88	20.2717
1529.44	21.4572
1530.99	22.5563
1532.55	23.3014
1534.1	24.2306
1535.65	24.7265
1537.21	25.8473
1538.76	27.1613
1540.31	28.8539
1541.86	31.5233
1543.42	33.65
1544.97	35.6421
1546.52	37.4283
1548.07	39.3357
1549.62	41.914
1551.17	44.4388
1552.72	47.5073
1554.27	50.2666
1555.82	50.7562
1557.37	52.1679
1558.92	54.0504
1560.47	55.2128
1562.02	56.3507
1563.57	58.3477
1565.11	59.5745
1566.66	60.0539
1568.21	60.1209
1569.75	60.9728
1571.3	61.9208
1572.85	63.7528
1574.39	64.0568
1575.94	64.4096
1577.49	65.8367
1579.03	66.4191
1580.58	66.3984
1582.12	65.2861
1583.67	65.0347
1585.21	64.5257
1586.75	63.9521
1588.3	63.0094
1589.84	62.2396
1591.38	61.6191
1592.93	61.2231
1594.47	60.2046
1596.01	60.2124
1597.55	59.5615
1599.09	57.4253
1600.63	56
1602.18	54.6873
1603.72	53.2492
1605.26	52.8184
1606.8	51.7127
1608.34	51.6403
1609.87	51.1204
1611.41	50.0451
1612.95	48.9652
1614.49	49.0925
1616.03	48.6656
1617.57	49.3571
1619.11	50.0533
1620.64	49.7176
1622.18	49.9144
1623.72	50.8866
1625.25	51.9193
1626.79	53.0589
1628.32	53.9655
1629.86	53.5406
1631.4	53.9569
1632.93	53.4651
1634.47	54.4969
1636	54.9073
1637.53	55.1364
1639.07	54.8181
1640.6	55.7329
1642.14	55.8042
1643.67	56.5711
1645.2	56.8928
1646.73	57.4619
1648.27	58.5714
1649.8	58.3718
1651.33	57.6529
1652.86	58.0852
1654.39	58.4391
1655.92	57.8392
1657.45	57.2888
1658.98	56.8049
1660.51	56.0495
1662.04	55.7821
1663.57	55.043
1665.1	54.0632
1666.63	52.6925
1668.16	51.3862
1669.69	49.7754
1671.21	47.9167
1672.74	45.4654
1674.27	42.7459
1675.79	40.3502
1677.32	38.5281
1678.85	36.97
1680.37	35.0159
1681.9	33.4716
1683.42	31.5681
1684.95	30.5652
1686.47	27.8957
1688	25.5715
1689.52	24.0186
1691.05	22.538
1692.57	21.1931
1694.1	20.0396
1695.62	18.6996
1697.14	16.8651
1698.66	16.0981
1700.19	15.8236
1701.71	14.4168
1703.23	12.7852
1704.75	11.9398
1706.27	10.4363
1707.79	10.5874
1709.32	9.59712
1710.83	8.44521
1712.35	7.71571
1713.88	7.72918
1715.39	6.81716
1716.91	7.29784
1718.43	7.39036
1719.95	6.89563
1721.47	6.3448
1722.99	6.39906
1724.5	6.12023
1726.02	5.79976
1727.54	6.16912
1729.06	7.44606
1730.57	6.99321
1732.09	6.06208
1733.61	5.64259
1735.12	4.97547
1736.64	4.67721
1738.15	5.21272
1739.67	5.02891
1741.18	4.20475
1742.7	3.79504
1744.21	3.59293
1745.72	3.41551
1747.24	3.2595
1748.75	2.57079
1750.26	2.52882
1751.78	2.68046
1753.29	2.74829
1754.8	2.94273
1756.31	2.64333
1757.82	2.85062
1759.34	3.62503
1760.85	3.92315
1762.36	3.43966
1763.87	3.5767
1765.38	3.36419
1766.89	3.17247
1768.4	3.675
1769.91	2.86981
1771.41	2.93661
1772.92	2.68415
1774.43	2.50885
1775.94	1.27273
1777.45	1.31727
1778.96	1.90666
1780.46	2.57616
1781.97	2.77211
1783.48	3.1899
1784.98	3.36693
1786.49	3.5293
1788	4.11383
1789.5	4.07984
1791.01	4.16019
1792.51	4.88563
1794.01	5.54077
1795.52	5.59798
1797.02	6.39265
1798.53	6.51048
1800.03	6.36888
1801.54	6.96541
1803.04	7.2268
1804.54	7.31942
1806.04	6.85783
1807.54	6.96568
1809.05	7.41655
1810.55	7.97463
1812.05	8.56801
1813.55	8.54231
1815.05	8.69329
1816.55	8.47109
1818.05	8.3724
1819.55	8.30823
1821.05	8.27131
1822.55	7.87465
1824.05	7.77592
1825.55	7.55082
1827.05	7.45187
1828.55	7.41378
1830.04	7.75992
1831.54	7.90938
1833.04	7.82287
1834.54	7.68632
1836.03	6.85727
1837.53	6.38094
1839.03	5.90192
1840.52	5.32826
1842.02	5.12819
1843.51	4.67155
1845.01	3.46369
1846.5	2.80197
1848	2.57981
1849.49	2.72157
1850.99	3.06983
1852.48	4.10911
1853.97	4.73037
1855.47	4.94649
1856.96	5.60827
1858.45	5.86327
1859.94	6.20799
1861.44	6.10516
1862.93	6.21058
1864.42	6.18768
1865.91	5.77879
1867.4	6.26954
1868.89	6.33286
1870.38	5.80694
1871.87	4.90068
1873.36	4.44982
1874.85	3.82894
1876.34	3.64467
1877.83	3.21197
1879.32	3.33536
1880.81	2.96626
1882.3	2.91184
1882.56	2.95754
1884.06	3.25646
1885.55	2.59757
1887.04	2.37742
1888.54	1.9469
1890.03	1.68542
1891.52	1.67245
1893.02	2.32553
1894.51	2.03921
1896	2.47472
1897.49	3.09248
1898.99	3.37954
1900.48	3.56462
1901.97	3.55508
1903.46	3.78816
1904.95	4.36533
1906.44	4.89761
1907.93	5.35552
1909.42	5.97254
1910.91	6.87824
1912.4	6.83659
1913.89	7.36653
1915.38	7.47508
1916.86	8.03759
1918.35	7.82418
1919.84	8.3849
1921.33	8.96061
1922.82	9.62155
1924.3	9.68801
1925.79	9.98518
1927.28	10.1172
1928.76	9.64765
1930.25	9.50288
1931.74	9.11708
1933.22	8.94015
1934.71	8.67026
1936.19	8.67781
1937.67	8.19904
1939.16	7.41695
1940.64	7.09835
1942.13	6.41117
1943.61	5.36936
1945.09	4.93627
1946.58	5.23954
1948.06	4.82
1949.54	4.46963
1951.03	4.49117
1952.51	4.51263
1953.99	4.54744
1955.47	4.76501
1956.95	4.87438
1958.43	4.65089
1959.91	4.15913
1961.39	4.44131
1962.87	4.84893
1964.35	5.46795
1965.83	5.8623
1967.31	6.57166
1968.79	6.18374
1970.27	7.18667
1971.75	7.24111
1973.22	6.87976
1974.7	6.34206
1976.18	6.99505
1977.66	7.28182
1979.13	8.20047
1980.61	8.34198
1982.09	8.60816
1983.56	8.83893
1985.04	8.29122
1986.52	8.40189
1987.99	8.96977
1989.47	8.63338
1990.94	8.60743
1992.41	8.2302
1993.89	8.08856
1995.36	7.55924
1996.84	7.45531
1998.31	7.49313
1999.78	7.07473
2001.26	7.16411
2002.73	7.439
2004.2	7.88996
2005.67	7.83378
2007.15	8.04994
2008.62	7.86009
2010.09	7.45288
2011.56	7.01502
2013.03	6.11667
2014.5	5.67512
2015.97	6.38404
2017.44	6.3322
2018.91	7.10424
2020.38	6.64785
2021.85	6.10034
2023.32	6.30209
2024.79	6.63751
2026.25	6.95177
2027.72	7.81278
2029.19	7.5842
2030.66	7.66229
2032.13	7.62755
2033.59	8.32673
2035.06	8.71809
2036.53	9.31522
2037.99	8.7416
2039.46	8.65461
2040.92	9.34631
2042.39	9.13004
2043.85	9.54478
2045.32	9.77816
2046.78	9.87581
2048.25	10.5293
2049.71	11.3803
2051.18	11.5289
2052.64	12.9433
2054.1	13.3506
2055.56	14.1771
2057.03	15.0741
2058.49	15.4851
2059.95	16.406
2061.42	16.5672
2062.88	16.6583
2064.34	17.0411
2065.8	17.3049
2067.26	17.6285
2068.72	18.0015
2070.18	18.8948
2071.64	19.4985
2073.1	19.9779
2074.56	20.1769
2076.02	20.336
2077.48	20.9537
2078.94	21.2688
2080.39	21.8141
2081.85	21.5485
2083.31	21.6977
2084.77	22.0111
2086.22	22.3065
2087.68	22.4562
2089.14	23.2733
2090.6	23.0636
2092.05	22.9497
2093.51	22.855
2094.96	23.34
2096.42	24.1739
2097.87	24.2657
2099.33	24.981
2100.78	25.4509
2102.24	25.4371
2103.69	26.0304
2105.15	26.9467
2106.6	28.0228
2108.05	28.5865
2109.51	29.4615
2110.96	30.3279
2112.41	32.1253
2113.86	33.8711
2115.32	34.6698
2116.77	35.9575
2118.22	37.5092
2119.67	38.3903
2121.12	39.3505
2122.57	40.4823
2124.02	42.1176
2125.47	44.6168
2126.92	46.6621
2128.37	48.2688
2129.82	49.7323
2131.27	50.5337
2132.72	52.2174
2134.17	53.6789
2135.62	55.1023
2137.06	56.0787
