#Acq. time (s)=	45
#Accumulations=	2
#Range (cm-¹)=	200...3150
#Windows=	2
#Auto scanning=	Off
#Autofocus=	Off
#Macrospot=	Off
#AutoExposure=	Off
#Spike filter=	Multiple accum.
#Delay time (s)=	0
#Binning=	1
#Readout mode=	Signal
#DeNoise=	Off
#ICS correction=	On
#Dark correction=	Off
#Inst. Process=	Off
#Detector Gain=	Best Dynamic Range
#Detector ADC=	20 kHz       
#Detector temperature (°C)=	-69.85
#Instrument=	LabRAM HR Evol
#Detector=	Synapse
#Objective=	x100
#Grating=	600 gr/mm
#ND Filter=	100%
#Laser (nm)=	532 
#Hole=	100.021
#Range=	Auto
#Laser Pol.=	No
#Raman. Pol.=	No
#Laser Pol. (°)=	-0.0007625
#Raman Pol. (°)=	89.9995
#Collection=	Microscope
#StageXY=	Marzhauser
#StageZ=	Marzhauser
#X (µm)=	-2358.7
#Y (µm)=	263.2
#Z (µm)=	521.55
#Full time(mm:ss)=	3:19
#Project=	
#Sample=	
#Site=	
#Title=	Thy_10_08_50_2x_45s_532 nm_x100_100%_600 gr_mm
#Remark=	
#Date=	06.07.2022 15:27
#Acquired=	06.07.2022 15:27:07
#Base:Fit=	10.08.2022 09:46:25
#Base:Sub=	10.08.2022 09:46:49
#Filter:Polynom=	16.08.2022 10:24:56
#AxisType[0]=Intens
#AxisUnit[0]=Cnt
#AxisType[1]=Spectr
#AxisUnit[1]=1/cm
200.398	2.63065
202.213	6.4056
204.027	9.36916
205.843	11.0883
207.657	12.6973
209.47	13.6717
211.283	14.4181
213.097	14.1531
214.909	13.7204
216.721	14.4375
218.533	14.2545
220.344	14.7466
222.157	13.8461
223.967	14.2276
225.777	14.095
227.587	14.7961
229.396	14.8745
231.205	15.5367
233.016	15.9807
234.824	15.8517
236.632	14.9302
238.439	15.3225
240.247	14.2144
242.053	14.8593
243.86	15.1648
245.666	15.4446
247.474	15.3312
249.279	15.1257
251.085	14.6587
252.889	14.2676
254.694	13.7154
256.498	13.9915
258.301	13.9022
260.105	14.1475
261.908	14.4883
263.71	14.7039
265.513	14.5316
267.315	14.644
269.116	13.5295
270.918	12.359
272.718	12.5524
274.519	12.362
276.319	12.522
278.119	13.2107
279.918	13.5569
281.718	14.1576
283.516	14.2809
285.315	13.4705
287.113	14.3781
288.911	14.831
290.708	14.4794
292.505	14.6197
294.302	14.6609
296.098	14.8993
297.894	14.1251
299.69	14.4652
301.485	14.3916
303.278	13.903
305.073	14.9296
306.867	15.9754
308.661	15.8459
310.454	16.352
312.247	16.6999
314.04	18.2872
315.833	18.7058
317.623	19.2709
319.415	19.1455
321.206	18.6904
322.997	18.4434
324.788	18.1802
326.579	18.5647
328.367	19.4976
330.156	18.4919
331.946	20.3108
333.735	20.3659
335.523	19.8054
337.31	19.6815
339.098	19.3472
340.885	18.9799
342.673	18.2927
344.458	17.6699
346.244	17.008
348.03	16.8589
349.816	16.4253
351.6	16.0071
353.385	15.4056
355.17	15.1724
356.953	15.2521
358.737	13.3662
360.521	13.185
362.304	13.8142
364.085	14.4635
365.868	14.5256
367.65	13.6703
369.431	12.2606
371.212	12.3868
372.994	11.4551
374.773	10.9577
376.554	11.3256
378.332	11.2771
380.112	12.0564
381.892	11.3344
383.669	10.9582
385.448	10.3826
387.225	10.6704
389.003	11.19
390.781	10.4169
392.557	10.6953
394.334	10.7745
396.109	10.0057
397.885	9.88659
399.66	9.87267
401.436	10.4219
403.211	10.1414
404.984	8.87429
406.759	8.5918
408.532	7.97518
410.306	7.6477
412.078	7.80824
413.851	7.68895
415.623	7.54948
417.395	6.80315
419.166	5.93801
420.938	6.93558
422.708	5.53899
424.477	4.24106
426.248	4.31301
428.017	3.8058
429.788	2.71134
431.556	1.62772
433.326	1.30241
435.093	1.45058
436.86	1.77851
438.629	1.56675
440.395	2.0049
442.163	1.89459
443.929	1.50142
445.694	1.76246
447.461	1.52566
449.226	2.35217
450.99	3.11714
452.756	3.58665
454.52	2.72702
456.285	3.42251
458.048	3.64877
459.811	4.43068
461.573	4.30525
463.337	5.38765
465.099	7.27705
466.86	8.02071
468.623	8.00981
470.384	7.88476
472.144	8.02531
473.906	8.76391
475.666	9.53577
477.425	9.71569
479.184	9.55795
480.944	10.498
482.703	10.5294
484.461	11.2483
486.218	12.6887
487.975	13.176
489.734	13.5979
491.491	13.9963
493.247	14.609
495.003	16.729
496.759	16.9943
498.516	17.7972
500.271	17.9847
502.025	18.065
503.779	18.4314
505.533	18.9804
507.287	19.8403
509.042	20.2165
510.795	19.274
512.547	19.8589
514.299	20.5156
516.051	20.6679
517.803	20.4775
519.554	20.6516
521.305	20.8513
523.055	21.791
524.805	21.5471
526.555	21.4634
528.307	21.4995
530.056	20.0702
531.805	19.0247
533.553	19.2875
535.301	18.7533
537.049	19.025
538.797	18.5852
540.544	17.8717
542.291	16.2229
544.037	15.7203
545.783	14.4916
547.529	14.4988
549.275	13.1854
551.02	12.0843
552.765	11.5713
554.509	9.36452
556.253	7.78429
557.997	7.30998
559.738	7.13627
561.482	6.30659
563.224	5.20335
564.967	4.63858
566.709	3.98005
568.451	3.33412
570.192	2.9557
571.933	2.02944
573.674	1.25273
575.415	0.614845
577.153	-0.439439
578.893	-0.25981
580.632	0.607711
582.371	0.962222
584.11	0.19882
585.849	0.371787
587.587	0.324032
589.323	0.0929161
591.06	1.00499
592.797	1.6833
594.534	1.69447
596.271	0.963931
598.005	1.25984
599.741	2.5861
601.476	3.40719
603.211	3.54639
604.944	3.69276
606.679	4.30624
608.413	5.14743
610.147	6.95651
611.878	7.45782
613.611	7.3681
615.344	8.50378
617.077	9.15851
618.807	10.3833
620.539	12.7221
622.27	13.9254
623.999	15.3916
625.73	15.219
627.461	16.2601
629.189	17.8938
630.919	19.5788
632.648	20.0308
634.376	20.0256
636.105	19.3085
637.833	20.4145
639.559	21.7459
641.287	21.8176
643.013	22.2709
644.74	23.8049
646.467	24.971
648.192	25.1832
649.918	26.2588
651.642	25.8253
653.368	25.695
655.091	26.1496
656.816	26.4891
658.538	26.12
660.263	27.4342
661.987	27.692
663.708	28.0422
665.432	30.3132
667.153	30.9482
668.875	30.602
670.596	31.1073
672.318	32.6235
674.037	33.2055
675.759	33.7656
677.478	34.7477
679.196	35.1807
680.917	36.3036
682.635	37.0041
684.355	38.7739
686.072	39.9167
687.791	41.0453
689.508	41.0495
691.224	42.3025
692.942	43.1309
694.658	43.5123
696.376	44.9674
698.091	45.1653
699.805	45.8699
701.522	47.0294
703.236	48.0187
704.95	48.124
706.665	50.2348
708.379	50.3856
710.093	50.5769
711.806	49.8571
713.518	50.9663
715.23	51.1472
716.943	51.343
718.655	50.9611
720.366	50.9538
722.078	51.1078
723.788	51.8654
725.498	52.9736
727.208	53.7952
728.919	54.7036
730.628	55.5561
732.337	55.8865
734.045	56.1896
735.755	57.6285
737.463	57.3252
739.17	58.1754
740.877	60.3241
742.584	60.4019
744.292	60.7285
745.998	62.1154
747.704	62.8194
749.409	64.1148
751.114	65.4188
752.819	66.1069
754.526	67.5021
756.23	69.47
757.934	70.7309
759.637	71.5748
761.34	72.5923
763.043	74.1442
764.746	76.1936
766.448	77.8931
768.152	79.1126
769.853	80.4073
771.554	81.4199
773.255	82.0727
774.956	83.1962
776.656	84.3753
778.356	85.5976
780.056	86.643
781.755	87.7215
783.454	88.2771
785.153	90.1045
786.851	90.9663
788.549	92.5461
790.247	93.8001
791.944	96.1547
793.641	96.4005
795.338	98.3778
797.034	99.453
798.73	101.421
800.426	102.172
802.121	102.952
803.817	102.866
805.511	103.259
807.206	103.68
808.9	105.037
810.592	106.139
812.286	107.033
813.979	107.38
815.672	107.682
817.364	109.326
819.057	109.418
820.748	109.346
822.44	108.567
824.129	108.292
825.82	108.702
827.511	106.392
829.201	105.812
830.891	106.365
832.581	105.585
834.269	104.704
835.958	104.524
837.646	103.327
839.335	102.782
841.023	102.261
842.709	101.412
844.396	99.7772
846.084	98.1454
847.77	97.5055
849.455	96.4047
851.141	94.0742
852.827	92.1953
854.513	90.5219
856.196	88.5551
857.881	86.9816
859.566	86.3235
861.248	83.7735
862.932	83.0337
864.616	80.974
866.297	79.2703
867.98	78.6496
869.663	78.7062
871.343	77.7621
873.026	77.4847
874.707	76.2476
876.387	74.1812
878.068	72.7165
879.747	72.5113
881.428	71.2266
883.108	71.3592
884.786	70.7578
886.465	70.1453
888.143	70.0255
889.822	69.4782
891.498	69.3368
893.177	69.7569
894.855	69.9808
896.53	70.1543
898.208	69.1946
899.883	69.4858
901.56	69.5964
903.234	68.9609
904.91	69.1414
906.584	68.7702
908.26	69.314
909.933	69.8955
911.608	69.3129
913.28	70.9693
914.955	71.1448
916.627	71.1524
918.298	71.666
919.972	70.6593
921.643	69.9416
923.315	70.2566
924.986	69.8095
926.656	69.9834
928.328	68.8755
929.997	69.1316
931.668	69.9856
933.337	70.0128
935.006	68.9416
936.676	68.1791
938.344	67.9576
940.012	67.2117
941.681	67.0631
943.348	66.2774
945.014	65.2029
946.683	65.1196
948.349	63.6635
950.015	63.2228
951.682	63.2398
953.347	62.6753
955.012	60.9182
956.676	58.8779
958.343	57.3715
960.006	56.7151
961.67	58.1982
963.333	59.2965
964.998	59.4033
966.661	59.7539
968.323	59.192
969.985	59.0542
971.649	58.5534
973.31	57.9634
974.971	58.6907
976.632	58.1547
978.293	58.1294
979.953	58.1054
981.615	57.4603
983.274	57.9197
984.933	57.7942
986.592	57.9142
988.251	57.1211
989.909	56.724
991.567	56.5618
993.225	55.3739
994.884	55.336
996.541	55.6484
998.198	55.2809
999.855	55.5379
1001.51	55.5744
1003.17	54.6566
1004.82	55.6867
1006.48	55.5452
1008.13	55.8938
1009.79	56.7427
1011.44	56.3173
1013.1	56.5224
1014.75	56.8765
1016.4	55.1579
1018.06	53.9628
1019.71	53.5369
1021.36	53.6311
1023.01	53.5284
1024.66	52.372
1026.32	51.4052
1027.97	50.0337
1029.62	49.0759
1031.27	47.9957
1032.92	47.8298
1034.57	46.4112
1036.22	44.9464
1037.87	44.0681
1039.52	43.8019
1041.16	43.9837
1042.81	44.2127
1044.46	44.8497
1046.11	44.3366
1047.76	43.7127
1049.4	43.5492
1051.05	43.417
1052.7	42.6602
1054.34	41.84
1055.99	42.0911
1057.63	42.308
1059.28	41.026
1060.92	40.1523
1062.57	40.2364
1064.21	39.0505
1065.85	38.6713
1067.5	38.2068
1069.14	37.6566
1070.78	37.3137
1072.43	37.4348
1074.07	38.557
1075.71	39.1496
1077.35	40.0502
1078.99	40.542
1080.63	41.054
1082.27	41.4175
1083.91	41.6883
1085.55	42.254
1087.19	43.433
1088.83	44.0316
1090.47	45.0748
1092.11	45.5907
1093.75	45.0219
1095.39	45.2023
1097.03	45.2789
1098.66	44.4778
1100.3	44.877
1101.94	44.7889
1103.57	44.7117
1105.21	44.027
1106.84	42.8517
1108.48	42.5076
1110.11	41.66
1111.75	40.7177
1113.38	39.3268
1115.02	38.6789
1116.65	37.6919
1118.29	37.5507
1119.92	37.4349
1121.55	36.531
1123.19	35.6726
1124.82	34.4346
1126.45	33.4735
1128.08	33.1332
1129.71	32.0722
1131.34	31.6295
1132.97	31.0429
1134.6	30.2889
1136.23	29.6293
1137.86	29.0812
1139.49	27.7671
1141.12	27.2303
1142.75	26.7178
1144.38	27.4736
1146.01	26.4816
1147.64	25.5841
1149.26	25.7196
1150.89	25.3097
1152.52	25.5264
1154.15	24.9794
1155.77	25.1066
1157.4	23.6179
1159.02	23.4238
1160.65	23.4805
1162.27	24.0029
1163.9	24.3068
1165.52	25.261
1167.15	26.2364
1168.77	26.2249
1170.39	25.8295
1172.02	25.6635
1173.64	26.336
1175.26	26.632
1176.89	26.9866
1178.51	27.0404
1180.13	27.2496
1181.75	28.0969
1183.37	28.3138
1184.99	28.2316
1186.61	27.6859
1188.23	28.0782
1189.85	28.4409
1191.47	28.1393
1193.09	28.1229
1194.71	29.0648
1196.33	30.7144
1197.94	31.9147
1199.56	32.8198
1201.18	34.107
1202.8	35.1963
1204.41	36.3504
1206.03	37.714
1207.65	39.622
1209.26	41.0058
1210.88	41.8936
1212.49	43.6932
1214.11	45.8933
1215.72	47.099
1217.34	48.7091
1218.95	50.3659
1220.57	51.1767
1222.18	52.8863
1223.79	54.4627
1225.41	55.6238
1227.02	56.4035
1228.63	57.5219
1230.24	58.9567
1231.85	59.7022
1233.47	61.2615
1235.08	62.3031
1236.69	63.4305
1238.3	65.2712
1239.91	67.1961
1241.52	68.5614
1243.13	70.4344
1244.74	70.1526
1246.34	70.9706
1247.95	70.1699
1249.56	70.7706
1251.17	71.6115
1252.78	72.9709
1254.38	73.5994
1255.99	74.7854
1257.6	74.4584
1259.2	74.1425
1260.81	74.3579
1262.42	74.1139
1264.02	74.0052
1265.63	73.7536
1267.23	74.303
1268.84	75.1527
1270.44	75.8045
1272.04	76.1056
1273.65	76.0411
1275.25	76.6583
1276.85	77.4303
1278.46	78.0114
1280.06	78.7617
1281.66	79.5544
1283.26	80.1772
1284.86	80.4363
1286.46	81.3563
1288.07	81.2214
1289.67	81.7362
1291.27	81.9557
1292.87	83.1328
1294.47	83.96
1296.06	84.8585
1297.66	85.5146
1299.26	86.5653
1300.86	87.7007
1302.46	88.5181
1304.06	89.6596
1305.65	90.3812
1307.25	91.3524
1308.85	92.2106
1310.44	93.6976
1312.04	94.9195
1313.64	96.0953
1315.23	95.9589
1316.83	95.6792
1318.42	96.3655
1320.02	95.8663
1321.61	95.966
1323.2	96.258
1324.8	95.1935
1326.39	96.0488
1327.99	96.8114
1329.58	97.8646
1331.17	97.5473
1332.76	96.9448
1334.36	96.2715
1335.95	96.1788
1337.54	93.5328
1339.13	92.637
1340.72	91.997
1342.31	91.1067
1343.9	89.5844
1345.49	88.4162
1347.08	87.3668
1348.67	87.1551
1350.26	86.2805
1351.85	84.304
1353.43	82.035
1355.02	81.266
1356.61	80.2549
1358.2	78.9461
1359.78	78.2602
1361.37	77.3677
1362.96	76.3476
1364.54	74.0187
1366.13	72.4251
1367.71	69.8082
1369.3	68.9892
1370.88	68.1926
1372.47	68.2778
1374.05	67.2416
1375.64	67.489
1377.22	66.1608
1378.8	66.5538
1380.39	65.2803
1381.97	64.1739
1383.55	64.1624
1385.13	63.501
1386.72	63.1135
1388.3	62.4265
1389.88	61.4452
1391.46	60.2229
1393.04	60.0065
1394.62	58.5837
1396.2	58.3426
1397.78	58.7291
1399.36	58.6342
1400.94	58.5689
1402.52	58.0917
1404.1	58.4632
1405.68	59.5677
1407.25	60.0487
1408.83	59.6876
1410.41	59.5022
1411.98	60.0735
1413.56	60.6003
1415.14	62.0069
1416.71	63.3297
1418.29	66.3897
1419.87	68.6968
1421.44	70.7218
1423.02	72.4944
1424.59	75.5985
1426.16	78.3224
1427.74	81.7065
1429.31	82.687
1430.89	83.87
1432.46	85.9865
1434.03	88.7367
1435.6	90.3272
1437.18	92.7346
1438.75	94.5518
1440.32	95.5123
1441.89	95.9365
1443.46	96.2075
1445.03	97.0579
1446.6	97.446
1448.17	98.9909
1449.74	98.9438
1451.31	98.3267
1452.88	97.9428
1454.45	96.651
1456.02	95.1901
1457.59	94.138
1459.16	91.0381
1460.72	88.6872
1462.29	86.132
1463.86	83.4601
1465.43	81.2513
1466.99	76.7584
1468.56	74.2308
1470.13	70.9775
1471.69	66.6788
1473.26	62.8567
1474.82	59.8254
1476.38	56.4393
1477.95	52.437
1479.51	48.6797
1481.08	45.2654
1482.64	43.3989
1484.2	39.7051
1485.77	36.4586
1487.33	33.0085
1488.89	31.0165
1490.46	29.7968
1492.02	29.1982
1493.58	28.7668
1495.14	27.3971
1496.7	26.7566
1498.26	25.3286
1499.82	24.197
1501.38	23.5357
1502.94	23.1188
1504.5	23.1156
1506.06	23.5211
1507.62	22.5851
1509.18	23.1604
1510.73	23.7493
1512.29	23.4057
1513.85	23.7683
1515.41	25.2436
1516.96	25.3
1518.52	25.7032
1520.08	25.997
1521.63	27.4209
1523.19	28.0339
1524.75	29.5526
1526.3	30.5012
1527.85	31.8925
1529.41	33.3401
1530.96	34.2341
1532.52	34.8634
1534.07	36.3874
1535.62	37.7863
1537.18	38.6135
1538.73	41.1941
1540.28	42.1437
1541.84	42.852
1543.39	43.7714
1544.94	44.6834
1546.49	46.227
1548.04	46.4541
1549.59	47.1123
1551.14	48.9911
1552.69	50.135
1554.25	51.8924
1555.79	53.2154
1557.34	55.2777
1558.89	56.8685
1560.44	58.8344
1561.99	59.2911
1563.54	60.9778
1565.08	62.4998
1566.63	65.5026
1568.18	66.6695
1569.73	68.3999
1571.27	68.6604
1572.82	70.3172
1574.37	71.9714
1575.91	72.0332
1577.46	73.7997
1579	75.6235
1580.55	77.9604
1582.09	79.0517
1583.64	80.0476
1585.18	79.5691
1586.73	80.183
1588.27	80.5948
1589.81	80.5369
1591.35	81.0964
1592.9	81.7755
1594.44	81.0454
1595.98	80.5938
1597.52	79.6195
1599.06	79.8129
1600.61	78.4087
1602.15	78.4308
1603.69	77.1779
1605.23	76.272
1606.77	74.3817
1608.31	73.1912
1609.85	71.8784
1611.39	70.4247
1612.93	69.7888
1614.46	67.9794
1616	66.2994
1617.54	64.781
1619.08	64.7699
1620.61	64.8593
1622.15	64.154
1623.69	63.3574
1625.23	62.9735
1626.76	62.3589
1628.3	62.5946
1629.83	62.4361
1631.37	62.4043
1632.9	62.2156
1634.44	62.931
1635.97	63.1423
1637.51	63.6471
1639.04	64.2246
1640.57	65.1075
1642.11	66.5106
1643.64	67.5957
1645.17	67.5509
1646.71	69.0467
1648.24	70.0205
1649.77	71.8107
1651.3	73.1593
1652.83	74.545
1654.36	76.6586
1655.89	77.3158
1657.42	77.2042
1658.96	76.2617
1660.48	76.2488
1662.01	75.2047
1663.54	74.6912
1665.07	74.0041
1666.6	72.2651
1668.13	71.0433
1669.66	69.9517
1671.19	67.9115
1672.71	65.5073
1674.24	64.0205
1675.77	63.0418
1677.29	60.6158
1678.82	58.5953
1680.35	55.9822
1681.87	53.5555
1683.4	50.9915
1684.92	48.3206
1686.45	46.1328
1687.97	44.2373
1689.5	42.3711
1691.02	39.4334
1692.54	37.3471
1694.07	35.3398
1695.59	32.7684
1697.11	28.9466
1698.64	25.9233
1700.16	23.9155
1701.68	20.6155
1703.2	18.1596
1704.72	16.548
1706.25	14.8289
1707.77	14.093
1709.29	13.0101
1710.81	11.8235
1712.33	10.349
1713.85	9.2641
1715.37	8.9183
1716.89	8.15252
1718.41	7.60385
1719.92	6.91674
1721.44	6.11584
1722.96	6.49792
1724.48	7.03358
1725.99	7.68155
1727.51	8.05406
1729.03	7.83366
1730.55	7.67672
1732.06	7.93529
1733.58	7.56099
1735.09	7.4057
1736.61	7.80714
1738.13	8.03923
1739.64	8.25107
1741.15	8.26843
1742.67	7.71533
1744.18	8.63861
1745.7	8.95523
1747.21	8.99409
1748.72	8.98954
1750.24	9.76585
1751.75	9.46464
1753.26	8.97271
1754.77	9.0993
1756.29	9.49677
1757.8	9.1656
1759.31	9.0481
1760.82	8.85076
1762.33	8.8347
1763.84	7.54557
1765.35	6.56844
1766.86	5.17072
1768.37	4.43971
1769.88	3.80445
1771.39	3.22036
1772.9	2.48393
1774.4	2.47091
1775.91	1.82597
1777.42	1.01372
1778.93	1.47798
1780.44	1.60755
1781.94	1.09229
1783.45	0.645488
1784.96	-0.0682579
1786.46	-0.455581
1787.97	-0.7333
1789.47	-0.16464
1790.98	-0.144655
1792.48	-0.829778
1793.99	-0.913686
1795.49	-0.766782
1797	-0.554119
1798.5	0.561565
1800.01	1.29854
1801.51	1.647
1803.01	1.67394
1804.51	1.95504
1806.02	2.77236
1807.52	3.36246
1809.02	3.48815
1810.52	3.78848
1812.02	4.31194
1813.52	4.62431
1815.02	4.9064
1816.53	4.68367
1818.03	5.48748
1819.52	6.37893
1821.02	6.1987
1822.52	6.49449
1824.02	6.57663
1825.52	6.59091
1827.02	6.82981
1828.52	7.26862
1830.02	7.43876
1831.51	7.57664
1833.01	7.52336
1834.51	7.21807
1836.01	6.87942
1837.5	6.57999
1839	6.01625
1840.49	5.94571
1841.99	6.16377
1843.49	6.64292
1844.98	6.55731
1846.48	6.22281
1847.97	6.42024
1849.47	5.96302
1850.96	6.36515
1852.45	6.29102
1853.95	6.40315
1855.44	6.03941
1856.93	5.77431
1858.42	5.39625
1859.92	5.48941
1861.41	5.84212
1862.9	5.90634
1864.39	5.84771
1865.88	5.67189
1867.38	5.65043
1868.87	5.71504
1870.36	6.39458
1871.85	6.77801
1873.34	6.94082
1874.83	6.96264
1876.32	6.98127
1877.81	6.72259
1879.29	6.8296
1880.78	7.46916
1882.27	7.76217
1882.53	7.26727
1884.03	7.08465
1885.52	7.069
1887.01	7.66173
1888.51	7.56671
1890	7.48204
1891.5	7.85749
1892.99	7.5659
1894.48	7.83503
1895.97	7.67365
1897.47	7.79499
1898.96	8.08262
1900.45	7.98431
1901.94	7.49798
1903.43	6.98254
1904.92	6.24199
1906.41	6.55319
1907.9	5.84641
1909.39	5.77332
1910.88	5.34393
1912.37	5.7038
1913.86	6.02041
1915.35	5.93878
1916.84	5.8521
1918.33	4.86704
1919.81	5.17737
1921.3	5.70392
1922.79	5.4352
1924.28	5.70258
1925.76	5.21712
1927.25	5.35754
1928.73	5.69085
1930.22	5.70449
1931.71	6.4307
1933.19	6.89108
1934.68	7.11196
1936.16	6.97604
1937.65	7.65565
1939.13	7.8507
1940.62	8.19478
1942.1	8.15876
1943.58	8.74943
1945.07	8.68479
1946.55	8.71317
1948.03	8.51589
1949.51	8.4709
1951	8.20818
1952.48	8.34945
1953.96	8.72175
1955.44	8.65546
1956.92	8.1734
1958.4	8.66547
1959.88	8.30071
1961.36	8.33886
1962.84	8.00065
1964.32	7.75817
1965.8	7.52299
1967.28	7.46835
1968.76	7.25817
1970.24	6.68745
1971.72	7.08871
1973.2	6.31052
1974.67	5.41122
1976.15	5.03721
1977.63	5.08546
1979.1	5.15639
1980.58	5.32265
1982.06	4.6099
1983.54	5.06004
1985.01	4.99315
1986.49	5.29297
1987.96	4.9234
1989.44	5.3893
1990.91	5.67158
1992.39	5.24647
1993.86	5.95881
1995.33	5.67025
1996.81	5.80467
1998.28	5.69547
1999.75	5.8073
2001.23	6.10789
2002.7	6.98764
2004.17	6.53247
2005.65	6.99873
2007.12	6.46563
2008.59	6.4059
2010.06	6.5298
2011.53	7.03252
2013	7.26278
2014.47	7.37702
2015.94	7.03176
2017.41	7.10627
2018.88	6.51514
2020.35	6.24844
2021.82	5.94646
2023.29	6.739
2024.76	6.70636
2026.23	6.96818
2027.69	7.64707
2029.16	7.24085
2030.63	7.08661
2032.1	6.94357
2033.56	6.45998
2035.03	6.97594
2036.5	7.01658
2037.96	6.80712
2039.43	7.27457
2040.89	7.58014
2042.36	8.11835
2043.83	8.67271
2045.29	9.42272
2046.75	8.99438
2048.22	8.93354
2049.68	9.73058
2051.15	10.0009
2052.61	10.3415
2054.07	10.4295
2055.54	11.4587
2057	12.5236
2058.46	12.3113
2059.92	12.8886
2061.39	12.7064
2062.85	12.6934
2064.31	12.0756
2065.77	11.9118
2067.23	12.3976
2068.69	12.2209
2070.15	11.8817
2071.61	11.647
2073.07	11.6859
2074.53	11.8069
2075.99	11.8826
2077.45	11.8741
2078.91	12.449
2080.37	12.4361
2081.82	12.4167
2083.28	12.4356
2084.74	12.975
2086.2	12.8153
2087.65	11.9162
2089.11	11.88
2090.57	11.9155
2092.02	12.0299
2093.48	12.8307
2094.94	13.126
2096.39	13.3824
2097.85	12.9487
2099.3	13.1605
2100.76	13.2027
2102.21	12.8894
2103.66	13.8136
2105.12	13.7367
2106.57	14.3859
2108.03	14.8971
2109.48	15.4579
2110.93	15.7611
2112.38	16.3835
2113.84	16.8966
2115.29	17.1791
2116.74	17.8043
2118.19	18.1204
2119.64	18.4211
2121.09	19.3922
2122.54	20.6935
2123.99	20.967
2125.45	21.8
2126.89	22.1418
2128.34	22.9838
2129.79	23.2439
2131.24	22.9954
2132.69	23.5195
2134.14	23.6397
