#Acq. time (s)=	45
#Accumulations=	2
#Range (cm-¹)=	200...3150
#Windows=	2
#Auto scanning=	Off
#Autofocus=	Off
#Macrospot=	Off
#AutoExposure=	Off
#Spike filter=	Multiple accum.
#Delay time (s)=	0
#Binning=	1
#Readout mode=	Signal
#DeNoise=	Off
#ICS correction=	On
#Dark correction=	Off
#Inst. Process=	Off
#Detector Gain=	Best Dynamic Range
#Detector ADC=	20 kHz       
#Detector temperature (°C)=	-69.85
#Instrument=	LabRAM HR Evol
#Detector=	Synapse
#Objective=	x100
#Grating=	600 gr/mm
#ND Filter=	100%
#Laser (nm)=	532 
#Hole=	100.021
#Range=	Auto
#Laser Pol.=	No
#Raman. Pol.=	No
#Laser Pol. (°)=	-0.0007625
#Raman Pol. (°)=	89.9995
#Collection=	Microscope
#StageXY=	Marzhauser
#StageZ=	Marzhauser
#X (µm)=	-1467.9
#Y (µm)=	-618.9
#Z (µm)=	-227.8
#Full time(mm:ss)=	3:18
#Project=	
#Sample=	
#Site=	
#Title=	Thy_00_07_41_2x_45s_532 nm_x100_100%_600 gr_mm
#Remark=	
#Date=	29.06.2022 09:27
#Acquired=	29.06.2022 09:27:54
#Base:Fit=	10.08.2022 10:07:56
#Base:Sub=	10.08.2022 10:08:40
#Filter:Polynom=	16.08.2022 10:26:06
#AxisType[0]=Intens
#AxisUnit[0]=Cnt
#AxisType[1]=Spectr
#AxisUnit[1]=1/cm
200.523	0.151288
202.339	5.73922
204.154	10.1923
205.967	13.3122
207.781	15.6424
209.596	17.4294
211.409	18.7634
213.222	20.0918
215.034	20.474
216.848	20.7991
218.659	21.2975
220.47	21.2486
222.281	21.7843
224.091	21.5712
225.903	21.685
227.713	20.5157
229.522	20.5637
231.331	19.667
233.14	20.0028
234.948	20.3251
236.756	19.4256
238.566	19.5844
240.373	19.6152
242.18	19.4446
243.986	19.5821
245.792	19.3365
247.598	17.9499
249.403	16.9424
251.208	15.1783
253.013	13.7946
254.818	13.4906
256.624	13.4514
258.427	13.256
260.231	12.9994
262.034	12.6192
263.836	12.0309
265.638	12.0786
267.44	13.5297
269.242	13.4843
271.043	13.9536
272.844	14.496
274.645	13.9485
276.445	13.8055
278.245	15.8644
280.044	14.9996
281.843	15.1267
283.642	14.7492
285.44	14.271
287.238	13.66
289.036	13.1776
290.833	12.1119
292.63	12.5427
294.425	12.2132
296.221	11.5107
298.017	11.8135
299.813	11.2776
301.608	11.2968
303.403	11.2964
305.198	10.7538
306.992	10.9669
308.786	11.8025
310.579	12.4043
312.371	12.7615
314.163	12.8586
315.956	13.3065
317.748	13.1556
319.54	13.6735
321.331	14.2964
323.122	15.0179
324.911	14.9237
326.701	14.5102
328.491	15.3338
330.281	14.8777
332.071	13.9072
333.857	13.4535
335.646	12.5779
337.434	11.8941
339.222	11.5928
341.008	11.4062
342.795	11.7816
344.582	12.9693
346.369	12.9387
348.153	12.6382
349.939	12.0155
351.724	11.3804
353.51	11.6599
355.292	11.9523
357.077	12.7296
358.861	11.2672
360.643	11.0561
362.426	9.55987
364.21	8.96515
365.99	8.43919
367.773	8.3716
369.555	8.00146
371.335	8.14
373.116	8.73126
374.897	8.47692
376.676	7.92669
378.456	6.9927
380.236	6.1545
382.014	5.89414
383.793	5.7321
385.57	5.75986
387.349	6.47959
389.127	5.59265
390.903	5.6027
392.681	5.91064
394.456	6.57106
396.233	6.52512
398.007	6.55477
399.784	6.43892
401.56	6.92873
403.333	7.13314
405.108	7.16354
406.881	7.77288
408.656	7.62727
410.428	8.12856
412.202	8.83313
413.973	8.80132
415.746	8.01538
417.517	8.10092
419.29	8.21571
421.06	7.42295
422.831	8.3539
424.601	8.35103
426.37	8.66228
428.141	8.04605
429.909	8.70163
431.679	7.84661
433.447	7.61309
435.216	6.71678
436.983	7.11938
438.75	6.08966
440.519	6.83753
442.285	7.10386
444.052	7.26404
445.818	5.90069
447.583	5.32218
449.349	5.84069
451.114	5.89648
452.878	7.35115
454.643	7.21793
456.407	7.22786
458.169	8.45822
459.934	7.30634
461.696	8.31725
463.458	8.51575
465.222	9.19444
466.983	9.09021
468.744	9.1062
470.507	9.35713
472.267	9.78841
474.027	10.2185
475.787	10.6634
477.548	10.238
479.307	11.0509
481.065	12.3049
482.823	13.2456
484.583	13.4508
486.341	14.4993
488.098	16.0378
489.855	16.6773
491.612	17.1636
493.37	17.8781
495.126	18.4563
496.881	18.9047
498.636	20.5211
500.391	22.0769
502.148	21.0633
503.902	20.2287
505.656	20.9746
507.409	20.8346
509.162	20.2081
510.915	20.8609
512.668	20.0871
514.42	19.4273
516.174	18.22
517.925	18.8137
519.676	17.6678
521.427	17.7176
523.178	16.9834
524.928	17.0249
526.678	15.6459
528.427	16.0718
530.176	14.9492
531.925	14.7306
533.673	13.6227
535.422	13.8155
537.169	13.2937
538.917	12.8988
540.664	12.167
542.411	11.8683
544.157	11.6588
545.903	12.5664
547.649	12.3204
549.395	13.2303
551.14	12.1239
552.884	12.0627
554.629	11.6993
556.373	11.2915
558.117	11.5335
559.86	11.7745
561.603	12.0767
563.346	11.9815
565.089	11.1679
566.831	11.8485
568.573	12.36
570.314	11.4805
572.053	11.385
573.794	11.6647
575.534	11.9236
577.274	11.3674
579.014	12.6933
580.754	12.1615
582.493	12.7977
584.23	13.7472
585.968	13.8458
587.706	13.8006
589.444	13.2917
591.181	13.2129
592.919	13.4053
594.653	13.2874
596.39	11.9844
598.126	11.6467
599.862	11.117
601.595	10.8171
603.33	10.7059
605.065	10.686
606.8	9.7161
608.532	9.21836
610.266	8.32684
611.999	8.3142
613.732	7.78579
615.463	7.60049
617.196	6.56941
618.928	6.32824
620.66	5.29886
622.389	4.78651
624.12	5.02661
625.851	4.84082
627.58	5.26603
629.31	5.37138
631.04	5.5565
632.767	5.7589
634.497	6.4246
636.223	6.85843
637.952	7.32684
639.68	9.18307
641.406	8.93128
643.134	9.76089
644.861	10.5069
646.586	11.2652
648.312	11.6146
650.037	12.4102
651.762	12.7718
653.486	14.0001
655.211	14.8901
656.936	15.9998
658.659	17.4127
660.383	18.767
662.105	19.2592
663.829	19.8483
665.55	21.9179
667.273	22.3536
668.994	23.203
670.716	24.2058
672.436	24.417
674.158	24.5511
675.877	24.0675
677.598	24.1177
679.317	24.7475
681.035	24.9146
682.755	25.6264
684.473	27.4712
686.192	27.4066
687.909	28.0439
689.628	27.7912
691.344	27.1244
693.06	27.3286
694.778	27.4682
696.493	26.8697
698.211	26.6648
699.925	26.0528
701.64	25.4899
703.356	25.5179
705.07	26.4141
706.783	26.7153
708.498	27.2936
710.211	28.4513
711.924	29.2797
713.638	30.9266
715.35	32.4101
717.061	33.6245
718.774	34.8811
720.485	36.3538
722.196	36.9106
723.906	38.6832
725.618	39.83
727.328	41.0777
729.037	43.102
730.746	44.0705
732.456	46.0358
734.165	47.0233
735.873	48.4863
737.58	50.4927
739.289	52.5544
740.997	54.6886
742.703	56.6165
744.41	57.9886
746.116	58.9018
747.823	59.3191
749.529	61.4674
751.234	63.6157
752.938	64.1517
754.643	64.4547
756.347	66.1198
758.051	66.8216
759.756	68.2122
761.459	69.4197
763.162	69.9976
764.865	70.6608
766.567	71.0743
768.269	72.9967
769.97	73.9444
771.671	73.9156
773.372	74.9342
775.073	74.7353
776.773	75.1267
778.473	75.7068
780.174	74.7142
781.874	73.0195
783.573	73.0948
785.271	73.4612
786.97	74.3182
788.668	75.4453
790.365	75.6026
792.063	75.9242
793.76	76.1009
795.456	77.1979
797.153	77.6613
798.847	77.9829
800.543	77.8363
802.238	77.8025
803.933	77.38
805.628	77.0823
807.322	76.193
809.017	76.2078
810.71	76.4265
812.404	77.2316
814.097	77.9499
815.79	77.8646
817.483	78.5852
819.173	78.2866
820.865	78.9302
822.556	79.9267
824.248	80.3034
825.939	80.7398
827.629	80.4825
829.318	79.8488
831.008	79.2319
832.697	79.9216
834.387	80.217
836.076	79.0952
837.765	77.5148
839.451	77.2293
841.139	77.6413
842.827	77.1825
844.514	76.6374
846.2	75.6135
847.886	74.743
849.573	75.5449
851.259	75.2791
852.943	74.3393
854.629	72.6333
856.314	70.4408
857.997	69.2374
859.682	68.2698
861.366	66.8263
863.05	65.1512
864.732	62.8934
866.415	61.285
868.098	62.0729
869.779	60.8098
871.461	59.8133
873.141	58.2004
874.823	56.1897
876.505	55.2395
878.184	54.4068
879.865	52.8025
881.545	50.7281
883.223	48.9403
884.903	47.3044
886.581	45.3606
888.26	43.5245
889.937	43.1468
891.616	42.0016
893.294	43.3549
894.97	43.8025
896.648	43.0199
898.323	43.4565
900	43.2117
901.675	44.1846
903.351	43.924
905.026	45.164
906.701	45.3661
908.375	45.4886
910.05	45.2222
911.723	45.4992
913.398	45.2501
915.07	45.4202
916.742	46.1111
918.415	46.3386
920.087	46.4717
921.76	46.9272
923.43	46.8997
925.103	47.3122
926.773	47.6904
928.443	47.7156
930.114	47.2965
931.783	46.911
933.454	47.1804
935.123	45.9562
936.791	45.303
938.461	45.0591
940.128	44.9283
941.796	45.1119
943.464	43.8907
945.131	42.7971
946.797	42.3473
948.465	41.2906
950.131	41.1774
951.797	40.9743
953.462	38.6612
955.128	37.9353
956.793	36.0054
958.457	33.8193
960.121	32.496
961.786	30.7573
963.45	28.5231
965.113	28.4663
966.775	28.6537
968.44	28.2462
970.102	28.2438
971.763	28.5703
973.425	28.8589
975.086	28.5456
976.748	29.0053
978.409	28.8324
980.069	28.9209
981.729	28.7401
983.388	28.9274
985.048	28.1013
986.708	27.1777
988.367	27.6287
990.025	26.7969
991.683	27.0511
993.341	26.8718
994.998	26.9457
996.655	25.6131
998.312	25.3461
999.969	25.5345
1001.62	25.2345
1003.28	23.8396
1004.94	24.0939
1006.59	24.0415
1008.25	25.0666
1009.9	25.032
1011.56	25.1769
1013.21	25.3032
1014.86	25.1662
1016.52	25.6835
1018.17	25.3274
1019.82	25.3417
1021.48	26.0158
1023.13	25.0564
1024.78	24.9703
1026.43	24.9195
1028.08	24.8317
1029.73	24.1852
1031.38	23.4289
1033.03	22.668
1034.68	21.9906
1036.33	19.9935
1037.98	18.744
1039.63	18.0545
1041.28	17.7702
1042.93	17.9184
1044.57	18.7803
1046.22	20.3309
1047.87	21.357
1049.52	20.947
1051.16	21.0781
1052.81	21.2065
1054.45	21.0882
1056.1	21.6978
1057.75	21.5602
1059.39	21.2679
1061.04	21.4866
1062.68	20.6259
1064.32	20.3985
1065.97	20.7336
1067.61	19.4809
1069.25	19.9064
1070.9	20.126
1072.54	20.2852
1074.18	20.3755
1075.82	19.9148
1077.47	19.6251
1079.11	18.7561
1080.75	19.7114
1082.39	19.7335
1084.03	19.9281
1085.67	19.8956
1087.31	20.8301
1088.95	21.5769
1090.59	22.1806
1092.22	22.6388
1093.86	23.9653
1095.5	24.1726
1097.14	24.689
1098.78	25.8301
1100.41	25.8715
1102.05	26.2084
1103.69	27.2736
1105.32	26.7759
1106.96	28.3065
1108.59	28.0307
1110.23	27.6295
1111.86	28.1027
1113.5	27.1291
1115.13	26.4161
1116.77	25.4801
1118.4	24.6058
1120.03	24.661
1121.67	25.0675
1123.3	23.8093
1124.93	23.7934
1126.56	23.9514
1128.19	23.0209
1129.83	21.1248
1131.46	20.3706
1133.09	20.7169
1134.72	20.0883
1136.35	19.2412
1137.98	18.345
1139.61	18.2452
1141.24	17.9322
1142.86	16.6115
1144.49	15.1008
1146.12	14.6302
1147.75	13.0493
1149.38	12.0175
1151	10.9971
1152.63	10.1128
1154.26	9.44954
1155.88	8.22877
1157.51	6.82178
1159.14	5.51815
1160.76	4.58603
1162.39	5.20542
1164.01	3.6091
1165.63	3.70058
1167.26	3.30086
1168.88	3.52728
1170.51	4.90669
1172.13	4.6877
1173.75	5.47529
1175.38	6.18071
1177	5.44401
1178.62	7.16309
1180.24	7.7428
1181.86	8.09024
1183.48	9.4522
1185.1	10.3208
1186.72	11.45
1188.34	12.7641
1189.96	13.0606
1191.58	13.565
1193.2	13.9002
1194.82	13.6829
1196.44	14.5717
1198.06	15.4252
1199.68	16.7685
1201.29	17.1679
1202.91	18.5327
1204.53	18.9219
1206.14	20.5051
1207.76	21.3114
1209.38	21.7753
1210.99	22.9706
1212.61	24.1777
1214.22	25.2014
1215.84	25.0285
1217.45	26.1062
1219.07	27.2478
1220.68	27.9305
1222.29	27.622
1223.91	27.012
1225.52	27.5365
1227.13	28.3188
1228.74	27.7337
1230.36	27.8435
1231.97	27.9038
1233.58	28.5279
1235.19	28.2544
1236.8	27.9077
1238.41	27.9226
1240.02	28.791
1241.63	29.0612
1243.24	29.5758
1244.85	28.9623
1246.46	30.4666
1248.07	31.3027
1249.67	31.844
1251.28	32.5534
1252.89	32.1129
1254.5	33.1155
1256.1	32.6448
1257.71	32.5334
1259.32	33.0558
1260.92	32.9436
1262.53	32.2406
1264.13	33.3268
1265.74	33.4273
1267.34	34.0801
1268.95	34.2294
1270.55	34.4156
1272.15	34.6385
1273.76	36.4036
1275.36	36.4896
1276.97	36.6758
1278.57	38.3617
1280.17	39.6047
1281.77	40.867
1283.37	42.0711
1284.97	43.5489
1286.58	45.1078
1288.18	46.1018
1289.78	46.4044
1291.38	47.8763
1292.98	49.3897
1294.58	50.7862
1296.18	51.8662
1297.78	53.9129
1299.37	54.9449
1300.97	55.8574
1302.57	57.3195
1304.17	59.3276
1305.77	60.6139
1307.36	62.7038
1308.96	64.3181
1310.55	65.8334
1312.15	66.7659
1313.75	68.2982
1315.34	68.9269
1316.94	70.5754
1318.53	71.9298
1320.13	72.5915
1321.72	72.415
1323.32	73.4863
1324.91	73.2887
1326.5	73.4275
1328.1	72.2756
1329.69	71.5698
1331.28	72.1864
1332.87	71.7435
1334.47	70.6874
1336.06	68.6548
1337.65	67.3861
1339.24	66.1838
1340.83	65.5264
1342.42	63.0628
1344.01	62.5874
1345.6	60.6798
1347.19	59.6655
1348.78	59.1371
1350.37	58.8154
1351.96	57.6661
1353.54	56.4293
1355.13	54.6144
1356.72	53.595
1358.31	53.5781
1359.89	52.3091
1361.48	51.2631
1363.07	49.6086
1364.65	49.127
1366.24	48.3623
1367.82	47.7195
1369.41	47.5836
1370.99	47.2232
1372.58	47.2051
1374.16	46.3645
1375.75	46.3618
1377.33	46.8967
1378.91	46.9961
1380.5	46.6943
1382.08	46.8678
1383.66	46.6781
1385.25	46.4404
1386.83	46.6138
1388.41	46.4975
1389.99	45.267
1391.57	44.2746
1393.15	44.2659
1394.73	43.5405
1396.31	43.1578
1397.89	42.6217
1399.47	42.352
1401.05	41.9659
1402.63	41.7736
1404.21	42.099
1405.78	42.3499
1407.36	43.5573
1408.94	44.7643
1410.52	46.3767
1412.1	45.9613
1413.67	45.6362
1415.25	46.3996
1416.82	46.2617
1418.4	46.8032
1419.98	47.4475
1421.55	48.4033
1423.13	49.7388
1424.7	51.723
1426.28	54.0087
1427.85	55.2665
1429.42	55.9405
1431	56.495
1432.57	56.9164
1434.14	58.3195
1435.71	59.6769
1437.29	61.0809
1438.86	62.4003
1440.43	63.9301
1442	64.8041
1443.57	66.4676
1445.14	67.6352
1446.71	67.9349
1448.28	68.2097
1449.85	67.7617
1451.42	67.5658
1452.99	67.1261
1454.56	66.3582
1456.13	65.508
1457.7	64.7632
1459.26	62.5873
1460.83	62.0703
1462.4	60.1412
1463.97	58.6414
1465.54	57.0576
1467.1	55.4675
1468.67	52.4576
1470.23	49.3408
1471.8	47.0632
1473.36	45.0901
1474.93	42.6677
1476.49	40.6503
1478.06	38.2644
1479.62	36.1127
1481.19	34.1544
1482.75	32.1373
1484.31	29.6556
1485.88	28.1136
1487.44	25.9702
1489	24.5227
1490.56	22.4303
1492.13	19.9626
1493.69	18.5848
1495.25	16.5324
1496.81	15.8826
1498.37	15.2089
1499.93	14.5175
1501.49	13.7231
1503.05	13.3883
1504.61	12.121
1506.17	11.3108
1507.73	11.091
1509.28	11.5875
1510.84	12.2107
1512.4	13.423
1513.96	13.8895
1515.52	13.9903
1517.07	14.0594
1518.63	14.3355
1520.19	14.5316
1521.74	15.3331
1523.3	16.0106
1524.85	16.9539
1526.41	17.8486
1527.96	18.4875
1529.52	18.6701
1531.07	19.4711
1532.63	20.5216
1534.18	21.8376
1535.73	22.3143
1537.29	22.4846
1538.84	23.2871
1540.39	23.632
1541.94	25.1182
1543.5	26.0145
1545.05	26.8607
1546.6	26.9079
1548.15	27.6662
1549.7	29.2421
1551.25	31.7134
1552.8	31.7698
1554.35	33.2987
1555.9	34.9181
1557.45	36.5102
1559	37.5693
1560.55	38.818
1562.1	41.3792
1563.65	42.8367
1565.19	44.6738
1566.74	46.1038
1568.29	46.5816
1569.83	47.4318
1571.38	49.1861
1572.93	49.7506
1574.47	51.3852
1576.02	52.6576
1577.56	53.4789
1579.11	54.2625
1580.66	55.4026
1582.2	56.6638
1583.74	57.6905
1585.29	58.8489
1586.83	59.9815
1588.38	60.2239
1589.92	60.0984
1591.46	60.2249
1593.01	60.3281
1594.55	59.9496
1596.09	59.4542
1597.63	58.9936
1599.17	59.1419
1600.71	59.0558
1602.25	58.2218
1603.79	56.8777
1605.34	55.5754
1606.88	55.2414
1608.41	54.5879
1609.95	54.0125
1611.49	52.6136
1613.03	51.6386
1614.57	51.1077
1616.11	49.5792
1617.65	49.7998
1619.18	49.6035
1620.72	49.4409
1622.26	49.7853
1623.79	48.838
1625.33	48.514
1626.87	48.8581
1628.4	49.4342
1629.94	48.9005
1631.48	50.6835
1633.01	51.7293
1634.55	52.0288
1636.08	52.3583
1637.61	53.274
1639.15	54.942
1640.68	54.3206
1642.21	55.3171
1643.75	56.223
1645.28	56.3702
1646.81	57.2595
1648.34	57.0946
1649.88	57.01
1651.41	57.3881
1652.94	56.8298
1654.47	56.0666
1656	55.0923
1657.53	54.7592
1659.06	53.8037
1660.59	52.9738
1662.12	51.6738
1663.65	50.6553
1665.18	49.6842
1666.71	48.7507
1668.24	47.5182
1669.76	46.1717
1671.29	45.097
1672.82	44.2581
1674.35	43.5629
1675.87	42.151
1677.4	40.5869
1678.93	38.1539
1680.45	37.0504
1681.98	35.9068
1683.5	34.3303
1685.03	31.4971
1686.55	29.461
1688.08	27.7149
1689.6	26.5031
1691.13	25.2168
1692.65	23.8387
1694.17	23.894
1695.7	22.333
1697.22	20.5998
1698.74	18.8336
1700.27	17.802
1701.79	17.5672
1703.31	17.1204
1704.83	16.9281
1706.35	16.878
1707.87	17.169
1709.39	16.8648
1710.91	16.1186
1712.43	16.4874
1713.95	16.5916
1715.47	16.8457
1716.99	15.5496
1718.51	15.7141
1720.03	15.531
1721.55	14.9058
1723.07	13.7195
1724.58	12.9575
1726.1	12.1063
1727.62	11.1399
1729.13	10.3806
1730.65	9.59729
1732.17	9.48505
1733.68	9.49396
1735.2	8.55648
1736.72	8.43888
1738.23	7.53398
1739.74	8.3675
1741.26	7.65938
1742.77	6.91258
1744.29	7.31623
1745.8	7.54022
1747.32	7.30953
1748.83	6.67749
1750.34	5.76673
1751.85	5.26296
1753.37	5.10318
1754.88	4.28639
1756.39	4.29002
1757.9	3.60253
1759.41	2.82566
1760.92	2.66912
1762.44	2.83335
1763.95	3.21785
1765.46	3.67257
1766.96	3.52975
1768.47	3.27923
1769.98	2.85694
1771.49	1.92568
1773	2.09787
1774.51	2.1663
1776.02	2.36071
1777.53	2.56473
1779.03	2.33866
1780.54	2.72498
1782.05	2.95257
1783.55	2.98979
1785.06	3.27053
1786.57	3.22141
1788.07	3.24695
1789.58	2.64635
1791.08	2.78427
1792.59	2.64354
1794.09	3.1651
1795.6	3.37054
1797.1	2.65007
1798.61	1.67005
1800.11	2.00645
1801.61	1.53643
1803.12	1.40684
1804.62	1.57878
1806.12	1.19424
1807.62	0.748951
1809.12	0.255581
1810.63	0.569057
1812.13	1.01725
1813.63	0.491505
1815.13	0.799703
1816.63	0.144433
1818.13	0.464863
1819.63	0.91414
1821.13	0.803953
1822.63	0.311508
1824.13	0.760666
1825.63	0.314517
1827.13	0.371782
1828.62	-0.299712
1830.12	-0.495392
1831.62	0.0445542
1833.12	0.449229
1834.61	1.22156
1836.11	1.15724
1837.61	1.34755
1839.1	1.95552
1840.6	1.89438
1842.09	1.7254
1843.59	1.61095
1845.09	1.51827
1846.58	1.61389
1848.08	1.49249
1849.57	1.44609
1851.06	2.35934
1852.56	2.87475
1854.05	2.67817
1855.54	2.54414
1857.04	3.12755
1858.53	3.5224
1860.02	4.3359
1861.51	4.53628
1863.01	4.56786
1864.5	4.87311
1865.99	5.41854
1867.48	5.95647
1868.97	6.19411
1870.46	5.66723
1871.95	5.9228
1873.44	6.02209
1874.93	6.34794
1876.42	6.01516
1877.91	6.05283
1879.4	5.73582
1880.89	5.57245
1882.37	5.56112
1882.46	5.25127
1883.95	5.24512
1885.45	4.7372
1886.94	4.4707
1888.43	4.97506
1889.93	4.53746
1891.42	4.54563
1892.91	4.56833
1894.41	4.08652
1895.9	2.913
1897.39	3.07906
1898.88	2.00656
1900.37	1.91786
1901.86	2.01317
1903.36	2.45269
1904.85	3.29797
1906.34	3.26574
1907.83	3.17673
1909.32	2.47031
1910.81	2.13921
1912.29	2.52173
1913.78	2.50346
1915.27	2.52136
1916.76	2.38828
1918.25	2.90192
1919.74	3.44823
1921.23	3.71734
1922.71	4.3257
1924.2	5.40464
1925.69	5.11864
1927.17	5.38916
1928.66	5.59621
1930.15	6.27586
1931.63	6.58272
1933.12	7.34302
1934.6	7.31282
1936.09	7.07971
1937.57	7.60313
1939.06	8.09916
1940.54	8.68007
1942.02	8.34429
1943.51	7.84771
1944.99	8.04447
1946.47	8.14189
1947.96	8.18803
1949.44	8.17808
1950.92	8.06355
1952.4	8.23956
1953.88	7.96649
1955.37	7.48857
1956.85	7.16405
1958.33	7.43439
1959.81	7.53633
1961.29	6.91962
1962.77	6.72764
1964.25	5.78302
1965.73	5.70436
1967.21	5.41617
1968.69	4.70859
1970.16	4.3599
1971.64	4.51227
1973.12	4.57122
1974.6	4.82545
1976.08	4.77694
1977.55	4.88685
1979.03	4.81132
1980.51	4.02139
1981.98	3.30503
1983.46	3.00542
1984.94	3.43774
1986.41	4.22043
1987.89	4.20463
1989.36	4.06514
1990.84	3.83527
1992.31	4.19762
1993.79	4.20184
1995.26	4.03562
1996.73	3.90817
1998.21	4.26099
1999.68	3.24056
2001.15	3.33638
2002.63	3.23551
2004.1	3.5059
2005.57	4.40738
2007.04	4.72381
2008.51	4.69336
2009.99	5.05778
2011.46	5.20401
2012.93	5.02336
2014.4	5.21251
2015.87	5.20312
2017.34	5.64042
2018.81	6.21392
2020.28	6.90628
2021.75	7.00198
2023.21	7.404
2024.68	7.16367
2026.15	7.69783
2027.62	7.70102
2029.09	7.72696
2030.56	7.01544
2032.02	6.90724
2033.49	7.17849
2034.96	7.04414
2036.42	7.68098
2037.89	7.55557
2039.36	7.97321
2040.82	8.19262
2042.29	7.94271
2043.75	7.62047
2045.22	7.89727
2046.68	7.8972
2048.14	7.66012
2049.61	7.43014
2051.07	7.54321
2052.54	6.43156
2054	6.21738
2055.46	6.32799
2056.93	6.37282
2058.39	6.42915
2059.85	5.54643
2061.31	5.71734
2062.77	5.36686
2064.23	4.98333
2065.7	5.17423
2067.16	5.19441
2068.62	4.80723
2070.08	4.77123
2071.54	4.52094
2073	4.14935
2074.46	5.26304
2075.92	5.76123
2077.38	6.51098
2078.83	7.13643
2080.29	6.39164
2081.75	6.51248
2083.21	6.74547
2084.67	6.42015
2086.12	6.59645
2087.58	7.18046
2089.04	7.05052
2090.49	6.8349
2091.95	7.6968
2093.41	7.42891
2094.86	7.02974
2096.32	7.32188
2097.77	7.19115
2099.23	7.52873
2100.68	7.13605
2102.14	6.5725
2103.59	6.0761
2105.05	6.43265
2106.5	6.20162
2107.95	5.93834
2109.41	5.85784
2110.86	5.79302
2112.31	5.63732
2113.76	4.97543
2115.21	3.97039
2116.67	3.12947
2118.12	2.8386
2119.57	1.99495
2121.02	1.6283
2122.47	1.16165
2123.92	1.21258
2125.37	0.749181
2126.82	1.54745
2128.27	1.38751
2129.72	1.18586
2131.17	1.27353
2132.62	1.11103
2134.07	1.28314
