#Acq. time (s)=	45
#Accumulations=	2
#Range (cm-¹)=	200...3150
#Windows=	2
#Auto scanning=	Off
#Autofocus=	Off
#Macrospot=	Off
#AutoExposure=	Off
#Spike filter=	Multiple accum.
#Delay time (s)=	0
#Binning=	1
#Readout mode=	Signal
#DeNoise=	Off
#ICS correction=	On
#Dark correction=	Off
#Inst. Process=	Off
#Detector Gain=	Best Dynamic Range
#Detector ADC=	20 kHz       
#Detector temperature (°C)=	-69.85
#Instrument=	LabRAM HR Evol
#Detector=	Synapse
#Objective=	x100
#Grating=	600 gr/mm
#ND Filter=	100%
#Laser (nm)=	532 
#Hole=	100.021
#Range=	Auto
#Laser Pol.=	No
#Raman. Pol.=	No
#Laser Pol. (°)=	-0.0007625
#Raman Pol. (°)=	89.9995
#Collection=	Microscope
#StageXY=	Marzhauser
#StageZ=	Marzhauser
#X (µm)=	4716.6
#Y (µm)=	-7698.4
#Z (µm)=	584.35
#Full time(mm:ss)=	3:19
#Project=	
#Sample=	
#Site=	
#Title=	Thy_30_10_46_2x_45s_532 nm_x100_100%_600 gr_mm
#Remark=	
#Date=	30.06.2022 14:42
#Acquired=	30.06.2022 14:42:48
#Base:Fit=	10.08.2022 09:58:11
#Base:Sub=	10.08.2022 09:58:44
#Filter:Polynom=	16.08.2022 10:22:53
#AxisType[0]=Intens
#AxisUnit[0]=Cnt
#AxisType[1]=Spectr
#AxisUnit[1]=1/cm
200.533	3.31701
202.348	6.15551
204.162	6.35685
205.976	6.41144
207.792	6.6745
209.605	6.76127
211.418	7.2298
213.23	7.56192
215.044	6.78091
216.856	6.50628
218.667	7.02325
220.478	6.09534
222.289	6.37577
224.102	6.51019
225.912	6.07255
227.721	6.25334
229.531	5.94873
231.34	5.72678
233.148	5.61655
234.956	4.62811
236.766	4.85348
238.574	5.46418
240.381	5.54076
242.188	5.80123
243.994	5.52867
245.801	5.31589
247.606	4.83866
249.412	4.54737
251.217	4.08935
253.024	2.41717
254.828	2.38152
256.632	2.47707
258.436	2.37602
260.239	3.25442
262.042	2.66622
263.845	2.47839
265.647	2.20527
267.449	1.69494
269.25	1.1185
271.052	1.05087
272.852	1.04789
274.653	0.891934
276.453	0.924652
278.253	1.94382
280.052	2.1624
281.852	2.70426
283.65	3.16159
285.449	3.71151
287.247	3.14782
289.044	4.01514
290.842	4.0758
292.639	4.51801
294.436	5.79866
296.232	6.82368
298.028	6.88353
299.821	8.20871
301.617	9.44025
303.412	8.83628
305.206	8.7886
307	9.7474
308.794	11.3166
310.588	11.1068
312.381	12.2021
314.172	12.7438
315.964	13.3028
317.756	14.4017
319.548	15.1005
321.34	14.9661
323.131	15.977
324.921	16.0421
326.71	16.7733
328.5	17.2572
330.29	16.5753
332.079	16.9024
333.868	16.0183
335.654	16.4009
337.443	15.9316
339.231	14.9925
341.018	13.1633
342.804	12.7609
344.591	13.3763
346.377	13.8496
348.163	13.4235
349.947	12.9238
351.733	12.0371
353.518	11.9749
355.303	10.3165
357.085	9.77503
358.869	9.44543
360.653	10.1341
362.435	9.73511
364.218	10.2199
366.001	10.154
367.781	9.83597
369.563	8.32583
371.345	8.59559
373.124	8.64745
374.905	8.23935
376.686	8.08437
378.464	7.96319
380.244	7.19026
382.022	7.7153
383.801	7.59651
385.58	7.27049
387.357	7.18822
389.135	7.34365
390.911	6.28255
392.689	5.9902
394.466	5.81374
396.241	5.39604
398.018	5.84619
399.792	4.22491
401.568	4.14363
403.341	4.5103
405.117	4.60795
406.889	4.79734
408.664	4.63115
410.436	4.17409
412.21	4.79664
413.981	3.79397
415.755	4.17641
417.525	4.94784
419.298	5.56636
421.068	6.05878
422.84	5.95383
424.609	6.28823
426.38	5.49406
428.149	6.01631
429.919	6.22581
431.688	7.48855
433.455	7.3914
435.225	7.0116
436.992	6.76267
438.76	5.81607
440.527	6.06114
442.293	5.88647
444.06	5.73004
445.826	6.73125
447.593	7.2334
449.357	7.20158
451.122	7.14943
452.888	7.59314
454.651	6.86862
456.415	6.61044
458.18	6.4379
459.942	7.17721
461.705	6.67137
463.469	6.85098
465.23	6.8413
466.991	7.27718
468.752	8.29956
470.515	8.82342
472.275	8.7678
474.035	9.3109
475.797	9.24372
477.556	9.62509
479.315	10.9349
481.073	11.1455
482.834	11.503
484.592	12.4041
486.349	12.5983
488.106	12.68
489.863	14.5135
491.622	15.4335
493.378	15.8837
495.134	16.7971
496.889	17.581
498.645	18.5904
500.401	19.283
502.156	20.1103
503.91	20.7491
505.664	20.6206
507.417	20.8038
509.171	20.2386
510.923	19.7699
512.678	19.0128
514.43	18.4285
516.182	18.5474
517.933	18.2039
519.684	18.2491
521.435	18.5669
523.186	18.9028
524.936	19.1456
526.686	18.486
528.435	19.0727
530.184	18.4692
531.933	18.4304
533.682	17.9829
535.43	17.6306
537.18	17.4058
538.927	17.5718
540.674	16.6497
542.421	15.2034
544.167	14.6145
545.913	15.1346
547.659	14.9588
549.403	13.9874
551.148	13.1735
552.893	13.2506
554.637	12.8722
556.381	12.1969
558.125	11.5108
559.868	11.1301
561.611	10.696
563.354	10.4013
565.097	10.6687
566.839	10.9235
568.581	9.13662
570.322	8.95603
572.063	8.2772
573.802	7.57861
575.542	7.85884
577.283	8.03222
579.022	6.49546
580.762	5.99536
582.501	6.11268
584.24	6.21685
585.976	5.91092
587.714	4.81876
589.452	3.84754
591.19	2.37544
592.927	1.7359
594.663	1.36235
596.398	0.781777
598.134	0.841305
599.87	0.998965
601.605	0.610412
603.338	1.1222
605.073	2.6115
606.808	3.19475
608.542	3.95658
610.274	3.70725
612.007	3.48989
613.74	3.48976
615.473	4.07334
617.204	4.40909
618.936	5.52654
620.668	6.03642
622.397	7.03432
624.128	7.57039
625.859	7.74807
627.588	8.38514
629.318	9.20921
631.048	9.98899
632.775	10.4058
634.505	10.5714
636.233	10.9402
637.96	12.0853
639.688	13.3861
641.416	13.6702
643.142	15.0606
644.869	15.5301
646.594	16.2425
648.32	16.8483
650.045	17.4049
651.771	17.7325
653.496	18.3165
655.219	17.7034
656.944	18.8729
658.667	19.1409
660.391	20.0228
662.113	20.119
663.837	19.5146
665.558	19.2264
667.281	20.0624
669.002	20.4475
670.724	20.7228
672.444	20.3948
674.166	20.4369
675.885	21.382
677.606	21.707
679.325	21.6816
681.045	21.8903
682.763	22.0074
684.483	22.7668
686.2	22.891
687.917	22.8895
689.636	23.9827
691.352	24.6219
693.07	24.4097
694.786	24.157
696.501	24.4645
698.219	24.9031
699.933	25.6225
701.65	27.0917
703.364	27.2286
705.078	28.4119
706.793	29.6407
708.506	30.5631
710.219	31.2096
711.934	31.8034
713.646	32.8223
715.358	32.6229
717.071	33.4045
718.782	34.4858
720.493	35.7786
722.204	36.0658
723.916	36.1814
725.626	35.9582
727.336	37.0942
729.045	38.8095
730.756	38.8176
732.464	39.3363
734.173	40.3387
735.881	40.9766
737.59	41.4573
739.297	41.5128
741.004	41.5698
742.711	42.1688
744.417	42.9407
746.125	44.4454
747.831	44.8482
749.537	46.4307
751.242	48.0692
752.946	49.0968
754.651	50.6496
756.357	52.5844
758.061	54.5879
759.764	55.3536
761.467	57.2004
763.17	57.8804
764.872	58.5135
766.575	60.3178
768.276	61.8234
769.978	63.0805
771.679	64.0733
773.382	65.1637
775.083	65.9718
776.783	67.0422
778.483	69.2419
780.182	69.8442
781.882	71.3325
783.581	71.4526
785.279	72.5592
786.978	73.5492
788.676	74.1445
790.373	75.7867
792.071	76.5613
793.768	76.5668
795.464	76.783
797.161	77.091
798.857	77.469
800.552	77.8784
802.248	78.466
803.941	78.7213
805.636	78.4011
807.33	78.2912
809.024	78.1291
810.718	79.2242
812.412	80.2536
814.105	79.3109
815.798	77.6127
817.49	78.0488
819.183	77.8405
820.873	77.4441
822.564	76.8336
824.256	76.1338
825.947	75.6734
827.637	75.9319
829.328	75.8514
831.016	75.1324
832.705	74.0793
834.395	73.5295
836.084	71.5806
837.772	70.6474
839.459	71.0592
841.147	69.8717
842.835	69.1903
844.522	68.4858
846.209	68.4995
847.894	67.1011
849.581	66.2665
851.267	65.85
852.953	65.1318
854.637	63.4565
856.322	62.8659
858.007	62.2917
859.689	59.965
861.374	59.4066
863.058	58.6964
864.739	57.2229
866.423	56.7089
868.106	55.7395
869.787	55.7005
871.469	54.7962
873.151	54.3643
874.831	54.1878
876.512	53.4165
878.193	52.6188
879.872	53.0928
881.553	53.6061
883.231	53.1559
884.911	52.7185
886.591	52.7931
888.268	52.282
889.947	52.7597
891.623	53.5395
893.302	52.9663
894.978	52.9744
896.656	52.9892
898.331	51.9293
900.008	52.9337
901.683	53.889
903.359	53.6715
905.033	53.2283
906.709	52.1155
908.383	50.9898
910.058	49.607
911.731	49.0298
913.405	47.682
915.078	46.6282
916.752	46.3286
918.423	45.8443
920.096	44.8883
921.768	45.0345
923.438	45.6023
925.111	44.5663
926.781	44.4784
928.452	43.8318
930.122	43.1256
931.791	42.6092
933.462	42.1772
935.13	41.6471
936.799	40.3894
938.468	38.7662
940.136	38.0624
941.803	36.3666
943.472	34.8604
945.139	34.6274
946.805	34.3455
948.473	34.323
950.139	34.0662
951.804	33.7925
953.471	33.0864
955.136	32.7633
956.801	32.8765
958.465	33.0722
960.131	32.6466
961.794	32.1635
963.458	31.6987
965.12	31.6953
966.785	30.912
968.447	31.4401
970.109	32.0981
971.771	32.4575
973.432	33.1679
975.095	32.8359
976.756	33.0502
978.417	33.7079
980.077	34.0695
981.737	33.9057
983.396	34.5106
985.057	34.2623
986.716	34.1157
988.375	32.3821
990.033	32.5293
991.691	31.6713
993.349	31.0212
995.006	30.7743
996.663	30.3247
998.32	30.6467
999.976	30.8723
1001.63	30.8997
1003.29	31.3513
1004.95	31.9652
1006.6	32.3011
1008.26	30.839
1009.91	30.6584
1011.56	30.8851
1013.22	31.2222
1014.87	30.8102
1016.53	30.1927
1018.18	30.0364
1019.83	29.7046
1021.48	29.2586
1023.14	28.3493
1024.79	27.8601
1026.44	28.1142
1028.09	27.358
1029.74	27.4342
1031.39	26.3634
1033.04	25.2228
1034.69	24.2211
1036.34	23.832
1037.99	23.7384
1039.64	22.8752
1041.29	22.4279
1042.94	21.4405
1044.58	22.1375
1046.23	23.073
1047.88	24.3792
1049.52	24.946
1051.17	25.3676
1052.82	25.4166
1054.46	24.8404
1056.11	24.6842
1057.75	25.3147
1059.4	25.7833
1061.04	24.7178
1062.69	24.3379
1064.33	24.574
1065.98	24.6898
1067.62	24.5957
1069.26	24.1033
1070.9	24.2033
1072.55	24.8887
1074.19	24.1463
1075.83	23.7147
1077.47	24.2538
1079.11	24.3848
1080.76	25.4988
1082.4	25.9012
1084.04	26.2792
1085.68	26.3235
1087.32	26.6047
1088.95	27.0792
1090.59	26.8887
1092.23	28.207
1093.87	27.8613
1095.51	27.4472
1097.15	27.1394
1098.78	27.0113
1100.42	26.6382
1102.06	25.7589
1103.69	25.1153
1105.33	24.7242
1106.97	25.0096
1108.6	23.9525
1110.24	23.098
1111.87	22.1374
1113.51	20.3353
1115.14	20.7299
1116.77	19.3481
1118.41	19.2538
1120.04	18.3374
1121.67	17.6523
1123.31	17.3777
1124.94	17.2907
1126.57	16.9502
1128.2	16.6942
1129.83	16.2104
1131.47	15.1457
1133.1	14.2385
1134.72	13.452
1136.36	12.9416
1137.98	13.2402
1139.62	12.5075
1141.24	11.105
1142.87	9.82924
1144.5	10.0978
1146.13	10.8709
1147.76	10.6952
1149.38	10.2672
1151.01	9.90099
1152.64	9.19543
1154.27	8.22899
1155.89	7.45325
1157.52	6.82969
1159.14	6.91957
1160.77	6.71499
1162.39	7.27267
1164.02	6.01882
1165.64	5.5355
1167.27	5.71786
1168.89	6.66295
1170.51	6.48377
1172.14	6.13356
1173.76	5.94346
1175.38	5.56296
1177	6.39334
1178.63	6.85235
1180.25	6.28726
1181.87	5.79026
1183.49	6.72762
1185.11	7.13603
1186.73	7.58876
1188.35	7.86643
1189.97	7.47945
1191.59	7.84727
1193.21	7.96057
1194.83	8.28177
1196.45	9.41763
1198.07	9.0123
1199.68	10.3996
1201.3	10.616
1202.92	12.3487
1204.53	13.3056
1206.15	14.5158
1207.77	15.4216
1209.38	17.8228
1211	18.6982
1212.62	19.55
1214.23	21.0876
1215.84	21.65
1217.46	22.2457
1219.07	23.8346
1220.69	24.7064
1222.3	25.8774
1223.91	27.3542
1225.53	29.7094
1227.14	31.2545
1228.75	32.7196
1230.36	33.4532
1231.97	34.8908
1233.59	35.3653
1235.2	37.5152
1236.81	39.0088
1238.42	40.6908
1240.03	42.1568
1241.64	43.2515
1243.25	43.3023
1244.85	44.4612
1246.46	46.0422
1248.07	47.2928
1249.68	48.2567
1251.29	48.4948
1252.9	49.4532
1254.5	49.8473
1256.11	50.3785
1257.72	50.2879
1259.32	50.3079
1260.93	49.9831
1262.54	51.3745
1264.14	51.8214
1265.75	51.8468
1267.35	52.2963
1268.96	51.2724
1270.56	50.6242
1272.16	51.01
1273.77	51.1983
1275.37	51.5968
1276.97	52.0764
1278.57	52.8628
1280.18	54.045
1281.78	54.917
1283.38	55.8166
1284.98	54.7025
1286.58	55.3423
1288.18	55.5839
1289.78	56.6187
1291.38	56.1322
1292.99	55.347
1294.58	55.3368
1296.18	55.227
1297.78	55.3507
1299.38	56.2734
1300.98	56.0522
1302.58	56.4621
1304.17	56.0446
1305.77	56.1783
1307.37	56.5282
1308.97	57.14
1310.56	56.675
1312.16	57.3134
1313.76	57.3955
1315.35	58.2307
1316.95	57.684
1318.54	56.7409
1320.14	55.7469
1321.73	54.8139
1323.32	55.4729
1324.92	55.811
1326.51	55.0678
1328.1	54.707
1329.7	54.271
1331.29	53.2354
1332.88	52.6184
1334.47	51.1729
1336.07	49.8954
1337.66	49.4525
1339.25	49.4902
1340.84	48.815
1342.43	48.3363
1344.02	47.7346
1345.61	46.7444
1347.2	45.6942
1348.79	45.5152
1350.37	45.6912
1351.96	45.5122
1353.55	45.0049
1355.14	44.3944
1356.73	43.8411
1358.31	43.3341
1359.9	42.9213
1361.49	42.117
1363.07	41.1664
1364.66	40.1457
1366.25	40.602
1367.83	39.5351
1369.42	39.1116
1371	37.0697
1372.59	36.6948
1374.17	36.2729
1375.75	35.8537
1377.34	34.9507
1378.92	34.7042
1380.5	34.1181
1382.09	33.662
1383.67	32.7949
1385.25	33.5413
1386.83	33.6821
1388.42	33.5287
1390	32.8033
1391.58	32.523
1393.16	31.4487
1394.74	31.1213
1396.32	29.5097
1397.9	28.279
1399.48	28.3713
1401.06	28.388
1402.64	28.3737
1404.21	27.1934
1405.79	27.0365
1407.37	27.0457
1408.95	26.2386
1410.53	25.8977
1412.1	26.6796
1413.68	27.0603
1415.26	28.1513
1416.83	30.2779
1418.41	31.6448
1419.98	32.3603
1421.56	33.6607
1423.13	34.7418
1424.71	35.3498
1426.28	37.33
1427.86	39.1639
1429.43	39.759
1431	40.8287
1432.58	43.6049
1434.15	45.8604
1435.72	47.9253
1437.29	50.2089
1438.87	52.6271
1440.44	53.7044
1442.01	54.8674
1443.58	56.1654
1445.15	56.6285
1446.72	56.9826
1448.29	58.0975
1449.86	57.9977
1451.43	58.9642
1453	58.2342
1454.57	58.0203
1456.14	57.5628
1457.71	57.1827
1459.27	56.5042
1460.84	55.4608
1462.41	53.656
1463.98	52.134
1465.54	49.6321
1467.11	47.9466
1468.67	45.1868
1470.24	43.0849
1471.81	40.2963
1473.37	38.5912
1474.94	35.0409
1476.5	33.8414
1478.07	31.6858
1479.63	29.4157
1481.19	27.3064
1482.76	25.5023
1484.32	23.773
1485.88	22.3841
1487.45	21.0755
1489.01	21.0384
1490.57	20.2978
1492.13	18.9798
1493.69	18.0666
1495.26	17.8608
1496.82	17.4466
1498.38	17.1784
1499.94	17.2066
1501.5	16.6833
1503.06	17.1167
1504.62	17.0594
1506.17	17.4127
1507.73	17.8215
1509.29	18.9372
1510.85	20.258
1512.41	20.1034
1513.97	19.6344
1515.52	19.5336
1517.08	20.0877
1518.64	20.3098
1520.19	20.6171
1521.75	20.6043
1523.31	20.6059
1524.86	21.949
1526.42	22.4625
1527.97	22.0311
1529.52	21.6827
1531.08	21.4772
1532.63	22.1659
1534.19	23.2352
1535.74	22.8941
1537.29	23.0732
1538.85	22.9241
1540.4	23.6949
1541.95	24.9177
1543.5	25.4086
1545.06	26.5957
1546.61	27.3522
1548.16	28.7376
1549.71	30.2821
1551.26	31.473
1552.81	32.8403
1554.36	34.3789
1555.91	35.1043
1557.46	37.4698
1559.01	39.1253
1560.56	40.6292
1562.11	42.6331
1563.65	44.3526
1565.2	45.0366
1566.75	45.7826
1568.29	46.0336
1569.84	46.7941
1571.39	47.855
1572.94	48.6724
1574.48	50.0074
1576.03	50.6895
1577.57	51.4072
1579.12	52.7852
1580.66	54.4009
1582.21	55.2682
1583.75	56.4851
1585.3	56.4435
1586.84	55.9598
1588.38	56.1457
1589.93	56.305
1591.47	57.0923
1593.01	57.5059
1594.55	58.9342
1596.1	58.4817
1597.64	57.2925
1599.18	57.1914
1600.72	56.5011
1602.26	55.9558
1603.8	55.5352
1605.34	54.4242
1606.88	53.7602
1608.42	53.7486
1609.96	53.9897
1611.5	52.8779
1613.04	52.3031
1614.58	52.4347
1616.12	51.9677
1617.65	52.7027
1619.19	52.8684
1620.73	52.949
1622.27	53.7853
1623.8	53.5311
1625.34	53.7193
1626.87	54.1292
1628.41	53.6444
1629.95	54.1081
1631.48	53.1199
1633.02	54.7436
1634.55	54.8299
1636.09	54.4814
1637.62	54.6039
1639.15	54.2536
1640.69	53.917
1642.22	53.4612
1643.76	54.5659
1645.29	54.2913
1646.82	54.166
1648.35	53.2409
1649.88	54.1404
1651.42	55.2352
1652.95	55.4439
1654.48	56.2547
1656.01	55.9585
1657.54	55.151
1659.07	54.8502
1660.6	54.03
1662.13	53.3279
1663.66	53.2373
1665.19	53.6582
1666.72	52.7435
1668.24	51.5606
1669.77	50.5465
1671.3	49.3186
1672.83	47.5402
1674.35	45.954
1675.88	45.0821
1677.41	43.6649
1678.93	42.7563
1680.46	41.3011
1681.99	39.1503
1683.51	37.6814
1685.04	36.3988
1686.56	34.7042
1688.09	31.7437
1689.61	30.718
1691.13	28.4013
1692.66	26.3054
1694.18	25.2327
1695.71	23.4359
1697.23	22.1245
1698.75	21.0569
1700.27	19.3534
1701.8	17.6933
1703.32	17.557
1704.84	15.8326
1706.36	14.9325
1707.88	13.9962
1709.4	13.7197
1710.92	12.1423
1712.44	11.8169
1713.96	11.5593
1715.48	10.626
1717	10.3536
1718.52	9.21534
1720.04	9.15584
1721.56	7.76866
1723.07	8.0793
1724.59	7.79748
1726.11	9.23006
1727.63	9.20214
1729.14	8.59936
1730.66	8.48583
1732.18	7.59668
1733.69	7.86161
1735.21	8.23351
1736.72	7.51261
1738.24	7.58292
1739.75	7.19601
1741.27	6.50431
1742.78	6.02506
1744.3	5.88439
1745.81	5.25966
1747.32	4.59797
1748.84	4.44486
1750.35	3.89195
1751.86	3.47154
1753.37	3.12677
1754.89	2.92052
1756.4	2.30166
1757.91	1.74707
1759.42	1.37024
1760.93	1.14119
1762.44	0.251126
1763.95	-0.0708426
1765.46	-0.0765087
1766.97	-0.409425
1768.48	-0.459292
1769.99	-0.0595231
1771.5	0.358442
1773.01	0.680811
1774.52	0.439193
1776.03	-0.215859
1777.53	-0.548779
1779.04	0.120197
1780.55	-0.555198
1782.06	-0.101838
1783.56	0.352432
1785.07	0.397075
1786.57	0.767063
1788.08	0.634486
1789.59	0.388327
1791.09	0.308674
1792.6	0.649152
1794.1	0.69525
1795.6	1.63848
1797.11	1.79675
1798.61	2.64404
1800.12	2.96609
1801.62	3.1829
1803.12	2.7785
1804.63	2.27553
1806.13	2.45127
1807.63	2.36096
1809.13	2.75306
1810.63	2.45192
1812.14	2.0676
1813.64	2.08053
1815.14	2.13683
1816.64	2.1248
1818.14	2.62016
1819.64	2.48551
1821.14	2.27951
1822.64	2.73682
1824.14	2.74977
1825.63	2.62486
1827.13	2.77494
1828.63	2.70973
1830.13	2.83563
1831.63	2.43975
1833.12	2.47271
1834.62	2.77991
1836.12	2.80381
1837.62	2.58354
1839.11	2.59474
1840.61	2.25244
1842.1	2.25634
1843.6	2.09779
1845.09	2.1296
1846.59	2.12451
1848.08	1.97521
1849.58	1.93008
1851.07	2.35376
1852.57	2.92372
1854.06	3.66469
1855.55	3.94648
1857.04	4.06182
1858.54	4.188
1860.03	4.52374
1861.52	4.53919
1863.01	4.96776
1864.5	5.62416
1866	6.29459
1867.49	6.82158
1868.98	7.42255
1870.47	8.08086
1871.96	8.06695
1873.45	8.64434
1874.94	8.65269
1876.43	8.96347
1877.92	9.29221
1879.41	9.10787
1880.89	9.09591
1882.38	9.20392
1882.48	9.24155
1883.97	9.21665
1885.47	9.44727
1886.96	9.64845
1888.46	9.62179
1889.95	9.69068
1891.44	9.70842
1892.94	9.4173
1894.43	9.34708
1895.92	9.13029
1897.41	8.95535
1898.9	8.59035
1900.4	8.55204
1901.89	8.5906
1903.38	9.01155
1904.87	8.48257
1906.36	8.05703
1907.85	7.75057
1909.34	7.29611
1910.83	7.3594
1912.32	7.51772
1913.81	7.239
1915.29	6.90564
1916.78	7.0461
1918.27	7.35711
1919.76	8.18304
1921.25	8.71359
1922.74	9.42264
1924.22	9.83615
1925.71	9.9365
1927.2	9.81243
1928.68	9.62785
1930.17	9.84172
1931.65	9.59761
1933.14	9.5729
1934.63	9.21739
1936.11	9.87054
1937.59	10.4027
1939.08	10.3811
1940.56	10.5429
1942.05	10.3621
1943.53	10.4142
1945.01	10.4761
1946.5	10.8885
1947.98	11.0384
1949.46	11.4116
1950.94	10.6246
1952.43	10.3284
1953.91	10.1492
1955.39	10.1166
1956.87	9.85715
1958.35	9.64013
1959.83	9.61303
1961.31	9.56054
1962.79	8.82317
1964.27	8.68507
1965.75	8.25215
1967.23	8.8011
1968.71	8.7757
1970.19	8.48293
1971.67	8.28869
1973.14	8.41647
1974.62	8.4529
1976.1	8.04674
1977.58	7.70165
1979.05	7.17114
1980.53	6.89911
1982.01	7.14481
1983.48	7.47044
1984.96	7.92261
1986.43	7.97618
1987.91	7.71927
1989.38	8.28037
1990.86	9.15383
1992.33	9.70122
1993.81	9.83711
1995.28	9.65134
1996.76	9.64301
1998.23	9.26299
1999.7	9.51508
2001.18	9.06137
2002.65	9.1583
2004.12	9.30232
2005.59	9.21473
2007.06	9.74832
2008.54	9.58145
2010.01	9.81395
2011.48	10.1535
2012.95	9.96045
2014.42	9.83935
2015.89	9.97824
2017.36	10.4109
2018.83	10.2854
2020.3	10.3267
2021.77	10.5819
2023.24	10.4439
2024.71	10.4127
2026.17	10.4867
2027.64	10.3452
2029.11	11.1406
2030.58	11.7451
2032.04	11.8083
2033.51	11.8285
2034.98	12.0717
2036.45	11.6895
2037.91	12.2263
2039.38	12.2943
2040.84	12.6603
2042.31	12.2109
2043.77	12.3559
2045.24	12.5545
2046.7	12.8233
2048.17	13.1007
2049.63	12.494
2051.1	13.4477
2052.56	13.9895
2054.02	14.2739
2055.48	15.0779
2056.95	15.2092
2058.41	15.456
2059.87	15.4972
2061.33	15.4773
2062.8	15.4331
2064.26	15.5007
2065.72	15.7257
2067.18	15.8644
2068.64	16.241
2070.1	16.552
2071.56	16.8263
2073.02	16.9752
2074.48	17.2848
2075.94	18.1254
2077.4	18.6013
2078.86	18.9947
2080.31	19.0928
2081.77	18.9283
2083.23	19.5984
2084.69	20.0409
2086.14	19.8124
2087.6	20.184
2089.06	20.9107
2090.52	21.1021
2091.97	20.826
2093.43	20.9751
2094.88	21.2709
2096.34	21.5705
2097.79	22.7378
2099.25	23.3628
2100.7	24.0239
2102.16	24.6676
2103.61	24.693
2105.07	24.6627
2106.52	25.0451
2107.97	26.0015
2109.43	26.211
2110.88	26.9286
2112.33	27.597
2113.78	28.7397
2115.24	29.7378
2116.69	31.2267
2118.14	31.9143
2119.59	32.9515
2121.04	34.1894
2122.49	35.1484
2123.94	36.2894
2125.39	36.4378
2126.84	36.5445
2128.29	37.0024
2129.74	37.9663
2131.19	39.1547
2132.64	39.5183
