#Acq. time (s)=	45
#Accumulations=	2
#Range (cm-¹)=	200...3150
#Windows=	2
#Auto scanning=	Off
#Autofocus=	Off
#Macrospot=	Off
#AutoExposure=	Off
#Spike filter=	Multiple accum.
#Delay time (s)=	0
#Binning=	1
#Readout mode=	Signal
#DeNoise=	Off
#ICS correction=	On
#Dark correction=	Off
#Inst. Process=	Off
#Detector Gain=	Best Dynamic Range
#Detector ADC=	20 kHz       
#Detector temperature (°C)=	-69.85
#Instrument=	LabRAM HR Evol
#Detector=	Synapse
#Objective=	x100
#Grating=	600 gr/mm
#ND Filter=	100%
#Laser (nm)=	532 
#Hole=	100.021
#Range=	Auto
#Laser Pol.=	No
#Raman. Pol.=	No
#Laser Pol. (°)=	-0.0007625
#Raman Pol. (°)=	89.9995
#Collection=	Microscope
#StageXY=	Marzhauser
#StageZ=	Marzhauser
#X (µm)=	1979.8
#Y (µm)=	-43.5
#Z (µm)=	425.1
#Full time(mm:ss)=	3:18
#Project=	
#Sample=	
#Site=	
#Title=	Thy_40_11_20_2x_45s_532 nm_x100_100%_600 gr_mm
#Remark=	
#Date=	05.07.2022 11:17
#Acquired=	05.07.2022 11:17:20
#Base:Fit=	10.08.2022 10:01:35
#Base:Sub=	10.08.2022 10:01:52
#Filter:Polynom=	16.08.2022 10:21:53
#AxisType[0]=Intens
#AxisUnit[0]=Cnt
#AxisType[1]=Spectr
#AxisUnit[1]=1/cm
200.43	2.68798
202.244	6.84471
204.059	8.6452
205.873	10.5161
207.688	11.6879
209.501	12.5202
211.314	13.09
213.127	13.6084
214.941	13.2419
216.753	12.9135
218.564	12.9527
220.375	13.2226
222.186	12.4548
223.999	12.3211
225.809	13.178
227.618	13.9109
229.428	13.1532
231.236	12.2046
233.045	12.1964
234.855	12.2086
236.663	11.7927
238.471	11.9039
240.278	11.8546
242.085	12.21
243.891	12.4075
245.698	12.395
247.503	11.934
249.309	11.3419
251.116	10.491
252.921	10.4171
254.725	9.16282
256.529	9.44025
258.333	10.605
260.136	10.6806
261.939	11.0589
263.742	10.9932
265.544	11.0812
267.346	11.2156
269.148	11.6368
270.949	11.6983
272.75	12.4325
274.55	12.2364
276.351	13.034
278.15	13.3638
279.95	13.5331
281.749	14.4966
283.548	14.3742
285.346	15.0877
287.144	15.6408
288.942	15.7672
290.739	15.8541
292.536	14.7659
294.333	14.6873
296.129	14.8009
297.925	13.8814
299.721	14.7106
301.514	14.2208
303.309	14.3048
305.104	14.1142
306.898	14.777
308.692	15.9994
310.486	16.5258
312.279	16.6039
314.072	16.6795
315.862	17.2592
317.654	16.7283
319.446	16.109
321.238	16.2411
323.029	16.0848
324.819	16.1985
326.608	16.1276
328.398	16.3432
330.188	16.1519
331.977	16.7569
333.766	16.6678
335.553	16.0035
337.341	15.5238
339.129	14.8269
340.917	14.2001
342.704	14.0404
344.489	13.2156
346.275	14.1514
348.062	14.2471
349.845	13.8493
351.631	13.9969
353.416	13.6909
355.201	14.3611
356.984	14.9043
358.768	14.7972
360.552	15.4904
362.333	14.9259
364.116	15.0054
365.899	15.9437
367.68	16.1065
369.462	16.699
371.243	16.3581
373.023	15.9927
374.804	15.4615
376.585	15.2763
378.363	14.3695
380.143	13.6535
381.923	13.2327
383.7	13.2627
385.479	12.4445
387.256	11.9259
389.034	13.2065
390.812	13.367
392.588	12.9207
394.365	12.7691
396.14	12.996
397.916	13.3437
399.691	12.2009
401.467	10.9102
403.24	9.94953
405.015	9.38469
406.788	8.15004
408.563	7.51095
410.335	6.34712
412.109	6.47804
413.88	6.74437
415.654	6.31671
417.424	5.81974
419.197	6.00268
420.967	5.85014
422.739	4.7529
424.508	4.21922
426.279	3.75137
428.048	3.68059
429.819	3.71985
431.587	4.51371
433.356	4.70025
435.124	3.97315
436.891	3.5783
438.66	3.80898
440.426	4.44964
442.194	5.61582
443.96	5.96199
445.725	5.70022
447.492	6.32351
449.257	7.16124
451.021	7.23916
452.787	7.98547
454.551	8.18464
456.314	8.21295
458.079	8.30884
459.842	8.94685
461.604	9.95514
463.368	9.38645
465.13	10.7208
466.891	10.2735
468.654	10.8813
470.415	11.8262
472.175	12.1809
473.935	12.9179
475.696	14.5115
477.456	15.2266
479.215	16.3681
480.973	17.058
482.733	16.9761
484.491	16.3396
486.249	16.507
488.006	15.7057
489.765	15.6168
491.522	16.216
493.278	17.1348
495.034	17.4332
496.789	18.1379
498.544	18.8954
500.301	19.9603
502.056	19.622
503.81	19.4291
505.564	19.349
507.317	19.8938
509.071	19.8316
510.825	19.1803
512.578	18.9595
514.33	18.2985
516.082	18.9044
517.833	18.5312
519.585	18.6852
521.335	18.1992
523.086	18.1069
524.836	18.9253
526.586	19.8988
528.335	19.488
530.085	19.4721
531.835	18.537
533.584	18.6547
535.332	18.142
537.08	17.6833
538.827	17.5677
540.574	17.3318
542.321	17.8609
544.068	17.7402
545.814	17.8829
547.56	17.6959
549.305	17.2418
551.05	16.8041
552.795	17.0939
554.54	16.7977
556.282	17.632
558.025	17.7842
559.769	17.8818
561.512	17.4011
563.255	17.3123
564.997	17.5854
566.739	17.219
568.481	15.3741
570.223	13.7281
571.964	14.0947
573.705	14.4264
575.443	14.0146
577.183	14.1887
578.923	14.8515
580.663	15.0517
582.402	13.3033
584.141	13.8345
585.879	14.3876
587.615	13.2483
589.353	12.6802
591.09	11.6512
592.828	11.5615
594.564	11.0544
596.299	10.0843
598.035	8.76481
599.771	9.47852
601.506	9.45622
603.242	9.30953
604.974	8.87559
606.709	9.40474
608.443	8.89643
610.177	8.94438
611.908	8.96825
613.642	8.2341
615.374	8.07456
617.105	9.29632
618.837	8.95342
620.569	9.19212
622.3	8.30847
624.03	8.48627
625.761	8.57732
627.491	8.3345
629.219	8.59478
630.949	8.41886
632.677	9.25049
634.406	9.36344
636.135	9.99139
637.861	10.8818
639.59	10.4312
641.318	9.51303
643.043	10.3526
644.77	10.0651
646.495	10.1817
648.222	10.4719
649.948	11.4051
651.672	11.2467
653.398	11.1307
655.121	12.0914
656.846	13.5949
658.569	14.2897
660.293	14.7219
662.015	16.2169
663.738	16.937
665.46	17.0024
667.183	17.003
668.903	17.4153
670.626	18.5894
672.346	19.3894
674.067	18.8995
675.787	19.8221
677.508	19.8731
679.226	20.2114
680.947	19.965
682.665	20.5178
684.385	21.3503
686.102	23.173
687.821	23.5847
689.538	24.8313
691.254	25.671
692.972	27.206
694.688	28.3016
696.406	29.9592
698.121	30.8385
699.835	31.1721
701.552	32.1488
703.266	32.0932
704.98	31.5848
706.695	32.3
708.409	33.0787
710.121	34.955
711.836	36.572
713.548	37.2688
715.26	37.821
716.973	38.381
718.685	39.2293
720.396	40.0504
722.108	41.3622
723.818	42.256
725.528	42.3514
727.238	43.6691
728.949	45.6558
730.658	46.76
732.367	48.0951
734.075	49.3914
735.785	49.6369
737.493	50.1644
739.2	51.226
740.907	52.6728
742.614	52.7755
744.322	52.3287
746.028	53.7568
747.734	54.4762
749.439	54.551
751.144	55.6701
752.849	57.0332
754.555	58.1175
756.26	58.9933
757.963	60.2955
759.667	60.6071
761.37	61.5352
763.073	62.9566
764.775	64.1925
766.477	65.7578
768.179	67.3874
769.883	68.6999
771.584	70.5726
773.285	71.4028
774.986	72.2041
776.686	72.5982
778.386	73.9188
780.085	74.3689
781.785	74.2629
783.484	74.7158
785.182	74.7776
786.881	75.3916
788.579	76.1593
790.276	77.8196
791.974	79.1597
793.671	80.2272
795.367	81.0059
797.064	81.3263
798.76	81.3559
800.456	81.9169
802.151	82.8438
803.846	83.5379
805.541	84.0593
807.234	84.9746
808.928	85.5174
810.622	85.1237
812.315	85.5331
814.008	85.0341
815.701	84.8698
817.394	83.9225
819.086	83.4832
820.778	82.6527
822.468	82.2348
824.159	81.798
825.85	81.7605
827.541	80.6279
829.231	80.729
830.921	81.0657
832.609	79.9754
834.298	78.9979
835.987	78.514
837.676	77.1469
839.364	77.1002
841.051	77.2516
842.738	76.2827
844.426	75.4886
846.113	75.0829
847.798	74.2304
849.484	72.5124
851.171	70.3828
852.857	68.9805
854.54	67.5431
856.226	67.2176
857.911	65.0538
859.593	63.6378
861.278	62.6085
862.961	61.3632
864.645	60.703
866.327	60.142
868.01	60.3742
869.692	59.4099
871.373	58.9165
873.055	58.2445
874.735	58.1795
876.416	56.4248
878.097	55.3172
879.776	54.5589
881.457	53.6218
883.135	52.9628
884.815	53.0133
886.495	53.6072
888.172	53.9144
889.851	54.0045
891.528	54.4246
893.206	54.278
894.882	53.2564
896.56	52.7795
898.237	51.9508
899.912	51.8971
901.589	52.0367
903.263	52.4256
904.94	52.2438
906.614	52.0892
908.289	52.852
909.962	54.275
911.635	54.1206
913.31	54.7819
914.982	54.8918
916.656	54.8779
918.328	54.3246
920.001	54.4442
921.672	53.9354
923.345	53.8185
925.015	53.776
926.685	52.2789
928.357	51.7148
930.026	51.1869
931.698	49.9723
933.366	49.3616
935.035	48.8542
936.705	49.3748
938.373	48.9939
940.041	48.6536
941.71	47.7148
943.377	47.4706
945.044	46.4099
946.712	45.4016
948.378	45.4047
950.044	45.7355
951.709	45.1922
953.376	43.8694
955.041	42.4114
956.706	41.9698
958.372	41.0938
960.036	40.0772
961.699	39.4831
963.362	39.3645
965.027	38.7465
966.69	38.6741
968.352	38.4697
970.014	38.1369
971.676	37.8177
973.339	37.1403
975	36.8001
976.661	35.4428
978.322	34.354
979.982	34.1532
981.642	34.5386
983.303	35.6142
984.962	36.4251
986.621	36.4888
988.28	36.3742
989.938	37.1329
991.596	38.4163
993.254	38.3683
994.911	37.2323
996.57	37.0024
998.227	36.0754
999.884	34.5061
1001.54	32.9757
1003.2	33.1439
1004.85	32.4219
1006.51	32.7878
1008.16	32.3341
1009.82	30.9623
1011.47	30.7338
1013.12	30.3167
1014.78	29.1709
1016.43	29.3226
1018.08	29.2774
1019.74	29.5853
1021.39	28.9568
1023.04	28.5631
1024.69	29.2274
1026.34	28.1225
1028	27.6993
1029.65	28.3065
1031.3	29.0348
1032.95	29.3605
1034.6	28.0068
1036.25	27.8093
1037.9	27.1254
1039.54	27.327
1041.19	27.007
1042.84	26.8793
1044.49	26.6518
1046.14	27.123
1047.78	26.7795
1049.43	26.8458
1051.08	27.508
1052.72	27.4889
1054.37	28.1569
1056.02	27.8522
1057.66	27.6605
1059.31	27.8147
1060.95	28.5397
1062.6	28.7418
1064.24	28.5715
1065.88	28.5118
1067.53	27.5824
1069.17	27.2075
1070.81	26.6485
1072.45	26.083
1074.1	25.011
1075.74	24.3017
1077.38	23.2136
1079.02	22.017
1080.66	21.5943
1082.3	21.1382
1083.94	20.146
1085.58	19.6398
1087.22	18.2339
1088.86	17.1426
1090.5	15.922
1092.14	15.6928
1093.78	15.9845
1095.42	15.038
1097.05	14.5366
1098.69	14.7341
1100.33	14.4308
1101.96	14.7094
1103.6	13.9672
1105.24	14.2576
1106.87	13.9653
1108.51	13.3802
1110.14	13.4226
1111.78	13.4017
1113.41	13.5849
1115.05	13.2333
1116.68	11.7388
1118.31	11.6038
1119.95	11.6854
1121.58	11.8686
1123.21	12.5148
1124.85	13.0973
1126.48	13.5327
1128.11	13.5118
1129.74	13.1431
1131.37	12.4233
1133	12.3218
1134.63	11.6399
1136.26	12.3971
1137.89	11.9423
1139.52	11.5831
1141.15	11.8201
1142.78	11.4786
1144.41	10.668
1146.04	10.2935
1147.66	9.72582
1149.29	9.3774
1150.92	9.40694
1152.55	8.95134
1154.17	8.63429
1155.8	8.47342
1157.43	7.7509
1159.05	6.70425
1160.68	6.02986
1162.3	6.45082
1163.93	5.71863
1165.55	5.02552
1167.17	4.75042
1168.8	4.90313
1170.42	5.20706
1172.05	5.37345
1173.67	5.26074
1175.29	5.28214
1176.91	5.03947
1178.54	6.06376
1180.16	6.04195
1181.78	6.51226
1183.4	7.26398
1185.02	7.59886
1186.64	8.17795
1188.26	7.79003
1189.88	7.95563
1191.5	8.01521
1193.12	9.04503
1194.74	9.19712
1196.36	9.01985
1197.97	8.93591
1199.59	11.2685
1201.21	12.9013
1202.83	13.5692
1204.44	14.5605
1206.06	15.3358
1207.68	15.6105
1209.29	15.4661
1210.91	16.3157
1212.52	16.613
1214.14	18.1122
1215.75	19.7355
1217.37	21.069
1218.98	21.915
1220.59	23.231
1222.21	24.5382
1223.82	25.3027
1225.43	25.8318
1227.05	27.6337
1228.66	29.1809
1230.27	30.5244
1231.88	31.0715
1233.49	31.9653
1235.1	33.6889
1236.72	34.2967
1238.33	35.2586
1239.94	36.5694
1241.55	37.5748
1243.16	38.5502
1244.76	39.3013
1246.37	40.3667
1247.98	40.7756
1249.59	40.8925
1251.2	41.2506
1252.8	41.1614
1254.41	41.7483
1256.02	42.4942
1257.62	44.249
1259.23	45.0501
1260.84	44.4802
1262.44	44.4502
1264.05	44.7037
1265.66	45.0845
1267.26	45.6979
1268.86	46.4366
1270.47	47.9008
1272.07	49.1613
1273.67	49.4441
1275.28	48.9382
1276.88	50.0912
1278.48	50.6328
1280.09	51.6728
1281.69	52.2843
1283.29	53.4087
1284.89	54.3319
1286.49	54.9623
1288.09	54.7255
1289.69	54.3199
1291.29	55.135
1292.89	54.1896
1294.49	55.2864
1296.09	56.6923
1297.69	57.4148
1299.29	57.8961
1300.89	57.9476
1302.49	58.007
1304.08	58.3713
1305.68	59.5086
1307.28	60.394
1308.88	60.6247
1310.47	60.2161
1312.07	61.6173
1313.66	63.402
1315.26	64.3111
1316.85	63.8638
1318.45	64.5223
1320.04	64.9351
1321.64	65.0986
1323.23	64.3418
1324.83	65.1193
1326.42	64.4218
1328.01	62.8999
1329.61	62.2181
1331.2	62.2446
1332.79	61.5776
1334.38	61.3604
1335.97	60.8222
1337.56	60.2755
1339.16	58.5831
1340.75	56.8117
1342.34	56.1743
1343.93	55.7367
1345.52	55.4029
1347.11	55.0957
1348.7	54.535
1350.29	53.4963
1351.87	51.7707
1353.46	50.4137
1355.05	49.274
1356.64	47.9472
1358.22	46.818
1359.81	46.0857
1361.4	44.686
1362.98	42.3315
1364.57	40.4446
1366.16	38.2022
1367.74	36.3623
1369.33	35.9386
1370.91	35.0736
1372.5	33.492
1374.08	33.8237
1375.67	32.6629
1377.25	30.8981
1378.83	29.808
1380.41	29.0212
1382	28.9551
1383.58	28.9666
1385.16	29.1244
1386.74	28.4624
1388.33	28.428
1389.91	28.8329
1391.49	29.1651
1393.07	28.5214
1394.65	28.0628
1396.23	27.6873
1397.81	27.1958
1399.39	26.3332
1400.97	25.6958
1402.55	25.3408
1404.13	25.3179
1405.7	24.0557
1407.28	24.6365
1408.86	24.9811
1410.44	25.3492
1412.01	25.2311
1413.59	25.9845
1415.17	27.477
1416.74	29.0956
1418.32	30.9249
1419.89	31.6696
1421.47	33.3804
1423.04	34.4251
1424.62	36.1852
1426.19	38.2763
1427.77	39.7639
1429.34	41.8215
1430.91	43.6083
1432.49	45.4117
1434.06	47.0054
1435.63	48.6947
1437.2	51.2222
1438.78	52.383
1440.35	53.5494
1441.92	55.0716
1443.49	56.803
1445.06	57.5854
1446.63	58.1753
1448.2	58.6365
1449.77	58.1562
1451.34	57.7892
1452.91	58.304
1454.48	57.7819
1456.05	57.5469
1457.62	56.9087
1459.18	56.1742
1460.75	54.3383
1462.32	53.151
1463.89	51.0633
1465.45	48.3792
1467.02	46.0272
1468.59	44.0709
1470.15	41.4877
1471.72	39.8245
1473.28	37.3329
1474.85	34.8708
1476.41	32.5057
1477.98	29.1814
1479.54	27.1722
1481.1	24.7783
1482.67	23.2836
1484.23	20.9001
1485.79	19.4036
1487.36	17.0273
1488.92	15.2965
1490.48	13.8098
1492.04	13.8581
1493.61	13.4233
1495.17	12.0064
1496.73	9.99585
1498.29	9.55379
1499.85	9.41647
1501.41	8.75075
1502.97	8.87406
1504.53	8.64482
1506.09	8.80151
1507.65	8.70213
1509.2	7.80558
1510.76	7.73821
1512.32	8.27203
1513.88	8.76808
1515.43	9.18637
1516.99	8.92699
1518.55	9.23608
1520.1	9.81297
1521.66	9.08727
1523.22	10.1496
1524.77	10.3611
1526.33	11.2485
1527.88	11.6961
1529.44	12.1811
1530.99	13.521
1532.54	14.1631
1534.1	14.1195
1535.65	14.8439
1537.21	15.3603
1538.76	14.9924
1540.31	15.9905
1541.86	16.6408
1543.42	18.3063
1544.97	20.1071
1546.52	21.9097
1548.07	22.2211
1549.62	23.387
1551.17	23.3698
1552.72	24.6028
1554.27	24.9137
1555.82	25.8785
1557.37	27.579
1558.92	29.3129
1560.47	30.7296
1562.02	31.0333
1563.56	32.4338
1565.11	33.7266
1566.66	35.0057
1568.21	36.7837
1569.75	37.5443
1571.3	38.3432
1572.85	40.1116
1574.39	41.151
1575.94	43.6268
1577.49	43.8231
1579.03	44.8081
1580.57	44.6749
1582.12	45.4311
1583.66	46.2444
1585.21	46.4099
1586.75	47.1577
1588.3	48.4107
1589.84	49.1493
1591.38	49.4814
1592.92	49.5152
1594.47	49.8232
1596.01	50.1795
1597.55	49.876
1599.09	49.9301
1600.63	51.2535
1602.17	49.7467
1603.71	49.0368
1605.25	48.1212
1606.79	48.2644
1608.33	48.4395
1609.87	48.2505
1611.41	47.6652
1612.95	47.4449
1614.49	46.315
1616.03	46.2542
1617.57	46.8169
1619.1	47.26
1620.64	46.9058
1622.18	46.3483
1623.72	45.6259
1625.25	45.5726
1626.79	45.6641
1628.32	45.2062
1629.86	46.1803
1631.39	46.6358
1632.93	47.5762
1634.46	48.1173
1636	49.1447
1637.53	48.8774
1639.07	49.088
1640.6	49.5637
1642.13	51.1906
1643.67	51.8108
1645.2	51.9834
1646.73	52.4111
1648.26	54.0508
1649.8	55.9335
1651.33	55.953
1652.86	56.7026
1654.39	56.6348
1655.92	57.0934
1657.45	56.8889
1658.98	57.3661
1660.51	57.1819
1662.04	57.7159
1663.57	58.0212
1665.1	57.4519
1666.63	57.2928
1668.16	56.5933
1669.68	55.5508
1671.21	54.4904
1672.74	52.8912
1674.27	51.6511
1675.79	50.7192
1677.32	48.225
1678.85	45.4429
1680.37	44.1193
1681.9	42.4243
1683.42	40.3546
1684.95	38.1181
1686.47	35.7019
1688	33.2411
1689.52	31.057
1691.05	29.0205
1692.57	27.3005
1694.09	25.9397
1695.62	24.566
1697.14	22.8523
1698.66	20.787
1700.18	18.91
1701.71	16.966
1703.23	15.5513
1704.75	14.3048
1706.27	12.9527
1707.79	11.5387
1709.31	10.1781
1710.83	8.91944
1712.35	7.89677
1713.87	7.01544
1715.39	6.88422
1716.91	5.74602
1718.43	5.25573
1719.95	4.18577
1721.47	4.11032
1722.99	4.92273
1724.5	5.60091
1726.02	5.52943
1727.54	4.82682
1729.06	4.97554
1730.57	5.48185
1732.09	6.11624
1733.61	6.37169
1735.12	6.45949
1736.64	7.08955
1738.15	7.53211
1739.67	7.46528
1741.18	7.08558
1742.7	7.33392
1744.21	6.56344
1745.72	6.71276
1747.24	7.08186
1748.75	7.13379
1750.26	7.41246
1751.77	7.05004
1753.29	6.38607
1754.8	6.50567
1756.31	6.49944
1757.82	6.37049
1759.33	6.27872
1760.84	6.49342
1762.36	6.21852
1763.87	6.58227
1765.38	6.34987
1766.89	6.04227
1768.4	5.93115
1769.91	5.66815
1771.41	5.11648
1772.92	4.65386
1774.43	3.78601
1775.94	3.50865
1777.45	2.90707
1778.95	2.80067
1780.46	2.24238
1781.97	1.70079
1783.48	1.92089
1784.98	1.72662
1786.49	1.67351
1787.99	1.71342
1789.5	1.80431
1791.01	1.34601
1792.51	0.564867
1794.01	0.670921
1795.52	0.787444
1797.02	0.854272
1798.53	0.520427
1800.03	0.195382
1801.53	-0.430734
1803.04	0.0036548
1804.54	0.120346
1806.04	0.294525
1807.54	-0.0941242
1809.05	-0.761609
1810.55	-1.04821
1812.05	-1.1658
1813.55	-1.0164
1815.05	-0.681972
1816.55	-0.524019
1818.05	-0.193092
1819.55	0.566108
1821.05	1.15261
1822.55	1.05974
1824.05	0.993052
1825.55	1.07125
1827.05	0.977839
1828.55	1.18892
1830.04	1.7368
1831.54	1.58796
1833.04	1.81822
1834.54	1.83971
1836.03	1.7741
1837.53	1.74846
1839.03	2.05942
1840.52	1.35732
1842.02	1.17992
1843.51	0.82028
1845.01	0.861709
1846.5	1.39266
1848	1.50949
1849.49	1.00224
1850.99	0.796679
1852.48	1.09222
1853.97	0.963379
1855.47	1.05025
1856.96	1.35641
1858.45	1.93974
1859.94	1.71473
1861.44	1.86453
1862.93	1.47572
1864.42	1.21965
1865.91	0.657867
1867.4	0.8863
1868.89	1.24091
1870.38	1.33787
1871.87	1.57847
1873.36	0.962366
1874.85	1.07047
1876.34	1.23796
1877.83	1.16268
1879.32	0.876446
1880.81	0.856983
1882.3	0.919857
1882.57	1.15217
1884.07	1.93785
1885.56	2.39309
1887.06	3.31437
1888.55	3.67474
1890.04	3.68478
1891.54	3.71966
1893.03	3.75606
1894.52	3.33967
1896.02	3.59568
1897.51	4.30117
1899	4.23361
1900.49	4.51828
1901.98	4.52373
1903.47	4.76535
1904.96	5.04188
1906.45	5.33054
1907.94	5.57485
1909.43	5.80116
1910.92	5.90063
1912.41	6.10016
1913.9	5.94424
1915.39	6.08011
1916.88	6.13043
1918.37	6.0594
1919.85	5.89776
1921.34	5.5494
1922.83	5.41878
1924.32	5.47978
1925.8	5.40007
1927.29	4.55288
1928.78	4.77662
1930.26	4.87292
1931.75	5.04047
1933.23	4.96551
1934.72	5.2983
1936.2	4.68397
1937.69	5.09967
1939.17	6.00385
1940.66	6.33836
1942.14	6.08964
1943.63	5.29134
1945.11	5.20836
1946.59	4.79038
1948.07	5.20679
1949.56	4.51815
1951.04	3.91574
1952.52	4.24431
1954	4.3249
1955.48	4.90744
1956.96	4.83477
1958.45	4.73562
1959.93	5.19631
1961.41	5.59314
1962.89	4.78632
1964.37	4.4882
1965.85	4.26852
1967.32	4.41978
1968.8	3.96491
1970.28	4.20971
1971.76	3.9228
1973.24	3.59332
1974.72	4.30718
1976.19	4.25973
1977.67	4.51983
1979.15	4.75983
1980.63	4.88955
1982.1	4.62784
1983.58	4.19953
1985.05	3.71083
1986.53	3.61538
1988	3.463
1989.48	3.31539
1990.95	3.88269
1992.43	3.45776
1993.9	3.48388
1995.38	3.53465
1996.85	3.42495
1998.32	3.40965
1999.8	3.60099
2001.27	3.89981
2002.74	4.75258
2004.22	5.36903
2005.69	6.07718
2007.16	5.68599
2008.63	5.71139
2010.1	5.65844
2011.57	6.17392
2013.04	6.2927
2014.51	5.60419
2015.98	5.31613
2017.45	4.86584
2018.92	4.85146
2020.39	4.4969
2021.86	4.10316
2023.33	3.50012
2024.8	3.8638
2026.27	3.68759
2027.74	3.71803
2029.2	3.60064
2030.67	3.80036
2032.14	3.7106
2033.61	3.83878
2035.07	3.70864
2036.54	3.13978
2038.01	3.58409
2039.47	4.29422
2040.94	4.48829
2042.4	4.45296
2043.87	5.14301
2045.33	5.05774
2046.8	5.69388
2048.26	5.54329
2049.72	5.17573
2051.19	5.62028
2052.65	5.66996
2054.12	5.55966
2055.58	5.51388
2057.04	5.94156
2058.5	6.75482
2059.97	7.19998
2061.43	8.2601
2062.89	8.12488
2064.35	8.77688
2065.81	8.7025
2067.27	9.27012
2068.73	9.73515
2070.19	10.2146
2071.65	10.8804
2073.11	11.5673
2074.57	11.6922
2076.03	12.4219
2077.49	13.1256
2078.95	13.5961
2080.41	13.7532
2081.87	14.3162
2083.32	15.0688
2084.78	14.9875
2086.24	15.1401
2087.7	14.9812
2089.15	15.6117
2090.61	15.9839
2092.07	16.7093
2093.52	17.1886
2094.98	18.1763
2096.43	18.7331
2097.89	19.4194
2099.34	20.2419
2100.8	21.082
2102.25	21.7295
2103.71	23.1461
2105.16	23.191
2106.61	24.7099
2108.07	26.1499
2109.52	27.1506
2110.97	27.9706
2112.43	28.736
2113.88	30.3433
2115.33	31.5623
2116.78	32.2275
2118.23	32.7275
2119.68	34.4872
2121.13	35.0763
2122.59	36.4195
2124.04	38.258
2125.49	39.703
2126.94	41.6019
2128.39	43.1442
2129.83	44.5717
2131.28	45.8741
2132.73	47.5565
