#Acq. time (s)=	45
#Accumulations=	2
#Range (cm-¹)=	200...3150
#Windows=	2
#Auto scanning=	Off
#Autofocus=	Off
#Macrospot=	Off
#AutoExposure=	Off
#Spike filter=	Multiple accum.
#Delay time (s)=	0
#Binning=	1
#Readout mode=	Signal
#DeNoise=	Off
#ICS correction=	On
#Dark correction=	Off
#Inst. Process=	Off
#Detector Gain=	Best Dynamic Range
#Detector ADC=	20 kHz       
#Detector temperature (°C)=	-69.85
#Instrument=	LabRAM HR Evol
#Detector=	Synapse
#Objective=	x100
#Grating=	600 gr/mm
#ND Filter=	100%
#Laser (nm)=	532 
#Hole=	100.021
#Range=	Auto
#Laser Pol.=	No
#Raman. Pol.=	No
#Laser Pol. (°)=	-0.0007625
#Raman Pol. (°)=	89.9995
#Collection=	Microscope
#StageXY=	Marzhauser
#StageZ=	Marzhauser
#X (µm)=	-5929.6
#Y (µm)=	2846
#Z (µm)=	-223.8
#Full time(mm:ss)=	3:19
#Project=	
#Sample=	
#Site=	
#Title=	Thy_20_09_46_2x_45s_532 nm_x100_100%_600 gr_mm
#Remark=	
#Date=	29.06.2022 13:52
#Acquired=	29.06.2022 13:52:57
#Base:Fit=	10.08.2022 09:52:02
#Base:Fit=	10.08.2022 09:52:12
#Base:Sub=	10.08.2022 09:54:21
#Filter:Polynom=	16.08.2022 10:24:04
#AxisType[0]=Intens
#AxisUnit[0]=Cnt
#AxisType[1]=Spectr
#AxisUnit[1]=1/cm
200.523	4.70592
202.339	4.92874
204.154	6.32083
205.967	5.85476
207.781	5.39957
209.596	5.10548
211.409	5.46615
213.222	5.26105
215.034	5.40964
216.848	5.42219
218.659	5.02927
220.47	4.54626
222.281	4.01471
224.091	3.82106
225.903	3.19499
227.713	4.35569
229.522	4.88034
231.331	5.25663
233.14	5.58636
234.948	6.52614
236.756	6.13015
238.566	5.87251
240.373	6.6763
242.18	6.42631
243.986	6.53008
245.792	6.15095
247.598	5.77509
249.403	4.75568
251.208	4.08903
253.013	4.12791
254.818	4.16083
256.624	4.31389
258.427	4.71245
260.231	4.66449
262.034	4.33915
263.836	4.93631
265.638	5.46686
267.44	5.92106
269.242	5.91837
271.043	5.76243
272.844	5.53409
274.645	6.03272
276.445	5.61771
278.245	5.55325
280.044	5.33266
281.843	5.43956
283.642	5.88214
285.44	6.06099
287.238	5.67407
289.036	4.92134
290.833	4.44337
292.63	4.11401
294.425	4.39037
296.221	6.08887
298.017	6.35086
299.813	6.74138
301.608	6.90365
303.403	6.00951
305.198	6.40399
306.992	6.71176
308.786	7.2478
310.579	8.16425
312.371	9.06471
314.163	9.74212
315.956	11.3199
317.748	12.154
319.54	12.3532
321.331	13.8126
323.122	14.8241
324.911	15.0461
326.701	15.133
328.491	16.1178
330.281	16.6426
332.071	15.0993
333.857	15.0099
335.646	14.2028
337.434	14.8151
339.222	14.2095
341.008	14.2525
342.795	14.0647
344.582	13.615
346.369	13.0207
348.153	13.3365
349.939	13.0538
351.724	12.6439
353.51	12.6673
355.292	11.8061
357.077	11.1674
358.861	10.6824
360.643	10.2577
362.426	10.3991
364.21	9.97799
365.99	9.45425
367.773	8.46344
369.555	8.69275
371.335	7.32626
373.116	6.95291
374.897	5.99579
376.676	5.01334
378.456	4.96389
380.236	6.43503
382.014	6.91773
383.793	7.72473
385.57	7.79057
387.349	6.9097
389.127	7.38124
390.903	7.75506
392.681	7.96482
394.456	8.3863
396.233	8.99345
398.007	9.09106
399.784	9.69138
401.56	10.0429
403.333	10.1997
405.108	11.4013
406.881	10.2547
408.656	10.8731
410.428	11.9446
412.202	11.3453
413.973	10.4438
415.746	10.4908
417.517	9.83353
419.29	8.57059
421.06	7.448
422.831	7.54568
424.601	7.99043
426.37	8.18806
428.141	7.13372
429.909	7.02327
431.679	6.81492
433.447	5.73066
435.216	5.41729
436.983	5.48198
438.75	5.05026
440.519	4.29245
442.285	4.63886
444.052	4.97249
445.818	5.01021
447.583	5.43754
449.349	5.21003
451.114	6.22277
452.878	5.78284
454.643	6.26133
456.407	5.87505
458.169	6.55007
459.934	6.76936
461.696	7.55356
463.458	7.90964
465.222	8.8071
466.983	10.2971
468.744	10.9296
470.507	11.0705
472.267	11.129
474.027	10.7944
475.787	11.3697
477.548	12.5081
479.307	12.5652
481.065	13.1444
482.823	13.9357
484.583	14.9514
486.341	16.194
488.098	17.4798
489.855	17.4765
491.612	17.8555
493.37	18.4389
495.126	17.9026
496.881	18.473
498.636	19.4925
500.391	19.6579
502.148	20.8376
503.902	21.163
505.656	21.5449
507.409	22.1152
509.162	22.4369
510.915	23.2614
512.668	24.2522
514.42	24.3472
516.174	24.9683
517.925	25.5783
519.676	26.042
521.427	26.5109
523.178	26.8754
524.928	27.4739
526.678	27.1849
528.427	26.998
530.176	27.3521
531.925	26.2791
533.673	25.5021
535.422	25.205
537.169	25.1069
538.917	24.7641
540.664	23.9261
542.411	23.3949
544.157	22.2856
545.903	22.0442
547.649	21.6479
549.395	20.9086
551.14	20.4328
552.884	19.8472
554.629	19.1637
556.373	17.8965
558.117	17.079
559.86	16.2335
561.603	16.0636
563.346	16.3093
565.089	16.1571
566.831	14.9769
568.573	14.5681
570.314	14.554
572.053	14.8996
573.794	14.3016
575.534	13.1026
577.274	12.5213
579.014	13.0615
580.754	12.6682
582.493	12.2085
584.23	11.9438
585.968	13.2025
587.706	12.7749
589.444	12.5879
591.181	11.0416
592.919	10.6993
594.653	10.7615
596.39	9.99754
598.126	9.75801
599.862	9.49959
601.595	9.47909
603.33	9.54824
605.065	9.3953
606.8	8.82172
608.532	8.05533
610.266	7.64897
611.999	7.10916
613.732	7.16709
615.463	7.03932
617.196	6.76512
618.928	6.27494
620.66	7.30559
622.389	6.70156
624.12	6.86138
625.851	7.16486
627.58	7.46605
629.31	7.84436
631.04	7.9316
632.767	8.49012
634.497	9.32262
636.223	10.0692
637.952	10.3344
639.68	11.0121
641.406	11.1133
643.134	11.515
644.861	13.1698
646.586	13.9066
648.312	14.4792
650.037	14.9465
651.762	15.6733
653.486	15.4434
655.211	16.4595
656.936	17.2978
658.659	17.2546
660.383	17.3413
662.105	18.4694
663.829	19.1708
665.55	19.6989
667.273	19.6071
668.994	19.8892
670.716	20.462
672.436	21.4016
674.158	20.8912
675.877	21.3891
677.598	20.9448
679.317	21.1095
681.035	21.3968
682.755	21.4266
684.473	22.3034
686.192	23.579
687.909	24.3059
689.628	24.6317
691.344	24.8058
693.06	24.9403
694.778	25.7502
696.493	26.2491
698.211	26.9671
699.925	28.2734
701.64	28.1464
703.356	29.1612
705.07	30.029
706.783	31.0005
708.498	31.6074
710.211	32.8616
711.924	33.682
713.638	34.4653
715.35	35.4195
717.061	35.5384
718.774	36.9983
720.485	38.2763
722.196	38.6572
723.906	39.5567
725.618	40.0472
727.328	40.2917
729.037	41.9842
730.746	42.3052
732.456	42.4241
734.165	43.399
735.873	44.5898
737.58	44.47
739.289	44.8326
740.997	45.5364
742.703	46.6651
744.41	47.3709
746.116	49.0149
747.823	50.6404
749.529	51.6459
751.234	53.1773
752.938	54.6568
754.643	56.4075
756.347	58.3319
758.051	59.0067
759.756	59.4775
761.459	60.9865
763.162	61.956
764.865	62.8891
766.567	64.0427
768.269	65.3172
769.97	65.4422
771.671	65.7727
773.372	66.9534
775.073	67.5254
776.773	68.1248
778.473	68.9922
780.174	69.553
781.874	70.2044
783.573	71.7462
785.271	72.4154
786.97	73.675
788.668	74.4085
790.365	75.0374
792.063	74.9791
793.76	75.3547
795.456	74.8148
797.153	74.8946
798.847	75.7389
800.543	75.6355
802.238	75.029
803.933	75.2892
805.628	75.4584
807.322	75.351
809.017	75.344
810.71	74.8403
812.404	74.4486
814.097	74.6201
815.79	73.4903
817.483	74.1905
819.173	74.2057
820.865	73.4581
822.556	71.7771
824.248	71.318
825.939	70.8652
827.629	71.1773
829.318	70.2886
831.008	70.5244
832.697	70.1436
834.387	70.2712
836.076	69.8166
837.765	69.5168
839.451	69.0135
841.139	67.6763
842.827	66.2464
844.514	65.1423
846.2	64.5895
847.886	63.2211
849.573	61.8077
851.259	60.226
852.943	58.5022
854.629	56.887
856.314	55.9994
857.997	55.4282
859.682	52.9535
861.366	52.1272
863.05	51.3552
864.732	50.1518
866.415	48.9674
868.098	48.6588
869.779	48.511
871.461	48.9626
873.141	46.9181
874.823	46.9241
876.505	45.9422
878.184	45.8132
879.865	44.9585
881.545	45.3376
883.223	44.8721
884.903	43.7688
886.581	43.1937
888.26	44.5096
889.937	44.6413
891.616	44.735
893.294	44.2173
894.97	44.459
896.648	44.3908
898.323	45.3197
900	44.2541
901.675	44.0028
903.351	44.136
905.026	43.6746
906.701	43.0945
908.375	44.2548
910.05	45.0743
911.723	45.5337
913.398	45.0947
915.07	45.8143
916.742	46.0757
918.415	46.4724
920.087	45.2837
921.76	44.7483
923.43	44.5403
925.103	44.1761
926.773	43.5859
928.443	43.7491
930.114	44.5143
931.783	44.353
933.454	42.7063
935.123	41.0033
936.791	40.3461
938.461	39.3342
940.128	37.9733
941.796	36.5025
943.464	35.438
945.131	34.0563
946.797	32.3908
948.465	31.2662
950.131	30.5541
951.797	30.8252
953.462	29.7465
955.128	28.7235
956.793	26.4376
958.457	25.9183
960.121	24.6019
961.786	24.1965
963.45	24.0738
965.113	24.1933
966.775	23.1228
968.44	23.2995
970.102	24.2565
971.763	24.3914
973.425	22.8154
975.086	22.5664
976.748	21.9137
978.409	21.3696
980.069	20.8241
981.729	20.1949
983.388	19.4657
985.048	20.185
986.708	20.5134
988.367	20.2434
990.025	21.1259
991.683	21.7475
993.341	20.5613
994.998	20.1629
996.655	20.4804
998.312	20.428
999.969	19.9706
1001.62	20.5549
1003.28	20.1619
1004.94	21.2801
1006.59	20.7388
1008.25	21.0336
1009.9	20.9131
1011.56	21.6359
1013.21	20.9298
1014.86	19.6808
1016.52	17.9362
1018.17	17.5471
1019.82	16.2417
1021.48	14.72
1023.13	14.0688
1024.78	13.7623
1026.43	13.5025
1028.08	12.0936
1029.73	12.6971
1031.38	12.1127
1033.03	11.6259
1034.68	11.637
1036.33	10.9967
1037.98	11.157
1039.63	11.2113
1041.28	11.1704
1042.93	11.3481
1044.57	11.417
1046.22	11.4714
1047.87	10.9533
1049.52	10.2465
1051.16	9.81552
1052.81	9.08652
1054.45	7.49581
1056.1	7.04485
1057.75	6.924
1059.39	6.613
1061.04	7.13194
1062.68	6.89247
1064.32	6.6023
1065.97	7.56356
1067.61	7.62614
1069.25	7.60065
1070.9	8.38922
1072.54	8.37055
1074.18	8.2246
1075.82	7.42835
1077.47	7.91897
1079.11	7.04148
1080.75	7.22398
1082.39	7.32038
1084.03	7.36513
1085.67	6.08234
1087.31	6.71726
1088.95	5.13868
1090.59	6.30373
1092.22	5.82909
1093.86	6.36771
1095.5	5.7533
1097.14	5.83512
1098.78	6.50361
1100.41	6.99643
1102.05	6.49033
1103.69	7.71557
1105.32	8.3205
1106.96	9.43988
1108.59	9.8421
1110.23	10.1963
1111.86	11.4655
1113.5	11.6349
1115.13	12.1694
1116.77	12.5019
1118.4	12.7889
1120.03	12.7626
1121.67	12.3437
1123.3	11.9506
1124.93	11.3708
1126.56	11.0438
1128.19	10.8173
1129.83	9.64841
1131.46	9.37536
1133.09	8.81146
1134.72	8.29248
1136.35	9.15699
1137.98	9.98277
1139.61	9.67345
1141.24	9.71079
1142.86	9.40067
1144.49	9.16758
1146.12	9.79023
1147.75	10.7845
1149.38	9.94807
1151	9.7536
1152.63	9.06573
1154.26	8.00945
1155.88	7.60503
1157.51	6.16627
1159.14	5.98535
1160.76	5.42605
1162.39	5.56441
1164.01	4.54443
1165.63	3.446
1167.26	3.23995
1168.88	3.49912
1170.51	2.6277
1172.13	2.96615
1173.75	2.58735
1175.38	3.70063
1177	3.3283
1178.62	5.1242
1180.24	5.38859
1181.86	4.96901
1183.48	5.25203
1185.1	5.61305
1186.72	6.16292
1188.34	6.95149
1189.96	6.58292
1191.58	6.75796
1193.2	7.86412
1194.82	8.1118
1196.44	8.35219
1198.06	9.20015
1199.68	10.0622
1201.29	10.735
1202.91	11.8263
1204.53	12.9149
1206.14	13.303
1207.76	13.4459
1209.38	15.0581
1210.99	16.171
1212.61	17.8539
1214.22	19.3961
1215.84	21.3114
1217.45	23.8464
1219.07	25.0706
1220.68	26.2579
1222.29	27.7053
1223.91	29.6224
1225.52	32.3237
1227.13	33.3907
1228.74	34.5663
1230.36	35.1103
1231.97	36.2388
1233.58	37.0598
1235.19	39.1677
1236.8	40.8664
1238.41	41.5882
1240.02	42.684
1241.63	43.1628
1243.24	43.4204
1244.85	44.2685
1246.46	44.8779
1248.07	46.0385
1249.67	46.4604
1251.28	46.4861
1252.89	47.2097
1254.5	48.0982
1256.1	48.4061
1257.71	48.4198
1259.32	48.2917
1260.92	47.7748
1262.53	47.8502
1264.13	47.9105
1265.74	47.4539
1267.34	48.8816
1268.95	49.0907
1270.55	49.5215
1272.15	50.6236
1273.76	51.3761
1275.36	51.4122
1276.97	52.4754
1278.57	52.9154
1280.17	53.7284
1281.77	54.0466
1283.37	53.4
1284.97	54.0797
1286.58	54.516
1288.18	55.9776
1289.78	58.1323
1291.38	58.3104
1292.98	58.7666
1294.58	59.6898
1296.18	61.0778
1297.78	62.4152
1299.37	63.4051
1300.97	65.1377
1302.57	66.406
1304.17	67.8552
1305.77	68.6564
1307.36	69.0386
1308.96	70.0431
1310.55	71.1521
1312.15	71.5391
1313.75	72.4484
1315.34	73.6477
1316.94	73.7727
1318.53	73.7447
1320.13	74.4853
1321.72	74.7921
1323.32	75.2581
1324.91	75.3663
1326.5	75.8436
1328.1	75.0055
1329.69	74.9634
1331.28	74.9436
1332.87	74.7916
1334.47	74.0492
1336.06	73.4345
1337.65	72.8513
1339.24	72.3416
1340.83	71.7296
1342.42	70.7894
1344.01	69.9199
1345.6	68.7392
1347.19	68.527
1348.78	66.8732
1350.37	66.2387
1351.96	65.9735
1353.54	65.3214
1355.13	64.5582
1356.72	63.4583
1358.31	61.2627
1359.89	60.2996
1361.48	59.19
1363.07	58.7244
1364.65	59.7661
1366.24	58.3174
1367.82	57.7558
1369.41	56.0924
1370.99	54.5541
1372.58	53.6955
1374.16	53.4051
1375.75	52.4986
1377.33	51.1939
1378.91	51.2703
1380.5	51.4721
1382.08	50.5668
1383.66	50.5018
1385.25	50.2496
1386.83	50.4528
1388.41	49.1487
1389.99	47.8645
1391.57	47.2414
1393.15	47.2425
1394.73	47.3264
1396.31	47.1737
1397.89	45.7373
1399.47	45.4593
1401.05	45.0965
1402.63	44.6877
1404.21	43.7808
1405.78	43.9771
1407.36	43.3673
1408.94	44.3461
1410.52	43.3139
1412.1	43.4769
1413.67	43.9802
1415.25	44.7559
1416.82	45.392
1418.4	47.0844
1419.98	47.812
1421.55	50.0402
1423.13	51.5511
1424.7	53.7015
1426.28	55.4025
1427.85	56.7086
1429.42	58.9195
1431	60.7683
1432.57	62.6308
1434.14	64.4398
1435.71	65.0224
1437.29	66.4661
1438.86	69.1172
1440.43	70.7229
1442	71.8635
1443.57	72.1949
1445.14	72.8773
1446.71	74.076
1448.28	74.9647
1449.85	75.2343
1451.42	75.5846
1452.99	75.1294
1454.56	74.1292
1456.13	74.8718
1457.7	75.1648
1459.26	74.1531
1460.83	72.8455
1462.4	71.1623
1463.97	68.5694
1465.54	65.7817
1467.1	62.4548
1468.67	61.2632
1470.23	59.1049
1471.8	56.9129
1473.36	54.3116
1474.93	51.7714
1476.49	48.699
1478.06	46.595
1479.62	43.5169
1481.19	41.4953
1482.75	39.1481
1484.31	36.8695
1485.88	35.3394
1487.44	33.3976
1489	31.2154
1490.56	30.5678
1492.13	28.481
1493.69	27.5954
1495.25	27.375
1496.81	26.5272
1498.37	25.2877
1499.93	24.5549
1501.49	23.3138
1503.05	22.2873
1504.61	21.5082
1506.17	22.0765
1507.73	22.1439
1509.28	21.567
1510.84	21.5418
1512.4	21.8154
1513.96	21.1623
1515.52	22.6274
1517.07	24.1251
1518.63	24.0794
1520.19	24.9379
1521.74	26.0612
1523.3	27.4961
1524.85	27.4504
1526.41	28.115
1527.96	28.056
1529.52	28.2803
1531.07	28.9408
1532.63	30.43
1534.18	32.1467
1535.73	32.9884
1537.29	34.4084
1538.84	35.5631
1540.39	36.316
1541.94	37.2734
1543.5	39.275
1545.05	41.1393
1546.6	43.34
1548.15	45.1578
1549.7	47.6554
1551.25	49.0517
1552.8	50.3566
1554.35	52.7965
1555.9	55.2479
1557.45	57.7209
1559	60.3993
1560.55	61.077
1562.1	62.956
1563.65	64.3742
1565.19	65.6082
1566.74	67.0261
1568.29	68.4412
1569.83	70.2613
1571.38	72.1835
1572.93	73.7289
1574.47	74.9512
1576.02	76.1376
1577.56	77.2987
1579.11	77.7759
1580.66	78.6334
1582.2	80.2855
1583.74	81.1044
1585.29	81.3685
1586.83	81.567
1588.38	83.0039
1589.92	84.7217
1591.46	84.8391
1593.01	85.9246
1594.55	85.4253
1596.09	84.9372
1597.63	85.1412
1599.17	84.5153
1600.71	83.2474
1602.25	83.188
1603.79	82.781
1605.34	81.897
1606.88	81.1018
1608.41	81.1934
1609.95	80.7216
1611.49	79.9779
1613.03	79.3483
1614.57	78.0718
1616.11	77.2374
1617.65	76.6536
1619.18	76.1745
1620.72	76.6767
1622.26	75.8443
1623.79	75.2877
1625.33	74.6472
1626.87	73.2363
1628.4	71.665
1629.94	71.0206
1631.48	71.3865
1633.01	70.5875
1634.55	69.1941
1636.08	68.8612
1637.61	68.5078
1639.15	69.5909
1640.68	69.0863
1642.21	69.6083
1643.75	69.2528
1645.28	68.8784
1646.81	68.5719
1648.34	68.1232
1649.88	67.7331
1651.41	67.2699
1652.94	65.8923
1654.47	65.4205
1656	65.2156
1657.53	65.0908
1659.06	64.9831
1660.59	64.1055
1662.12	63.3936
1663.65	63.0467
1665.18	62.4676
1666.71	61.3217
1668.24	59.117
1669.76	57.844
1671.29	55.515
1672.82	54.7539
1674.35	53.3314
1675.87	51.8669
1677.4	50.1738
1678.93	48.7056
1680.45	46.2794
1681.98	45.3533
1683.5	43.8502
1685.03	42.134
1686.55	40.5228
1688.08	38.7606
1689.6	36.1385
1691.13	34.2719
1692.65	33.0668
1694.17	31.3414
1695.7	29.8199
1697.22	27.5598
1698.74	24.3709
1700.27	22.0348
1701.79	20.2032
1703.31	19.0446
1704.83	17.924
1706.35	17.8904
1707.87	17.1041
1709.39	16.402
1710.91	15.2008
1712.43	15.5949
1713.95	15.0251
1715.47	14.3397
1716.99	12.9881
1718.51	12.3596
1720.03	12.2498
1721.55	11.6282
1723.07	11.4585
1724.58	11.0405
1726.1	10.8902
1727.62	10.8078
1729.13	11.0663
1730.65	11.2526
1732.17	11.2089
1733.68	10.9446
1735.2	11.1383
1736.72	11.0484
1738.23	11.3381
1739.74	11.2186
1741.26	10.4593
1742.77	10.6526
1744.29	10.5451
1745.8	10.8492
1747.32	10.4703
1748.83	10.9671
1750.34	10.2879
1751.85	10.3653
1753.37	10.0781
1754.88	9.28341
1756.39	8.99461
1757.9	9.39772
1759.41	8.7883
1760.92	8.34728
1762.44	8.02837
1763.95	7.17546
1765.46	6.67865
1766.96	7.02132
1768.47	6.58086
1769.98	6.0884
1771.49	5.62616
1773	4.25839
1774.51	3.9766
1776.02	4.21776
1777.53	3.8796
1779.03	3.94705
1780.54	3.88407
1782.05	3.60252
1783.55	3.18318
1785.06	3.67748
1786.57	3.83671
1788.07	4.51015
1789.58	4.40104
1791.08	4.07668
1792.59	4.34889
1794.09	4.56338
1795.6	4.84126
1797.1	4.56054
1798.61	4.5975
1800.11	5.18513
1801.61	5.9251
1803.12	5.84003
1804.62	6.25383
1806.12	5.88445
1807.62	6.66429
1809.12	7.38492
1810.63	8.02578
1812.13	8.62476
1813.63	9.24243
1815.13	9.01884
1816.63	8.62259
1818.13	8.01215
1819.63	7.44585
1821.13	7.69248
1822.63	6.89263
1824.13	7.17473
1825.63	6.70721
1827.13	6.48687
1828.62	5.72314
1830.12	5.06789
1831.62	4.87283
1833.12	4.83747
1834.61	4.79991
1836.11	4.18477
1837.61	3.29524
1839.1	3.21038
1840.6	2.99158
1842.09	2.83883
1843.59	2.7934
1845.09	2.80085
1846.58	2.76531
1848.08	2.6143
1849.57	2.84943
1851.06	2.03933
1852.56	1.60109
1854.05	2.00683
1855.54	2.53782
1857.04	2.51972
1858.53	2.6166
1860.02	3.11337
1861.51	2.82546
1863.01	2.90935
1864.5	3.36311
1865.99	3.60574
1867.48	4.36418
1868.97	4.62908
1870.46	5.4342
1871.95	6.2087
1873.44	6.57436
1874.93	7.1293
1876.42	7.26095
1877.91	7.09329
1879.4	7.14622
1880.89	7.59519
1882.37	8.12215
1882.46	8.23868
1883.95	8.03066
1885.45	7.97136
1886.94	7.44674
1888.43	6.95283
1889.93	6.74451
1891.42	7.04652
1892.91	7.586
1894.41	7.93123
1895.9	7.83559
1897.39	8.2953
1898.88	7.9219
1900.37	8.07867
1901.86	7.4183
1903.36	7.58312
1904.85	6.75059
1906.34	7.08704
1907.83	6.4762
1909.32	5.52312
1910.81	5.57719
1912.29	6.42873
1913.78	6.2827
1915.27	6.47122
1916.76	5.91561
1918.25	5.41673
1919.74	5.45505
1921.23	4.96639
1922.71	4.81551
1924.2	4.52704
1925.69	4.48428
1927.17	4.50599
1928.66	4.57021
1930.15	4.71054
1931.63	4.34856
1933.12	4.8111
1934.6	4.29444
1936.09	4.98058
1937.57	5.20338
1939.06	4.72868
1940.54	4.41451
1942.02	4.55888
1943.51	4.53885
1944.99	4.6588
1946.47	3.74262
1947.96	3.76248
1949.44	3.53444
1950.92	3.03767
1952.4	2.94187
1953.88	3.53593
1955.37	3.83142
1956.85	4.05977
1958.33	3.38547
1959.81	3.20277
1961.29	3.11434
1962.77	3.49068
1964.25	3.69113
1965.73	4.26599
1967.21	4.99242
1968.69	5.20566
1970.16	5.66518
1971.64	5.32321
1973.12	4.63213
1974.6	4.22134
1976.08	4.00259
1977.55	4.12779
1979.03	3.51497
1980.51	4.25847
1981.98	4.00106
1983.46	3.9659
1984.94	4.29383
1986.41	4.04033
1987.89	4.33012
1989.36	4.73776
1990.84	4.67359
1992.31	5.43056
1993.79	5.35601
1995.26	4.62043
1996.73	4.726
1998.21	4.8088
1999.68	4.60685
2001.15	4.98748
2002.63	5.83212
2004.1	5.8417
2005.57	5.5646
2007.04	6.04553
2008.51	6.5073
2009.99	6.7358
2011.46	5.97665
2012.93	6.21594
2014.4	6.32104
2015.87	6.27285
2017.34	5.61678
2018.81	5.28965
2020.28	4.44518
2021.75	4.63543
2023.21	4.55548
2024.68	4.61198
2026.15	4.69771
2027.62	4.73309
2029.09	4.35222
2030.56	4.14316
2032.02	3.72739
2033.49	4.13442
2034.96	4.52777
2036.42	4.77682
2037.89	5.0059
2039.36	5.56926
2040.82	5.72017
2042.29	5.24683
2043.75	5.53539
2045.22	4.96244
2046.68	5.00506
2048.14	5.59973
2049.61	6.76791
2051.07	7.22836
2052.54	7.8453
2054	7.94981
2055.46	7.69248
2056.93	7.6497
2058.39	8.13161
2059.85	8.2106
2061.31	8.83655
2062.77	8.32518
2064.23	8.61561
2065.7	8.95886
2067.16	8.49436
2068.62	8.87218
2070.08	9.55671
2071.54	9.59782
2073	9.26336
2074.46	9.4689
2075.92	9.47878
2077.38	9.20455
2078.83	10.0368
2080.29	10.164
2081.75	9.86083
2083.21	9.25478
2084.67	8.88372
2086.12	8.90416
2087.58	8.31149
2089.04	7.99041
2090.49	8.082
2091.95	8.16538
2093.41	8.62005
2094.86	9.34085
2096.32	9.52737
2097.77	10.0598
2099.23	10.2991
2100.68	10.4855
2102.14	10.8873
2103.59	11.6589
2105.05	12.1761
2106.5	13.0467
2107.95	13.3563
2109.41	14.2325
2110.86	15.3407
2112.31	15.8846
2113.76	16.877
2115.21	17.4309
2116.67	19.0469
2118.12	19.1724
2119.57	20.0379
2121.02	21.4491
2122.47	22.4191
2123.92	22.1778
2125.37	22.5242
2126.82	22.4033
2128.27	22.968
2129.72	23.6343
2131.17	24.5608
2132.62	25.5707
2134.07	27.0415
2135.51	27.9599
