#Acq. time (s)=	45
#Accumulations=	2
#Range (cm-¹)=	200...3150
#Windows=	2
#Auto scanning=	Off
#Autofocus=	Off
#Macrospot=	Off
#AutoExposure=	Off
#Spike filter=	Multiple accum.
#Delay time (s)=	0
#Binning=	1
#Readout mode=	Signal
#DeNoise=	Off
#ICS correction=	On
#Dark correction=	Off
#Inst. Process=	Off
#Detector Gain=	Best Dynamic Range
#Detector ADC=	20 kHz       
#Detector temperature (°C)=	-69.85
#Instrument=	LabRAM HR Evol
#Detector=	Synapse
#Objective=	x100
#Grating=	600 gr/mm
#ND Filter=	100%
#Laser (nm)=	532 
#Hole=	100.021
#Range=	Auto
#Laser Pol.=	No
#Raman. Pol.=	No
#Laser Pol. (°)=	-0.0007625
#Raman Pol. (°)=	89.9995
#Collection=	Microscope
#StageXY=	Marzhauser
#StageZ=	Marzhauser
#X (µm)=	1939.4
#Y (µm)=	-44.4
#Z (µm)=	425.2
#Full time(mm:ss)=	3:19
#Project=	
#Sample=	
#Site=	
#Title=	Thy_40_11_28_2x_45s_532 nm_x100_100%_600 gr_mm
#Remark=	
#Date=	05.07.2022 11:51
#Acquired=	05.07.2022 11:51:15
#Base:Fit=	10.08.2022 10:01:35
#Base:Sub=	10.08.2022 10:01:52
#Filter:Polynom=	16.08.2022 10:21:53
#AxisType[0]=Intens
#AxisUnit[0]=Cnt
#AxisType[1]=Spectr
#AxisUnit[1]=1/cm
200.43	17.87
202.244	17.4652
204.059	17.963
205.873	17.4731
207.688	17.0488
209.501	16.8887
211.314	15.9105
213.127	15.1912
214.941	15.4671
216.753	15.0957
218.564	14.4344
220.375	14.7878
222.186	13.9536
223.999	13.3315
225.809	13.2965
227.618	11.6664
229.428	11.2632
231.236	11.1714
233.045	10.3092
234.855	10.592
236.663	9.43741
238.471	9.18957
240.278	9.29662
242.085	8.57768
243.891	8.08967
245.698	7.2647
247.503	6.82491
249.309	5.62639
251.116	5.13045
252.921	5.83616
254.725	6.59945
256.529	5.82004
258.333	4.9315
260.136	5.71344
261.939	5.70291
263.742	5.01539
265.544	5.82845
267.346	6.12839
269.148	6.08016
270.949	6.91575
272.75	6.39689
274.55	6.55467
276.351	6.79164
278.15	6.23287
279.95	6.84776
281.749	6.45496
283.548	5.80574
285.346	6.69828
287.144	5.84113
288.942	6.17228
290.739	6.2048
292.536	6.64039
294.333	6.60283
296.129	7.41187
297.925	8.05229
299.721	7.42294
301.514	7.45682
303.309	9.46845
305.104	9.6832
306.898	8.11856
308.692	7.4779
310.486	7.17914
312.279	6.28011
314.072	6.04069
315.862	6.44712
317.654	5.95953
319.446	6.69311
321.238	6.80857
323.029	6.96551
324.819	7.36634
326.608	7.13211
328.398	7.82301
330.188	7.91838
331.977	7.32336
333.766	8.50387
335.553	8.4089
337.341	9.09834
339.129	8.68378
340.917	9.47016
342.704	9.8424
344.489	9.1075
346.275	8.59133
348.062	8.87383
349.845	9.03112
351.631	7.98461
353.416	7.77294
355.201	6.85801
356.984	6.31105
358.768	5.9171
360.552	6.07054
362.333	5.39086
364.116	6.03527
365.899	6.52213
367.68	6.30431
369.462	6.06281
371.243	5.31615
373.023	5.21315
374.804	4.97247
376.585	4.40098
378.363	4.39728
380.143	3.92922
381.923	3.42503
383.7	4.23064
385.479	3.71415
387.256	2.97308
389.034	2.42199
390.812	2.99441
392.588	2.85039
394.365	0.894674
396.14	0.438647
397.916	1.63797
399.691	2.32691
401.467	3.67096
403.24	4.09653
405.015	4.78128
406.788	5.31056
408.563	5.40534
410.335	6.18293
412.109	6.25086
413.88	6.28195
415.654	6.93583
417.424	7.68726
419.197	7.90072
420.967	7.67773
422.739	7.71421
424.508	7.09839
426.279	7.55753
428.048	7.27529
429.819	7.3956
431.587	7.10925
433.356	6.59477
435.124	6.51566
436.891	6.85544
438.66	6.18289
440.426	5.38977
442.194	5.8209
443.96	6.14534
445.725	6.78123
447.492	6.4624
449.257	7.03505
451.021	7.45145
452.787	7.06496
454.551	7.28142
456.314	7.57849
458.079	7.72129
459.842	8.06419
461.604	9.16615
463.368	9.68722
465.13	10.8154
466.891	11.6628
468.654	12.5216
470.415	14.0052
472.175	15.1185
473.935	15.6925
475.696	16.5761
477.456	18.2002
479.215	19.0409
480.973	19.6545
482.733	19.9281
484.491	21.1515
486.249	22.3232
488.006	23.2852
489.765	23.7398
491.522	23.8246
493.278	25.1044
495.034	25.6245
496.789	25.8107
498.544	26.0447
500.301	25.5669
502.056	25.9153
503.81	26.1699
505.564	26.8638
507.317	26.337
509.071	25.4404
510.825	25.7592
512.578	25.5272
514.33	25.16
516.082	23.5591
517.833	22.7855
519.585	22.4879
521.335	21.9808
523.086	21.3152
524.836	21.9869
526.586	20.4407
528.335	19.669
530.085	19.8854
531.835	19.0771
533.584	18.7483
535.332	18.5612
537.08	18.1612
538.827	16.9776
540.574	16.0212
542.321	17.2619
544.068	16.5206
545.814	15.8665
547.56	16.4651
549.305	16.6805
551.05	16.6985
552.795	17.0673
554.54	17.1658
556.282	16.9214
558.025	16.2339
559.769	15.5457
561.512	15.9539
563.255	15.6218
564.997	15.8016
566.739	15.3249
568.481	14.5839
570.223	13.9037
571.964	14.4613
573.705	14.6661
575.443	14.3768
577.183	13.3757
578.923	13.4491
580.663	12.6224
582.402	11.4764
584.141	11.0415
585.879	9.57965
587.615	8.85226
589.353	7.93778
591.09	7.51636
592.828	6.87963
594.564	5.59331
596.299	4.67841
598.035	4.66398
599.771	4.12576
601.506	3.71151
603.242	2.81115
604.974	4.44825
606.709	4.25142
608.443	4.66494
610.177	4.56271
611.908	5.25937
613.642	4.71341
615.374	5.71534
617.105	7.98382
618.837	8.90788
620.569	10.1773
622.3	11.3683
624.03	12.6493
625.761	14.2471
627.491	16.3198
629.219	17.629
630.949	17.8683
632.677	18.7666
634.406	20.1588
636.135	21.3556
637.861	22.5831
639.59	24.0434
641.318	25.5085
643.043	26.4943
644.77	28.341
646.495	30.4969
648.222	31.5824
649.948	32.9641
651.672	33.1396
653.398	33.4371
655.121	34.3992
656.846	36.4822
658.569	37.2945
660.293	38.3398
662.015	37.8934
663.738	38.8775
665.46	39.0259
667.183	39.7042
668.903	40.979
670.626	41.7092
672.346	40.9657
674.067	40.6499
675.787	40.8321
677.508	41.3645
679.226	41.5049
680.947	41.474
682.665	42.6324
684.385	42.708
686.102	42.4501
687.821	42.2304
689.538	42.1799
691.254	44.0697
692.972	43.744
694.688	44.8651
696.406	44.9807
698.121	46.6486
699.835	47.197
701.552	48.0579
703.266	49.264
704.98	49.1451
706.695	48.81
708.409	49.1342
710.121	49.077
711.836	49.3492
713.548	49.2734
715.26	49.1229
716.973	48.9647
718.685	49.6325
720.396	50.5194
722.108	52.0248
723.818	52.4501
725.528	52.9342
727.238	53.379
728.949	54.5188
730.658	55.8621
732.367	55.8028
734.075	55.7758
735.785	57.63
737.493	58.2048
739.2	59.9766
740.907	62.1074
742.614	64.6928
744.322	64.6093
746.028	65.9951
747.734	67.3025
749.439	70.3566
751.144	71.356
752.849	73.6993
754.555	74.3994
756.26	74.9824
757.963	75.0881
759.667	76.1209
761.37	76.9529
763.073	78.0277
764.775	78.855
766.477	79.4731
768.179	80.4359
769.883	80.9777
771.584	82.1526
773.285	83.2244
774.986	84.2912
776.686	85.9552
778.386	86.216
780.085	86.7188
781.785	88.3745
783.484	89.8671
785.182	90.3299
786.881	90.8275
788.579	92.1241
790.276	92.3213
791.974	92.7619
793.671	93.468
795.367	93.7109
797.064	94.3258
798.76	94.0356
800.456	94.0085
802.151	93.8317
803.846	94.2897
805.541	94.4474
807.234	94.3352
808.928	93.3866
810.622	92.4762
812.315	92.8221
814.008	93.1853
815.701	92.3183
817.394	91.1278
819.086	91.9795
820.778	93.1367
822.468	91.4686
824.159	90.8836
825.85	90.6107
827.541	90.0719
829.231	88.4941
830.921	88.7446
832.609	89.1845
834.298	87.6827
835.987	86.3873
837.676	86.0243
839.364	84.2142
841.051	83.6897
842.738	82.3108
844.426	81.1134
846.113	79.9
847.798	78.4083
849.484	75.8382
851.171	74.9983
852.857	74.5474
854.54	74.2468
856.226	72.5888
857.911	72.1208
859.593	71.8783
861.278	71.299
862.961	70.9624
864.645	70.5687
866.327	71.4377
868.01	70.6629
869.692	70.4202
871.373	69.649
873.055	70.7535
874.735	69.935
876.416	69.8414
878.097	69.3015
879.776	68.175
881.457	68.3449
883.135	67.8366
884.815	68.6167
886.495	69.186
888.172	68.7336
889.851	68.5
891.528	68.6431
893.206	68.5534
894.882	68.9225
896.56	69.4398
898.237	69.7547
899.912	69.4449
901.589	68.2564
903.263	68.9974
904.94	67.8585
906.614	66.5488
908.289	66.9922
909.962	66.924
911.635	65.8685
913.31	65.3363
914.982	64.1414
916.656	63.5565
918.328	61.8012
920.001	61.4918
921.672	61.0883
923.345	59.5306
925.015	58.3526
926.685	56.064
928.357	54.3074
930.026	53.0741
931.698	51.0694
933.366	49.9741
935.035	50.7698
936.705	50.0193
938.373	49.298
940.041	48.9496
941.71	49.9136
943.377	48.9385
945.044	48.1475
946.712	47.4529
948.378	47.4035
950.044	47.5381
951.709	47.4141
953.376	47.5819
955.041	46.8827
956.706	48.109
958.372	47.3145
960.036	46.925
961.699	46.5774
963.362	46.7392
965.027	48.1155
966.69	48.8096
968.352	50.6303
970.014	50.0937
971.676	50.3956
973.339	51.2743
975	51.6347
976.661	51.4429
978.322	51.9694
979.982	51.8852
981.642	52.7395
983.303	52.5281
984.962	51.1877
986.621	51.7916
988.28	51.1072
989.938	51.4003
991.596	50.7522
993.254	50.2973
994.911	48.8256
996.57	48.8293
998.227	47.8436
999.884	47.5045
1001.54	46.4895
1003.2	45.9528
1004.85	45.7061
1006.51	44.5605
1008.16	43.5501
1009.82	42.7451
1011.47	43.2698
1013.12	43.6137
1014.78	43.4158
1016.43	43.3903
1018.08	43.4851
1019.74	43.2967
1021.39	43.292
1023.04	42.3327
1024.69	42.2977
1026.34	40.9782
1028	40.3327
1029.65	40.0702
1031.3	40.0859
1032.95	41.0006
1034.6	40.4227
1036.25	39.4227
1037.9	38.7971
1039.54	39.2141
1041.19	38.1977
1042.84	37.3088
1044.49	37.1955
1046.14	37.0345
1047.78	37.4665
1049.43	37.4238
1051.08	37.0353
1052.72	35.0798
1054.37	35.1138
1056.02	34.274
1057.66	34.5707
1059.31	34.4307
1060.95	34.4216
1062.6	33.7952
1064.24	33.4415
1065.88	32.3875
1067.53	31.6201
1069.17	31.7705
1070.81	31.3514
1072.45	31.5821
1074.1	30.8171
1075.74	30.8549
1077.38	29.8802
1079.02	29.4835
1080.66	28.6852
1082.3	28.1927
1083.94	27.4203
1085.58	27.9605
1087.22	27.8404
1088.86	28.3883
1090.5	28.5047
1092.14	29.1882
1093.78	29.8498
1095.42	30.283
1097.05	30.7405
1098.69	30.1561
1100.33	31.1371
1101.96	31.3341
1103.6	30.9516
1105.24	30.5483
1106.87	30.3721
1108.51	29.2057
1110.14	28.4501
1111.78	28.0468
1113.41	27.0736
1115.05	27.469
1116.68	26.316
1118.31	26.3683
1119.95	25.7297
1121.58	25.3156
1123.21	25.1307
1124.85	24.4412
1126.48	24.5629
1128.11	23.9068
1129.74	23.8538
1131.37	22.9386
1133	22.1398
1134.63	21.6495
1136.26	21.7712
1137.89	21.8273
1139.52	21.3245
1141.15	19.8053
1142.78	19.0286
1144.41	18.559
1146.04	19.169
1147.66	19.2148
1149.29	19.0891
1150.92	18.6272
1152.55	18.1963
1154.17	17.3847
1155.8	16.5146
1157.43	15.257
1159.05	14.0402
1160.68	12.9382
1162.3	12.1189
1163.93	11.7578
1165.55	11.5482
1167.17	10.9864
1168.8	10.8936
1170.42	10.5223
1172.05	10.7601
1173.67	9.99515
1175.29	9.76349
1176.91	10.7937
1178.54	10.272
1180.16	9.63438
1181.78	9.52772
1183.4	8.79438
1185.02	8.8869
1186.64	8.95122
1188.26	8.5062
1189.88	9.04454
1191.5	9.30487
1193.12	9.24954
1194.74	8.94856
1196.36	9.65898
1197.97	10.4718
1199.59	11.6164
1201.21	12.7997
1202.83	14.8699
1204.44	16.5168
1206.06	17.0147
1207.68	19.0162
1209.29	20.7508
1210.91	22.7962
1212.52	23.2793
1214.14	24.5617
1215.75	25.8678
1217.37	28.1113
1218.98	30.5549
1220.59	32.2316
1222.21	34.2166
1223.82	37.0526
1225.43	39.8207
1227.05	42.1941
1228.66	43.8901
1230.27	44.939
1231.88	46.3717
1233.49	47.6666
1235.1	49.4175
1236.72	51.2999
1238.33	51.8374
1239.94	53.3564
1241.55	54.4375
1243.16	55.3675
1244.76	57.6336
1246.37	58.459
1247.98	59.5721
1249.59	60.9597
1251.2	61.838
1252.8	64.3269
1254.41	64.9032
1256.02	66.3128
1257.62	66.5938
1259.23	66.3273
1260.84	66.5292
1262.44	67.7621
1264.05	68.5167
1265.66	68.3508
1267.26	68.1744
1268.86	68.0116
1270.47	68.1035
1272.07	67.0411
1273.67	67.5913
1275.28	67.865
1276.88	68.9846
1278.48	69.7768
1280.09	69.8512
1281.69	69.9015
1283.29	70.3528
1284.89	70.4126
1286.49	69.5299
1288.09	69.7444
1289.69	69.7244
1291.29	69.7344
1292.89	70.0412
1294.49	71.7425
1296.09	72.0892
1297.69	73.3489
1299.29	72.93
1300.89	72.858
1302.49	72.5278
1304.08	73.1347
1305.68	72.9374
1307.28	74.1161
1308.88	74.3592
1310.47	74.235
1312.07	74.4428
1313.66	74.6026
1315.26	74.5451
1316.85	74.3945
1318.45	74.4862
1320.04	74.7282
1321.64	74.0568
1323.23	73.111
1324.83	73.5745
1326.42	73.0028
1328.01	72.3391
1329.61	70.9984
1331.2	70.5602
1332.79	70.7449
1334.38	70.4578
1335.97	69.1931
1337.56	68.0393
1339.16	67.6379
1340.75	67.7418
1342.34	67.314
1343.93	65.6473
1345.52	64.6915
1347.11	63.4581
1348.7	62.9131
1350.29	61.2979
1351.87	59.8898
1353.46	59.824
1355.05	58.3506
1356.64	57.2863
1358.22	56.0972
1359.81	55.124
1361.4	53.9718
1362.98	52.6201
1364.57	50.9814
1366.16	50.0709
1367.74	50.1778
1369.33	49.7488
1370.91	48.7723
1372.5	47.8532
1374.08	47.2265
1375.67	45.9708
1377.25	45.4851
1378.83	44.4869
1380.41	44.0995
1382	43.7396
1383.58	43.4242
1385.16	42.7622
1386.74	42.9364
1388.33	41.5982
1389.91	40.6793
1391.49	39.8351
1393.07	38.6099
1394.65	38.1271
1396.23	37.7371
1397.81	36.4007
1399.39	35.0837
1400.97	33.9979
1402.55	33.8754
1404.13	34.0234
1405.7	33.0878
1407.28	32.9492
1408.86	33.2255
1410.44	33.4928
1412.01	33.8882
1413.59	33.8796
1415.17	33.1545
1416.74	33.9435
1418.32	35.4813
1419.89	36.3269
1421.47	37.1604
1423.04	38.3725
1424.62	39.8563
1426.19	41.0127
1427.77	44.5215
1429.34	46.3801
1430.91	48.4119
1432.49	50.6014
1434.06	51.9481
1435.63	54.1322
1437.2	55.9978
1438.78	57.7207
1440.35	59.928
1441.92	61.834
1443.49	64.0161
1445.06	65.8476
1446.63	66.7738
1448.2	68.2533
1449.77	69.8398
1451.34	70.9948
1452.91	72.0786
1454.48	71.763
1456.05	71.8753
1457.62	71.932
1459.18	71.8687
1460.75	71.3148
1462.32	69.992
1463.89	69.3221
1465.45	68.1462
1467.02	66.1827
1468.59	64.1563
1470.15	61.8576
1471.72	59.3298
1473.28	56.4702
1474.85	53.5182
1476.41	50.3809
1477.98	47.6095
1479.54	44.6028
1481.1	42.5666
1482.67	39.773
1484.23	37.5129
1485.79	36.3122
1487.36	33.7841
1488.92	31.3625
1490.48	29.1662
1492.04	27.726
1493.61	26.7746
1495.17	26.4282
1496.73	24.8344
1498.29	23.4511
1499.85	23.2501
1501.41	21.5997
1502.97	21.0853
1504.53	20.3718
1506.09	20.3468
1507.65	18.4233
1509.2	17.7945
1510.76	17.8242
1512.32	17.3051
1513.88	17.4643
1515.43	17.2056
1516.99	17.6785
1518.55	18.7417
1520.1	19.1682
1521.66	19.7332
1523.22	20.2235
1524.77	21.7553
1526.33	23.568
1527.88	23.9259
1529.44	24.3829
1530.99	25.0887
1532.54	25.4083
1534.1	25.8742
1535.65	26.5844
1537.21	27.6861
1538.76	29.0173
1540.31	30.3257
1541.86	32.1765
1543.42	33.4909
1544.97	34.953
1546.52	36.6196
1548.07	38.2013
1549.62	39.9512
1551.17	41.1556
1552.72	43.8764
1554.27	45.7242
1555.82	47.9004
1557.37	49.9987
1558.92	52.4312
1560.47	53.781
1562.02	55.8697
1563.56	57.1437
1565.11	57.6374
1566.66	58.7627
1568.21	59.6964
1569.75	61.4018
1571.3	62.6774
1572.85	62.7217
1574.39	62.8554
1575.94	63.9658
1577.49	65.0586
1579.03	65.885
1580.57	66.4063
1582.12	66.5217
1583.66	67.3752
1585.21	67.7106
1586.75	69.1885
1588.3	69.76
1589.84	70.1396
1591.38	70.3514
1592.92	70.3422
1594.47	70.356
1596.01	70.5107
1597.55	69.835
1599.09	69.1137
1600.63	68.4278
1602.17	67.6754
1603.71	66.1854
1605.25	64.6413
1606.79	63.6702
1608.33	62.4044
1609.87	61.5748
1611.41	61.2786
1612.95	62.0542
1614.49	62.516
1616.03	62.9898
1617.57	63.035
1619.1	64.2109
1620.64	64.2531
1622.18	64.6742
1623.72	65.476
1625.25	65.7258
1626.79	66.4303
1628.32	66.508
1629.86	66.97
1631.39	66.9506
1632.93	67.5444
1634.46	67.503
1636	67.8818
1637.53	68.2294
1639.07	69.4552
1640.6	69.7479
1642.13	70.5419
1643.67	71.3649
1645.2	71.5334
1646.73	72.4489
1648.26	73.5946
1649.8	74.2555
1651.33	75.2948
1652.86	76.3023
1654.39	77.0514
1655.92	76.9739
1657.45	76.6784
1658.98	76.8834
1660.51	77.2859
1662.04	77.0641
1663.57	76.531
1665.1	75.0602
1666.63	73.6528
1668.16	71.8033
1669.68	70.1746
1671.21	68.2726
1672.74	66.4588
1674.27	64.1781
1675.79	62.5905
1677.32	59.9723
1678.85	57.7862
1680.37	55.4301
1681.9	53.4105
1683.42	50.2402
1684.95	48.0487
1686.47	45.4933
1688	43.4712
1689.52	41.5086
1691.05	39.415
1692.57	37.5434
1694.09	35.2045
1695.62	33.229
1697.14	30.9223
1698.66	30.0252
1700.18	28.1168
1701.71	26.059
1703.23	25.0356
1704.75	23.3743
1706.27	21.2576
1707.79	19.7402
1709.31	18.7002
1710.83	17.3655
1712.35	16.2517
1713.87	15.4081
1715.39	14.1785
1716.91	13.0657
1718.43	12.2106
1719.95	10.9704
1721.47	10.3899
1722.99	10.3897
1724.5	9.94498
1726.02	9.18492
1727.54	8.69105
1729.06	8.64983
1730.57	8.59018
1732.09	8.42649
1733.61	8.36682
1735.12	8.18118
1736.64	7.83616
1738.15	7.74883
1739.67	7.3826
1741.18	6.92002
1742.7	7.03729
1744.21	6.87015
1745.72	6.51643
1747.24	6.33863
1748.75	6.72657
1750.26	6.49635
1751.77	6.63613
1753.29	5.9764
1754.8	5.98906
1756.31	5.47915
1757.82	5.94369
1759.33	5.26677
1760.84	5.2937
1762.36	4.88529
1763.87	5.33584
1765.38	5.41322
1766.89	5.92331
1768.4	6.04318
1769.91	6.29094
1771.41	6.4604
1772.92	6.93855
1774.43	7.01072
1775.94	6.72475
1777.45	6.81574
1778.95	7.04248
1780.46	6.4531
1781.97	5.34365
1783.48	5.72195
1784.98	5.80636
1786.49	5.15378
1787.99	4.4749
1789.5	4.47706
1791.01	4.06671
1792.51	4.35786
1794.01	3.98902
1795.52	3.4299
1797.02	2.98561
1798.53	2.40207
1800.03	2.31509
1801.53	2.55691
1803.04	2.03047
1804.54	2.20026
1806.04	2.18747
1807.54	1.7646
1809.05	1.04577
1810.55	1.36687
1812.05	1.13827
1813.55	1.49403
1815.05	1.57583
1816.55	0.973473
1818.05	1.68407
1819.55	1.81837
1821.05	1.83149
1822.55	2.1642
1824.05	2.12031
1825.55	2.03491
1827.05	2.34359
1828.55	2.18952
1830.04	2.07753
1831.54	2.01661
1833.04	2.52688
1834.54	2.3446
1836.03	2.59502
1837.53	2.70735
1839.03	2.93134
1840.52	3.13698
1842.02	3.97832
1843.51	4.07504
1845.01	4.5444
1846.5	4.84121
1848	4.84472
1849.49	4.24465
1850.99	4.40854
1852.48	4.21888
1853.97	4.07083
1855.47	3.54832
1856.96	3.60512
1858.45	3.27449
1859.94	2.80531
1861.44	2.02643
1862.93	1.70392
1864.42	1.52569
1865.91	0.90283
1867.4	0.923232
1868.89	0.571937
1870.38	0.405554
1871.87	-0.0363403
1873.36	0.0315578
1874.85	0.305604
1876.34	0.24445
1877.83	-0.190523
1879.32	0.595396
1880.81	0.391702
1882.3	0.611326
1882.57	0.510314
1884.07	1.51665
1885.56	1.47848
1887.06	1.44726
1888.55	2.04046
1890.04	1.9336
1891.54	3.41213
1893.03	3.62078
1894.52	3.08035
1896.02	3.02865
1897.51	3.59748
1899	3.8756
1900.49	3.99156
1901.98	4.31552
1903.47	4.86179
1904.96	5.34594
1906.45	6.11694
1907.94	6.13359
1909.43	7.21806
1910.92	7.3316
1912.41	6.94282
1913.9	7.33898
1915.39	7.48796
1916.88	7.75734
1918.37	8.36334
1919.85	8.28888
1921.34	8.12879
1922.83	8.81281
1924.32	9.41681
1925.8	9.13727
1927.29	8.73687
1928.78	8.55501
1930.26	8.43698
1931.75	7.57845
1933.23	7.62766
1934.72	7.42703
1936.2	7.2532
1937.69	7.46034
1939.17	7.96771
1940.66	8.41451
1942.14	7.93563
1943.63	7.80734
1945.11	7.97891
1946.59	8.19288
1948.07	8.66547
1949.56	8.88752
1951.04	8.39992
1952.52	8.46536
1954	7.9397
1955.48	7.63297
1956.96	6.85316
1958.45	6.91637
1959.93	6.69108
1961.41	7.01336
1962.89	7.41731
1964.37	7.76782
1965.85	8.0504
1967.32	7.63179
1968.8	7.43312
1970.28	6.89084
1971.76	6.81654
1973.24	6.38481
1974.72	6.22791
1976.19	6.13718
1977.67	6.07797
1979.15	5.68762
1980.63	5.0468
1982.1	4.38695
1983.58	4.63189
1985.05	3.55135
1986.53	3.00137
1988	3.80549
1989.48	4.34227
1990.95	5.142
1992.43	6.04182
1993.9	5.85029
1995.38	6.00017
1996.85	6.13201
1998.32	6.23627
1999.8	5.65824
2001.27	5.53813
2002.74	6.00608
2004.22	6.32321
2005.69	6.62453
2007.16	6.68612
2008.63	7.79176
2010.1	7.46914
2011.57	7.56903
2013.04	7.60592
2014.51	7.41333
2015.98	6.97746
2017.45	7.63804
2018.92	8.20263
2020.39	8.48379
2021.86	8.02551
2023.33	8.05748
2024.8	7.79766
2026.27	7.77278
2027.74	7.2862
2029.2	7.50776
2030.67	7.92992
2032.14	8.38886
2033.61	8.96677
2035.07	9.12659
2036.54	9.58412
2038.01	9.90075
2039.47	9.65316
2040.94	9.3911
2042.4	9.45001
2043.87	9.13562
2045.33	9.62297
2046.8	9.80463
2048.26	9.78823
2049.72	9.89142
2051.19	10.3968
2052.65	10.095
2054.12	10.0385
2055.58	10.3456
2057.04	10.3864
2058.5	10.8215
2059.97	11.08
2061.43	11.9836
2062.89	12.6651
2064.35	13.2295
2065.81	13.7592
2067.27	14.1603
2068.73	14.7907
2070.19	15.4753
2071.65	15.9191
2073.11	16.5228
2074.57	17.7786
2076.03	18.1487
2077.49	18.2625
2078.95	18.1738
2080.41	18.1011
2081.87	18.2791
2083.32	17.6089
2084.78	18.0486
2086.24	18.9323
2087.7	19.9512
2089.15	20.6492
2090.61	21.7324
2092.07	22.5181
2093.52	23.0389
2094.98	22.8884
2096.43	23.4274
2097.89	23.9326
2099.34	23.9589
2100.8	24.7448
2102.25	25.9318
2103.71	26.433
2105.16	27.7332
2106.61	28.9629
2108.07	30.1542
2109.52	31.4776
2110.97	32.5071
2112.43	33.7817
2113.88	34.8745
2115.33	36.6381
2116.78	37.4492
2118.23	38.6128
2119.68	40.0959
2121.13	40.6936
2122.59	41.2196
2124.04	42.2992
2125.49	43.3369
2126.94	44.8836
2128.39	47.1817
2129.83	49.2932
2131.28	51.4225
2132.73	53.6377
2134.18	55.5077
