#Acq. time (s)=	45
#Accumulations=	2
#Range (cm-¹)=	200...3150
#Windows=	2
#Auto scanning=	Off
#Autofocus=	Off
#Macrospot=	Off
#AutoExposure=	Off
#Spike filter=	Multiple accum.
#Delay time (s)=	0
#Binning=	1
#Readout mode=	Signal
#DeNoise=	Off
#ICS correction=	On
#Dark correction=	Off
#Inst. Process=	Off
#Detector Gain=	Best Dynamic Range
#Detector ADC=	20 kHz       
#Detector temperature (°C)=	-69.85
#Instrument=	LabRAM HR Evol
#Detector=	Synapse
#Objective=	x100
#Grating=	600 gr/mm
#ND Filter=	100%
#Laser (nm)=	532 
#Hole=	100.021
#Range=	Auto
#Laser Pol.=	No
#Raman. Pol.=	No
#Laser Pol. (°)=	-0.0007625
#Raman Pol. (°)=	89.9995
#Collection=	Microscope
#StageXY=	Marzhauser
#StageZ=	Marzhauser
#X (µm)=	8998.5
#Y (µm)=	-3064.3
#Z (µm)=	-54.65
#Full time(mm:ss)=	3:19
#Project=	
#Sample=	
#Site=	
#Title=	Thy_00_07_23_2x_45s_532 nm_x100_100%_600 gr_mm
#Remark=	
#Date=	28.06.2022 11:49
#Acquired=	28.06.2022 11:49:37
#Base:Fit=	10.08.2022 10:07:56
#Base:Sub=	10.08.2022 10:08:40
#Filter:Polynom=	16.08.2022 10:26:06
#AxisType[0]=Intens
#AxisUnit[0]=Cnt
#AxisType[1]=Spectr
#AxisUnit[1]=1/cm
200.407	5.15973
202.221	9.87517
204.035	13.0448
205.849	14.4159
207.665	16.168
209.478	18.0171
211.291	19.9042
213.104	20.9985
214.916	21.9701
216.73	21.7415
218.541	22.2645
220.352	21.8063
222.163	23.0403
223.973	22.3427
225.785	22.3103
227.595	21.525
229.404	21.1615
231.213	18.8101
233.022	17.4137
234.83	16.4396
236.638	15.5113
238.448	14.7508
240.255	13.6601
242.062	13.1137
243.868	12.2995
245.675	12.2183
247.48	11.2797
249.286	10.61
251.091	10.6121
252.896	9.36189
254.702	8.85185
256.506	8.39601
258.31	7.04211
260.113	4.90033
261.916	4.06625
263.719	4.84216
265.521	4.70168
267.323	4.79675
269.125	5.12879
270.926	3.87633
272.727	4.54152
274.527	2.15824
276.328	2.90119
278.127	4.60183
279.927	5.00129
281.726	4.35081
283.525	5.36702
285.323	5.50957
287.121	6.85054
288.919	7.67657
290.716	8.86269
292.513	10.985
294.31	13.3631
296.104	15.9071
297.9	17.8315
299.696	18.819
301.491	20.1535
303.286	20.9192
305.081	22.3171
306.875	23.606
308.669	24.0425
310.463	25.9555
312.256	27.5317
314.047	28.5582
315.839	29.2653
317.631	29.4245
319.423	29.8648
321.215	29.1779
323.006	30.7699
324.794	31.9749
326.585	32.215
328.375	32.2769
330.165	31.6684
331.954	32.9006
333.741	32.4747
335.53	31.9273
337.318	31.9771
339.106	31.4762
340.894	30.5761
342.679	29.3954
344.466	29.807
346.253	28.3469
348.039	28.1727
349.823	28.4525
351.608	28.3501
353.393	28.3503
355.176	27.3583
356.961	26.4531
358.745	22.7565
360.529	20.5918
362.31	19.6888
364.093	18.2354
365.876	19.69
367.657	20.5763
369.439	21.4641
371.221	23.16
373	26.1051
374.781	28.5144
376.56	33.2355
378.34	37.8336
380.12	44.1954
381.898	49.2802
383.677	52.5109
385.456	56.6249
387.233	60.381
389.011	64.2771
390.787	67.9354
392.565	71.4173
394.34	75.0301
396.117	78.5866
397.894	80.6887
399.668	83.7082
401.444	84.6551
403.217	85.67
404.993	85.0945
406.766	85.6813
408.54	85.9513
410.312	85.0492
412.086	85.5185
413.858	84.8035
415.631	82.4377
417.402	81.1183
419.174	79.494
420.944	78.3647
422.716	74.8457
424.486	73.4342
426.257	70.652
428.025	66.5708
429.794	62.5102
431.564	58.8069
433.332	53.674
435.101	48.2103
436.868	45.5342
438.637	43.5655
440.403	39.1319
442.169	36.1986
443.937	33.3446
445.703	29.9281
447.468	26.4603
449.234	27.6293
450.999	27.9005
452.765	28.3375
454.528	28.0188
456.292	29.0887
458.057	32.1732
459.819	33.9149
461.582	38.2891
463.344	41.0834
465.107	44.965
466.868	46.2047
468.629	47.7532
470.392	48.1484
472.152	50.083
473.912	52.5845
475.672	55.1635
477.433	56.4546
479.192	57.6058
480.951	59.9887
482.709	61.7208
484.469	63.7532
486.226	63.8467
487.984	64.5736
489.74	66.2398
491.499	67.2846
493.255	68.2978
495.011	69.493
496.767	69.7165
498.522	69.926
500.277	71.1188
502.033	70.1025
503.788	69.2722
505.541	68.9743
507.295	68.0149
509.048	66.2869
510.801	64.2187
512.553	62.6252
514.308	59.4627
516.06	57.6841
517.811	56.0438
519.562	54.4324
521.313	53.092
523.063	53.0577
524.814	54.1459
526.563	52.5919
528.313	50.0055
530.062	48.247
531.811	45.9872
533.559	43.926
535.308	41.7938
537.055	41.2847
538.803	39.2959
540.55	37.995
542.297	36.4636
544.043	36.3328
545.789	35.7139
547.535	34.4394
549.281	32.906
551.026	30.1607
552.771	29.0094
554.515	28.6796
556.259	28.4548
558.003	28.9253
559.747	29.1565
561.49	30.3336
563.233	30.4251
564.975	29.83
566.717	31.8673
568.459	33.4694
570.2	33.8965
571.942	34.2621
573.68	32.2034
575.421	31.9415
577.161	32.2769
578.901	31.1597
580.64	30.9569
582.379	30.7084
584.118	29.7891
585.855	29.8533
587.593	29.1652
589.331	28.6798
591.068	29.1762
592.805	28.899
594.54	28.1441
596.277	26.0977
598.013	25.0781
599.749	24.0469
601.484	22.4922
603.217	19.7315
604.952	18.6512
606.687	17.1995
608.421	15.605
610.153	14.6125
611.886	12.6476
613.619	11.1001
615.35	10.1514
617.083	8.76523
618.815	7.48431
620.547	7.58219
622.276	6.82571
624.008	6.88672
625.738	6.16213
627.467	3.9606
629.197	2.75432
630.927	2.61514
632.655	1.90926
634.384	1.71227
636.113	0.429892
637.839	1.30976
639.568	0.154995
641.293	1.41593
643.021	1.49948
644.748	2.12873
646.473	3.34036
648.2	4.20251
649.924	4.44042
651.65	4.85658
653.376	4.94744
655.099	4.7306
656.824	4.25573
658.546	3.50096
660.271	3.84233
661.993	5.48537
663.716	4.97792
665.438	4.08891
667.161	5.05671
668.881	4.99047
670.604	5.11888
672.324	5.1018
674.045	5.33616
675.765	5.91782
677.486	5.76111
679.204	5.30239
680.925	4.62587
682.643	5.07251
684.361	6.40213
686.08	7.56328
687.797	7.97096
689.516	8.96804
691.232	11.0386
692.95	11.2805
694.666	11.2694
696.382	12.7682
698.099	13.4108
699.813	14.5946
701.528	14.0296
703.244	14.2192
704.958	14.4952
706.673	14.9019
708.387	15.6269
710.099	16.3321
711.814	16.7417
713.526	16.8636
715.238	18.7133
716.949	20.4824
718.663	21.0939
720.374	22.675
722.084	24.6458
723.796	25.726
725.506	26.863
727.216	29.8722
728.925	31.7523
730.636	33.3498
732.345	36.2384
734.053	37.5515
735.761	39.6839
737.471	40.7129
739.178	42.6986
740.885	45.9622
742.592	48.013
744.298	50.395
746.006	53.8788
747.712	54.3044
749.417	55.6884
751.122	59.3547
752.827	62.3771
754.532	65.0397
756.236	66.7065
757.942	68.2567
759.645	70.6296
761.348	72.3907
763.051	72.8866
764.753	72.9147
766.456	73.4177
768.158	74.5343
769.859	74.3296
771.56	73.844
773.261	73.094
774.964	72.7033
776.664	71.2367
778.364	69.501
780.064	67.7218
781.763	66.7331
783.462	65.3777
785.16	63.553
786.859	60.1402
788.557	58.8127
790.255	57.413
791.952	56.0105
793.649	55.4481
795.346	53.2593
797.042	50.6513
798.738	49.7927
800.434	49.0873
802.127	47.3249
803.823	45.4196
805.517	45.5548
807.212	44.6367
808.906	42.4812
810.6	41.2024
812.293	41.2118
813.987	42.1531
815.68	41.9945
817.372	42.7896
819.064	43.4929
820.754	45.1837
822.446	46.8399
824.137	50.1014
825.828	52.1757
827.519	53.9335
829.209	56.0353
830.897	58.3006
832.587	58.6056
834.276	60.2119
835.966	61.5761
837.654	62.3978
839.341	63.1779
841.029	62.3543
842.717	62.7779
844.404	62.9063
846.091	61.6301
847.776	60.2358
849.463	59.799
851.149	59.368
852.833	57.3176
854.519	55.6993
856.204	54.5163
857.889	53.2256
859.572	51.6407
861.256	50.0631
862.94	48.8613
864.622	46.7493
866.305	45.1114
867.988	43.8388
869.669	41.3921
871.351	39.8562
873.033	38.4951
874.713	36.0259
876.395	34.0146
878.074	31.9592
879.755	29.2805
881.435	28.1964
883.114	27.59
884.794	26.06
886.471	24.7943
888.15	24.5903
889.829	23.8973
891.506	21.7748
893.184	20.6002
894.861	20.1325
896.538	21.8771
898.214	21.7586
899.891	23.5955
901.566	25.4858
903.242	28.0084
904.916	28.8235
906.592	29.5339
908.266	30.6594
909.941	30.352
911.614	32.1134
913.288	33.0082
914.961	33.283
916.635	32.5806
918.306	33.8314
919.979	35.5252
921.651	35.5671
923.321	35.398
924.994	35.3581
926.664	35.403
928.336	34.0236
930.005	33.1491
931.674	32.4088
933.345	31.6001
935.014	29.772
936.682	29.3987
938.352	30.3207
940.019	30.2142
941.687	29.093
943.356	28.2276
945.022	27.2575
946.689	26.8185
948.357	25.3086
950.022	24.9511
951.688	24.9649
953.355	24.3429
955.02	22.9616
956.684	19.6052
958.348	16.7902
960.014	13.5204
961.678	11.839
963.341	12.2503
965.004	13.7225
966.669	14.4882
968.331	15.969
969.993	17.3951
971.655	18.3589
973.316	20.3472
974.979	21.5882
976.64	24.6699
978.3	25.8022
979.961	27.7948
981.62	29.0714
983.28	30.2291
984.941	29.7777
986.6	29.8293
988.259	27.47
989.917	28.0709
991.575	28.4296
993.233	29.5527
994.89	30.6795
996.547	31.4967
998.204	33.2223
999.86	35.2998
1001.52	36.7126
1003.17	37.4975
1004.83	38.2063
1006.49	39.8262
1008.14	38.6374
1009.79	39.667
1011.45	40.1177
1013.1	41.5736
1014.76	42.2353
1016.41	42.4082
1018.06	41.7614
1019.72	43.9727
1021.37	44.0963
1023.02	43.2297
1024.67	42.1999
1026.32	43.3564
1027.97	43.4764
1029.62	42.3906
1031.27	40.9832
1032.92	38.8105
1034.57	37.1732
1036.22	34.2843
1037.87	31.3456
1039.52	29.3702
1041.17	28.9105
1042.82	29.0461
1044.47	31.2419
1046.11	32.219
1047.76	32.3905
1049.41	32.2216
1051.06	33.0373
1052.7	33.2748
1054.35	32.22
1055.99	32.756
1057.64	31.3413
1059.28	30.7562
1060.93	28.7194
1062.57	27.8681
1064.22	27.0043
1065.86	26.0083
1067.5	27.8164
1069.15	28.8517
1070.79	29.6479
1072.43	33.42
1074.08	35.8831
1075.72	38.5266
1077.36	40.1521
1079	41.5884
1080.64	42.4785
1082.28	42.224
1083.92	42.7072
1085.56	44.8208
1087.2	46.5592
1088.84	48.0761
1090.48	49.2812
1092.12	53.3753
1093.76	55.3418
1095.39	58.316
1097.03	59.9304
1098.67	62.1845
1100.31	64.6273
1101.94	67.4107
1103.58	68.8971
1105.22	69.9506
1106.85	71.7115
1108.49	72.8313
1110.12	71.5978
1111.76	70.3911
1113.39	70.2573
1115.03	68.8241
1116.66	69.2023
1118.29	68.2234
1119.93	68.5711
1121.56	67.1992
1123.19	67.1033
1124.82	65.6574
1126.46	64.977
1128.09	62.9022
1129.72	62.2387
1131.35	61.8573
1132.98	61.6087
1134.61	59.3557
1136.24	57.5421
1137.87	56.4044
1139.5	54.3437
1141.13	53.0836
1142.76	51.5977
1144.39	50.61
1146.01	49.4171
1147.64	48.7884
1149.27	47.713
1150.9	44.6771
1152.53	42.5931
1154.15	40.6316
1155.78	37.0555
1157.4	33.3219
1159.03	29.8257
1160.65	26.5349
1162.28	23.6278
1163.9	20.9934
1165.53	19.8464
1167.15	19.7827
1168.78	18.7054
1170.4	18.258
1172.02	17.5232
1173.65	17.1501
1175.27	17.0944
1176.89	16.7556
1178.51	16.3926
1180.14	17.0729
1181.76	16.0611
1183.38	15.2467
1185	14.9253
1186.62	14.2163
1188.24	14.6122
1189.86	13.3583
1191.48	13.2296
1193.1	14.0997
1194.71	16.3532
1196.33	17.897
1197.95	20.8982
1199.57	22.4113
1201.19	24.8591
1202.8	27.7785
1204.42	31.6152
1206.04	33.8186
1207.65	38.0256
1209.27	41.6594
1210.88	46.0027
1212.5	50.6409
1214.12	55.6215
1215.73	58.5624
1217.35	63.4307
1218.96	66.6952
1220.57	71.3525
1222.19	75.8955
1223.8	79.9664
1225.41	84.501
1227.03	87.8871
1228.64	91.8467
1230.25	94.3211
1231.86	96.8498
1233.47	99.2513
1235.08	100.798
1236.69	102.148
1238.31	103.978
1239.92	105.702
1241.52	107.249
1243.13	107.849
1244.74	109.279
1246.35	111.491
1247.96	111.043
1249.57	111.257
1251.18	110.608
1252.78	109.26
1254.39	108.334
1256	107.493
1257.6	106.351
1259.21	104.466
1260.82	102.456
1262.42	99.497
1264.03	98.0032
1265.63	96.4491
1267.24	95.7307
1268.84	94.1439
1270.45	92.4055
1272.05	91.6478
1273.65	93.3835
1275.26	94.5563
1276.86	94.7889
1278.46	96.2808
1280.06	97.4972
1281.67	99.2019
1283.27	102.259
1284.87	104.021
1286.47	107.886
1288.07	111.296
1289.67	113.887
1291.27	117.155
1292.87	121.132
1294.47	125.445
1296.07	127.625
1297.67	132.213
1299.27	135.864
1300.87	141.158
1302.47	146.626
1304.06	150.788
1305.66	156.075
1307.26	160.152
1308.85	165.181
1310.45	170.005
1312.05	174.557
1313.64	179.556
1315.24	183.873
1316.83	187.036
1318.43	190.84
1320.02	192.579
1321.62	194.044
1323.21	194.933
1324.8	195.962
1326.4	196.599
1327.99	196.593
1329.59	198.455
1331.18	197.387
1332.77	196.052
1334.36	195.932
1335.95	195.451
1337.54	193.92
1339.14	191.978
1340.73	190.733
1342.32	188.631
1343.91	186.519
1345.5	183.55
1347.09	180.747
1348.67	177.599
1350.26	175.207
1351.85	173.19
1353.44	171.727
1355.03	168.615
1356.62	165.653
1358.2	162.588
1359.79	160.173
1361.38	156.904
1362.96	154.537
1364.55	151.955
1366.14	150.838
1367.72	147.822
1369.31	146.1
1370.89	143.638
1372.48	141.207
1374.06	141.153
1375.64	139.153
1377.23	138.978
1378.81	137.752
1380.39	136.701
1381.98	135.974
1383.56	134.74
1385.14	134.156
1386.72	133.068
1388.3	132.602
1389.89	130.74
1391.47	128.238
1393.05	126.645
1394.63	122.388
1396.21	120.531
1397.79	118.968
1399.37	115.864
1400.95	114.828
1402.52	113.594
1404.1	113.35
1405.68	113.853
1407.26	114.208
1408.84	114.628
1410.42	115.423
1411.99	116.532
1413.57	119.358
1415.15	122.331
1416.72	124.374
1418.3	127.732
1419.87	130.984
1421.45	135.413
1423.02	140.126
1424.6	145.361
1426.17	149.938
1427.75	154.984
1429.32	160.879
1430.89	166.332
1432.47	172.873
1434.04	178.531
1435.61	183.786
1437.18	188.649
1438.76	194.313
1440.33	199.207
1441.9	204.062
1443.47	208.634
1445.04	212.711
1446.61	215.56
1448.18	217.52
1449.75	217.282
1451.32	217.205
1452.89	218.077
1454.46	215.789
1456.03	213.716
1457.6	210.361
1459.16	207.337
1460.73	204.119
1462.3	198.18
1463.87	193.286
1465.43	187.266
1467	179.293
1468.56	171.69
1470.13	163.394
1471.7	155.09
1473.26	146.353
1474.83	140.339
1476.39	132.235
1477.96	124.594
1479.52	117.703
1481.08	109.826
1482.65	103.606
1484.21	95.7263
1485.77	89.0631
1487.34	82.9919
1488.9	76.6092
1490.46	70.782
1492.02	66.6415
1493.58	63.0149
1495.15	58.6946
1496.71	55.8724
1498.27	53.1532
1499.83	52.5626
1501.39	49.5732
1502.95	48.1488
1504.51	47.2312
1506.07	46.5065
1507.63	46.2626
1509.18	44.8875
1510.74	45.7678
1512.3	45.2013
1513.86	45.8923
1515.41	46.5838
1516.97	47.5268
1518.53	47.9207
1520.08	49.0032
1521.64	50.1318
1523.2	51.4527
1524.75	52.1595
1526.31	53.5934
1527.86	54.5409
1529.42	57.1998
1530.97	59.5624
1532.52	61.3446
1534.08	62.8793
1535.63	64.9231
1537.19	67.4581
1538.74	68.9617
1540.29	71.7163
1541.84	75.3277
1543.4	76.769
1544.95	79.9849
1546.5	83.3452
1548.05	86.376
1549.6	90.8142
1551.15	95.9678
1552.7	100.939
1554.25	104.936
1555.8	108.363
1557.35	113.154
1558.9	117.348
1560.45	121.764
1562	125.119
1563.54	129.382
1565.09	133.587
1566.64	137.692
1568.19	142.562
1569.73	146.838
1571.28	150.28
1572.83	154.476
1574.37	157.007
1575.92	161.319
1577.47	164.095
1579.01	166.515
1580.56	169.473
1582.1	171.448
1583.64	172.571
1585.19	174.813
1586.73	176.714
1588.28	178.835
1589.82	180.116
1591.36	179.597
1592.9	179.508
1594.45	178.272
1595.99	177.331
1597.53	177.368
1599.07	175.916
1600.61	173.882
1602.15	172.423
1603.69	170.164
1605.23	167.713
1606.77	164.645
1608.31	162.731
1609.85	160.89
1611.39	158.527
1612.93	156.876
1614.47	155.355
1616.01	154.617
1617.55	154.023
1619.08	152.305
1620.62	150.783
1622.16	150.159
1623.7	148.762
1625.23	148.82
1626.77	149.286
1628.3	148.56
1629.84	148.99
1631.37	149.488
1632.91	149.871
1634.44	150.882
1635.98	151.078
1637.51	151.734
1639.05	153.381
1640.58	154.333
1642.11	156.924
1643.65	158.125
1645.18	158.787
1646.71	159.504
1648.24	161.132
1649.78	163.091
1651.31	162.374
1652.84	163.474
1654.37	162.546
1655.9	163.889
1657.43	163.23
1658.96	163.238
1660.49	163.151
1662.02	161.874
1663.55	159.352
1665.08	157.141
1666.61	155
1668.14	150.941
1669.66	147.648
1671.19	143.387
1672.72	140.458
1674.25	136.742
1675.77	132.227
1677.3	128.084
1678.83	124.519
1680.35	120.164
1681.88	116.101
1683.4	111.938
1684.93	108.62
1686.45	102.655
1687.98	98.1923
1689.5	93.504
1691.03	89.3291
1692.55	85.0032
1694.07	79.7196
1695.6	74.8823
1697.12	69.4964
1698.64	65.3436
1700.17	60.8775
1701.69	57.2203
1703.21	52.7138
1704.73	48.176
1706.25	45.8128
1707.77	43.0346
1709.29	40.006
1710.81	36.678
1712.33	35.4397
1713.85	33.7179
1715.37	31.616
1716.89	29.3696
1718.41	28.2642
1719.93	26.7584
1721.45	25.6815
1722.97	25.731
1724.49	24.7666
1726	22.9756
1727.52	21.8192
1729.04	21.1631
1730.55	20.9706
1732.07	21.1509
1733.59	20.4907
1735.1	19.9487
1736.62	19.3249
1738.13	17.9935
1739.65	16.7348
1741.16	15.4585
1742.68	13.9129
1744.19	12.8047
1745.7	12.4244
1747.22	12.2283
1748.73	11.9716
1750.24	10.5073
1751.76	9.76306
1753.27	9.01597
1754.78	8.65876
1756.29	7.82142
1757.8	6.95869
1759.31	6.14123
1760.83	4.61973
1762.34	3.85489
1763.85	4.18465
1765.36	3.52459
1766.87	2.90373
1768.38	1.98312
1769.89	0.971631
1771.39	0.486413
1772.9	-0.152998
1774.41	-1.00935
1775.92	-2.02066
1777.43	-2.12711
1778.94	-2.82885
1780.44	-2.65255
1781.95	-1.74442
1783.46	-1.28695
1784.96	-1.55863
1786.47	-0.90078
1787.97	0.168664
1789.48	0.45671
1790.99	0.737383
1792.49	1.39105
1794	2.45418
1795.5	3.46883
1797	3.33513
1798.51	3.70141
1800.01	3.46921
1801.51	3.59838
1803.02	3.83552
1804.52	4.14367
1806.02	5.03107
1807.53	5.19513
1809.03	5.19531
1810.53	4.73481
1812.03	5.27842
1813.53	5.84628
1815.03	5.76112
1816.53	6.73883
1818.03	7.40384
1819.53	8.53587
1821.03	8.54427
1822.53	7.76857
1824.03	6.9626
1825.53	6.76793
1827.03	7.55248
1828.53	7.51579
1830.02	7.56925
1831.52	6.89445
1833.02	7.26855
1834.52	6.70802
1836.01	6.96752
1837.51	6.87053
1839.01	6.87375
1840.5	6.73452
1842	6.52004
1843.49	6.51996
1844.99	6.48494
1846.48	6.49745
1847.98	6.5064
1849.47	6.61568
1850.97	7.50862
1852.46	7.95981
1853.95	7.69029
1855.45	7.58684
1856.94	8.10521
1858.43	7.85421
1859.93	7.74002
1861.42	7.55573
1862.91	7.81821
1864.4	8.41259
1865.89	8.83348
1867.38	8.70414
1868.87	9.16531
1870.36	8.48333
1871.85	7.99243
1873.34	8.30067
1874.83	7.74461
1876.32	7.32343
1877.81	7.6212
1879.3	8.13201
1880.79	7.63262
1882.28	7.32063
1882.52	7.29564
1884.02	6.2575
1885.51	6.96186
1887.01	6.5463
1888.5	6.12607
1889.99	5.9997
1891.49	5.09966
1892.98	4.71051
1894.47	4.17567
1895.97	4.02293
1897.46	3.44689
1898.95	3.02401
1900.44	2.58349
1901.93	1.57375
1903.42	1.29929
1904.91	1.0332
1906.4	0.849706
1907.89	0.281865
1909.38	0.534651
1910.87	1.37623
1912.36	1.89962
1913.85	1.57398
1915.34	1.69105
1916.83	2.60321
1918.32	3.41695
1919.8	3.42489
1921.29	3.83951
1922.78	4.56177
1924.27	4.29382
1925.75	3.75283
1927.24	4.1454
1928.73	4.51425
1930.21	4.32882
1931.7	5.17414
1933.18	5.65083
1934.67	5.77196
1936.15	6.9052
1937.64	6.80617
1939.12	7.44914
1940.61	7.33479
1942.09	6.85758
1943.57	6.75635
1945.06	7.47149
1946.54	7.67084
1948.02	7.31466
1949.51	7.9931
1950.99	8.18392
1952.47	8.69233
1953.95	7.60497
1955.43	7.61473
1956.91	6.91437
1958.4	6.87124
1959.88	7.96497
1961.36	7.7623
1962.84	7.28842
1964.32	6.3007
1965.8	5.88716
1967.27	5.74162
1968.75	4.9584
1970.23	3.69047
1971.71	2.76535
1973.19	3.16106
1974.67	2.23237
1976.14	2.55754
1977.62	2.19922
1979.1	2.53701
1980.58	2.78519
1982.05	3.43646
1983.53	3.23262
1985	3.01145
1986.48	2.17148
1987.95	2.92657
1989.43	3.32315
1990.9	3.80881
1992.38	2.59039
1993.85	2.65786
1995.33	3.53667
1996.8	3.81894
1998.27	3.28989
1999.75	4.199
2001.22	5.02139
2002.69	4.03401
2004.16	4.2432
2005.64	5.01752
2007.11	4.9954
2008.58	5.30348
2010.05	6.19439
2011.52	6.51481
2012.99	7.05667
2014.46	6.31472
2015.93	5.90942
2017.4	6.94636
2018.87	6.88192
2020.34	6.96853
2021.81	7.17108
2023.28	7.47432
2024.75	6.72042
2026.22	7.03574
2027.69	6.50424
2029.15	7.21888
2030.62	7.08275
2032.09	7.42754
2033.56	7.53024
2035.02	7.41452
2036.49	6.16362
2037.96	5.99512
2039.42	6.38318
2040.89	5.9284
2042.35	5.71641
2043.82	6.28254
2045.28	6.53726
2046.75	5.91541
2048.21	5.22558
2049.67	5.6888
2051.14	6.10354
2052.6	6.80984
2054.07	6.72036
2055.53	6.75278
2056.99	7.36007
2058.45	7.57241
2059.92	8.65769
2061.38	9.57757
2062.84	9.2607
2064.3	9.87943
2065.76	9.5324
2067.22	11.1759
2068.68	10.5283
2070.14	10.4687
2071.6	11.0668
2073.06	11.4559
2074.52	11.3378
2075.98	11.4944
2077.44	11.5469
2078.9	11.7841
2080.36	12.328
2081.82	11.6843
2083.27	11.6007
2084.73	11.1453
2086.19	11.0104
2087.65	10.3378
2089.1	10.1936
2090.56	9.32959
2092.02	8.23475
2093.47	7.87283
2094.93	6.92801
2096.38	5.91456
2097.84	5.27006
2099.29	5.44927
2100.75	5.05677
2102.2	5.22698
2103.66	4.62774
2105.11	4.43476
2106.56	4.06147
2108.02	3.88318
2109.47	2.46068
2110.92	1.41135
2112.38	1.21265
2113.83	1.23246
2115.28	1.69374
2116.73	0.969074
2118.18	0.833823
2119.63	0.887693
2121.09	2.02407
2122.54	1.84717
2123.99	2.76778
2125.44	2.74393
2126.89	2.68643
2128.34	3.36578
2129.79	3.93117
2131.23	3.83786
2132.68	4.55693
2134.13	5.2401
2135.58	5.83301
