#Acq. time (s)=	45
#Accumulations=	2
#Range (cm-¹)=	200...3150
#Windows=	2
#Auto scanning=	Off
#Autofocus=	Off
#Macrospot=	Off
#AutoExposure=	Off
#Spike filter=	Multiple accum.
#Delay time (s)=	0
#Binning=	1
#Readout mode=	Signal
#DeNoise=	Off
#ICS correction=	On
#Dark correction=	Off
#Inst. Process=	Off
#Detector Gain=	Best Dynamic Range
#Detector ADC=	20 kHz       
#Detector temperature (°C)=	-69.85
#Instrument=	LabRAM HR Evol
#Detector=	Synapse
#Objective=	x100
#Grating=	600 gr/mm
#ND Filter=	100%
#Laser (nm)=	532 
#Hole=	100.021
#Range=	Auto
#Laser Pol.=	No
#Raman. Pol.=	No
#Laser Pol. (°)=	-0.0007625
#Raman Pol. (°)=	89.9995
#Collection=	Microscope
#StageXY=	Marzhauser
#StageZ=	Marzhauser
#X (µm)=	2164.6
#Y (µm)=	1250.9
#Z (µm)=	443
#Full time(mm:ss)=	3:18
#Project=	
#Sample=	
#Site=	
#Title=	Thy_10_08_05_2x_45s_532 nm_x100_100%_600 gr_mm
#Remark=	
#Date=	05.07.2022 14:36
#Acquired=	05.07.2022 14:36:49
#Base:Fit=	10.08.2022 09:45:33
#Base:Fit=	10.08.2022 09:46:03
#Base:Fit=	10.08.2022 09:46:25
#Base:Sub=	10.08.2022 09:46:49
#Filter:Polynom=	16.08.2022 10:24:56
#AxisType[0]=Intens
#AxisUnit[0]=Cnt
#AxisType[1]=Spectr
#AxisUnit[1]=1/cm
200.43	26.2763
202.244	23.6167
204.059	20.2019
205.873	18.8819
207.688	17.3262
209.501	15.5965
211.314	13.967
213.127	11.9905
214.941	10.4536
216.753	8.7227
218.564	7.6995
220.375	5.58712
222.186	4.4366
223.999	3.8278
225.809	4.34091
227.618	3.89092
229.428	3.60533
231.236	3.37675
233.045	2.8439
234.855	2.92338
236.663	2.7231
238.471	3.22647
240.278	3.21082
242.085	2.86904
243.891	3.97135
245.698	4.48587
247.503	4.84643
249.309	6.09338
251.116	5.98625
252.921	6.97617
254.725	7.24891
256.529	6.54532
258.333	6.62564
260.136	7.96688
261.939	8.65082
263.742	8.48378
265.544	9.24259
267.346	8.49578
269.148	8.99753
270.949	10.6745
272.75	11.2863
274.55	11.5769
276.351	10.2613
278.15	9.93004
279.95	10.0819
281.749	9.65554
283.548	9.50382
285.346	9.42253
287.144	9.07636
288.942	8.03097
290.739	8.34451
292.536	8.56918
294.333	8.15457
296.129	6.84804
297.925	6.75159
299.721	6.4675
301.514	5.94444
303.309	5.73944
305.104	5.49959
306.898	5.39153
308.692	5.08597
310.486	4.39967
312.279	5.06219
314.072	5.05934
315.862	5.64408
317.654	5.13406
319.446	5.08262
321.238	5.22127
323.029	5.40741
324.819	6.19106
326.608	5.77315
328.398	6.09723
330.188	6.38454
331.977	6.65596
333.766	7.95613
335.553	7.35865
337.341	7.68319
339.129	8.02554
340.917	6.96619
342.704	7.29855
344.489	7.76293
346.275	7.58966
348.062	9.88678
349.845	10.5339
351.631	9.84634
353.416	10.547
355.201	11.5891
356.984	11.8334
358.768	12.7027
360.552	13.1625
362.333	12.9958
364.116	13.0315
365.899	13.2323
367.68	13.6231
369.462	14.643
371.243	13.0568
373.023	12.9357
374.804	13.1501
376.585	13.5821
378.363	13.9583
380.143	14.2114
381.923	13.6845
383.7	13.4395
385.479	14.0914
387.256	14.4254
389.034	13.6709
390.812	12.7492
392.588	12.2721
394.365	11.3568
396.14	10.6993
397.916	9.78716
399.691	8.95578
401.467	8.43317
403.24	8.45901
405.015	7.89518
406.788	6.61043
408.563	5.91702
410.335	5.29007
412.109	4.87509
413.88	3.82007
415.654	2.79938
417.424	2.24659
419.197	1.67687
420.967	0.561968
422.739	0.306928
424.508	0.301262
426.279	-0.0284492
428.048	-0.503398
429.819	-0.559177
431.587	0.100975
433.356	0.620341
435.124	0.753914
436.891	2.34042
438.66	1.25951
440.426	0.688241
442.194	1.68124
443.96	1.92577
445.725	2.04298
447.492	2.34471
449.257	2.33793
451.021	2.9244
452.787	3.1636
454.551	3.01345
456.314	3.41823
458.079	4.21321
459.842	3.93141
461.604	5.38083
463.368	6.70528
465.13	7.30001
466.891	7.25322
468.654	8.15263
470.415	9.37898
472.175	11.0505
473.935	12.3293
475.696	12.7777
477.456	12.4363
479.215	13.0752
480.973	14.4279
482.733	14.9997
484.491	14.9586
486.249	14.5172
488.006	14.5106
489.765	15.1612
491.522	15.7771
493.278	15.8467
495.034	15.6435
496.789	15.6249
498.544	15.8184
500.301	15.9286
502.056	15.5042
503.81	15.7333
505.564	16.3314
507.317	16.5761
509.071	16.9038
510.825	17.8
512.578	18.3485
514.33	18.1414
516.082	18.7348
517.833	19.0958
519.585	20.0686
521.335	19.1101
523.086	18.9016
524.836	19.3826
526.586	18.2803
528.335	18.1555
530.085	18.6044
531.835	17.6212
533.584	16.579
535.332	16.3986
537.08	16.6464
538.827	17.0017
540.574	16.2086
542.321	15.4995
544.068	15.7035
545.814	15.2492
547.56	14.005
549.305	14.1167
551.05	14.3803
552.795	13.4277
554.54	13.8034
556.282	14.3539
558.025	14.5126
559.769	13.7464
561.512	13.0237
563.255	12.5082
564.997	11.046
566.739	10.2355
568.481	9.39396
570.223	8.26045
571.964	7.36442
573.705	6.9705
575.443	7.47842
577.183	6.75051
578.923	6.08795
580.663	5.93364
582.402	4.6463
584.141	4.89764
585.879	4.39374
587.615	3.683
589.353	3.69481
591.09	3.48495
592.828	3.61002
594.564	3.50332
596.299	3.89229
598.035	4.09097
599.771	3.97844
601.506	3.94381
603.242	4.33025
604.974	4.28897
606.709	5.14603
608.443	3.51848
610.177	4.41848
611.908	4.43616
613.642	4.474
615.374	4.5748
617.105	5.06687
618.837	4.75479
620.569	5.62564
622.3	7.05853
624.03	6.83941
625.761	6.5571
627.491	5.93228
629.219	6.57226
630.949	6.89331
632.677	6.68166
634.406	7.10354
636.135	7.8308
637.861	8.00756
639.59	8.00769
641.318	9.47609
643.043	10.3755
644.77	10.8577
646.495	11.3715
648.222	12.3709
649.948	13.1627
651.672	12.3776
653.398	14.1385
655.121	15.2788
656.846	16.109
658.569	16.7931
660.293	17.1741
662.015	17.6302
663.738	18.2075
665.46	19.2245
667.183	19.8121
668.903	19.8955
670.626	20.4847
672.346	20.1344
674.067	20.4089
675.787	21.4301
677.508	21.9987
679.226	22.9755
680.947	23.6655
682.665	24.1905
684.385	25.3301
686.102	25.6218
687.821	26.1492
689.538	26.5458
691.254	26.7324
692.972	27.9809
694.688	28.3035
696.406	29.1244
698.121	29.5868
699.835	30.7758
701.552	31.3608
703.266	32.643
704.98	31.989
706.695	33.0277
708.409	33.3593
710.121	33.1263
711.836	33.5819
713.548	34.286
715.26	35.7562
716.973	36.2938
718.685	38.4514
720.396	38.9901
722.108	39.6478
723.818	41.2906
725.528	43.2365
727.238	44.2565
728.949	45.8503
730.658	46.4148
732.367	47.2736
734.075	48.1257
735.785	49.2019
737.493	50.3442
739.2	51.7687
740.907	51.7842
742.614	53.5511
744.322	54.7749
746.028	55.6761
747.734	56.3175
749.439	56.5846
751.144	56.9545
752.849	57.6437
754.555	58.4752
756.26	59.5399
757.963	59.9525
759.667	60.8673
761.37	62.1366
763.073	62.7035
764.775	63.2189
766.477	63.6575
768.179	64.3393
769.883	64.9378
771.584	64.2818
773.285	65.3751
774.986	65.8466
776.686	66.5537
778.386	67.3575
780.085	67.4994
781.785	68.1471
783.484	69.1299
785.182	69.8489
786.881	70.4454
788.579	70.7727
790.276	70.4637
791.974	72.1984
793.671	72.0448
795.367	72.9881
797.064	74.3368
798.76	76.2
800.456	78.0758
802.151	79.6697
803.846	80.0085
805.541	80.3284
807.234	81.8391
808.928	82.7382
810.622	83.2964
812.315	83.3253
814.008	83.7078
815.701	84.3457
817.394	84.6787
819.086	85.4535
820.778	86.1051
822.468	86.5317
824.159	86.132
825.85	87.6201
827.541	88.2315
829.231	87.3253
830.921	85.9489
832.609	85.8503
834.298	85.2333
835.987	85.6456
837.676	84.3053
839.364	83.0568
841.051	81.8079
842.738	79.7042
844.426	78.9743
846.113	77.7381
847.798	77.0883
849.484	74.8429
851.171	73.9422
852.857	73.1913
854.54	71.8191
856.226	69.749
857.911	69.3279
859.593	67.26
861.278	66.5205
862.961	66.0538
864.645	64.9922
866.327	64.2836
868.01	63.1845
869.692	62.0571
871.373	60.9885
873.055	60.2721
874.735	59.52
876.416	58.6256
878.097	57.4377
879.776	58.0796
881.457	57.9071
883.135	57.854
884.815	58.1248
886.495	57.08
888.172	55.8532
889.851	56.7198
891.528	56.7163
893.206	55.6497
894.882	55.4141
896.56	55.4073
898.237	56.1413
899.912	56.7062
901.589	56.7415
903.263	57.5893
904.94	58.0777
906.614	57.9355
908.289	57.3554
909.962	57.6153
911.635	56.7461
913.31	56.2094
914.982	55.9792
916.656	55.6641
918.328	55.4907
920.001	55.3162
921.672	54.2981
923.345	54.1486
925.015	53.5244
926.685	53.299
928.357	54.4635
930.026	54.1833
931.698	53.7734
933.366	52.8963
935.035	53.3429
936.705	53.6469
938.373	53.2396
940.041	52.8503
941.71	53.2346
943.377	52.3063
945.044	51.4059
946.712	50.1225
948.378	49.2028
950.044	48.7504
951.709	48.2526
953.376	46.7387
955.041	45.6367
956.706	44.1579
958.372	43.5187
960.036	42.5411
961.699	41.6272
963.362	42.0922
965.027	40.9498
966.69	41.0595
968.352	40.9576
970.014	40.4413
971.676	40.2985
973.339	40.4796
975	40.7029
976.661	40.2446
978.322	40.8655
979.982	40.8319
981.642	40.7296
983.303	39.901
984.962	39.7326
986.621	39.0257
988.28	38.2711
989.938	37.807
991.596	37.8905
993.254	37.7099
994.911	37.0718
996.57	37.1903
998.227	37.0489
999.884	36.522
1001.54	37.1792
1003.2	37.4582
1004.85	37.1757
1006.51	36.0808
1008.16	35.2283
1009.82	35.7345
1011.47	35.6338
1013.12	34.4982
1014.78	34.0732
1016.43	33.943
1018.08	33.2491
1019.74	32.9708
1021.39	30.8067
1023.04	28.9506
1024.69	27.8288
1026.34	26.6762
1028	25.2149
1029.65	26.095
1031.3	26.034
1032.95	25.079
1034.6	23.7379
1036.25	22.3238
1037.9	20.3191
1039.54	19.8317
1041.19	20.3894
1042.84	20.1237
1044.49	19.2198
1046.14	19.9066
1047.78	20.0963
1049.43	21.0226
1051.08	20.6396
1052.72	20.5694
1054.37	20.0512
1056.02	20.2013
1057.66	19.8932
1059.31	19.1957
1060.95	18.8288
1062.6	17.3595
1064.24	17.1203
1065.88	16.6704
1067.53	16.5012
1069.17	16.1197
1070.81	16.2824
1072.45	16.5783
1074.1	16.2414
1075.74	15.0767
1077.38	14.6274
1079.02	14.8272
1080.66	14.1473
1082.3	14.4372
1083.94	14.8481
1085.58	14.5516
1087.22	13.7583
1088.86	13.0176
1090.5	13.9879
1092.14	14.4047
1093.78	14.2302
1095.42	14.3247
1097.05	14.5524
1098.69	14.7006
1100.33	14.3711
1101.96	14.3835
1103.6	14.7434
1105.24	15.6955
1106.87	15.6865
1108.51	15.5163
1110.14	14.8998
1111.78	15.6706
1113.41	14.8898
1115.05	14.0431
1116.68	13.4477
1118.31	13.2245
1119.95	12.7257
1121.58	13.7676
1123.21	14.4793
1124.85	14.4316
1126.48	13.4571
1128.11	12.8727
1129.74	12.3133
1131.37	11.4249
1133	11.1852
1134.63	11.4988
1136.26	10.8342
1137.89	10.2821
1139.52	8.97005
1141.15	8.35691
1142.78	7.68069
1144.41	6.28528
1146.04	5.80249
1147.66	5.15592
1149.29	4.70876
1150.92	3.69313
1152.55	3.0715
1154.17	2.14058
1155.8	0.975822
1157.43	0.0469217
1159.05	-0.513977
1160.68	-1.02015
1162.3	-1.1189
1163.93	-0.876981
1165.55	-1.30347
1167.17	-0.863702
1168.8	-0.743738
1170.42	-0.721726
1172.05	0.693564
1173.67	0.379275
1175.29	0.896038
1176.91	1.25585
1178.54	2.11643
1180.16	2.53618
1181.78	3.48032
1183.4	3.71146
1185.02	4.66396
1186.64	4.68612
1188.26	4.73287
1189.88	6.15967
1191.5	7.13898
1193.12	9.08355
1194.74	9.38878
1196.36	9.91499
1197.97	10.4015
1199.59	12.2235
1201.21	13.305
1202.83	13.9196
1204.44	15.1358
1206.06	15.9785
1207.68	16.5805
1209.29	17.8306
1210.91	20.0874
1212.52	22.4209
1214.14	24.3007
1215.75	25.3604
1217.37	25.9161
1218.98	26.9262
1220.59	27.3562
1222.21	29.2043
1223.82	30.6775
1225.43	32.0218
1227.05	33.69
1228.66	35.5553
1230.27	36.3578
1231.88	37.5487
1233.49	37.9141
1235.1	37.9688
1236.72	38.3271
1238.33	39.2121
1239.94	39.722
1241.55	41.1047
1243.16	42.7006
1244.76	43.3876
1246.37	43.8266
1247.98	44.6266
1249.59	45.0294
1251.2	45.3786
1252.8	45.5006
1254.41	44.2077
1256.02	44.8306
1257.62	44.5498
1259.23	44.9591
1260.84	44.4929
1262.44	44.5652
1264.05	43.4392
1265.66	44.4284
1267.26	44.4612
1268.86	44.3858
1270.47	44.3044
1272.07	43.9984
1273.67	43.9162
1275.28	43.7886
1276.88	43.9577
1278.48	44.1512
1280.09	45.1753
1281.69	44.3879
1283.29	45.2282
1284.89	46.1666
1286.49	47.231
1288.09	47.9661
1289.69	48.7005
1291.29	49.0108
1292.89	50.2068
1294.49	51.1738
1296.09	51.3047
1297.69	51.1752
1299.29	51.6847
1300.89	52.3405
1302.49	54.074
1304.08	55.1312
1305.68	55.6552
1307.28	56.5644
1308.88	57.3889
1310.47	57.6868
1312.07	58.72
1313.66	59.7303
1315.26	60.1724
1316.85	61.4178
1318.45	61.466
1320.04	62.0559
1321.64	63.1005
1323.23	63.7466
1324.83	64.2745
1326.42	65.1936
1328.01	65.2368
1329.61	65.1472
1331.2	64.5466
1332.79	64.3416
1334.38	63.6106
1335.97	63.6596
1337.56	61.8544
1339.16	61.1792
1340.75	59.1783
1342.34	58.5551
1343.93	57.4125
1345.52	56.8884
1347.11	55.1476
1348.7	53.5323
1350.29	52.1776
1351.87	51.4258
1353.46	50.1013
1355.05	49.6509
1356.64	48.0112
1358.22	47.0718
1359.81	45.2774
1361.4	43.5273
1362.98	42.6619
1364.57	41.0589
1366.16	40.5056
1367.74	39.2532
1369.33	37.5243
1370.91	36.6119
1372.5	35.8327
1374.08	34.138
1375.67	33.4817
1377.25	32.6834
1378.83	32.62
1380.41	32.2949
1382	31.9378
1383.58	31.3154
1385.16	30.869
1386.74	30.6492
1388.33	30.4369
1389.91	29.7821
1391.49	29.6581
1393.07	29.1259
1394.65	28.444
1396.23	28.7712
1397.81	28.7239
1399.39	30.1136
1400.97	30.2189
1402.55	31.2326
1404.13	31.4716
1405.7	31.1922
1407.28	30.9986
1408.86	31.7854
1410.44	33.2078
1412.01	33.2745
1413.59	34.097
1415.17	34.7789
1416.74	35.9252
1418.32	37.795
1419.89	38.6856
1421.47	40.3124
1423.04	41.6424
1424.62	42.9624
1426.19	44.6834
1427.77	46.8904
1429.34	48.2926
1430.91	50.2322
1432.49	51.7609
1434.06	53.7801
1435.63	54.8021
1437.2	55.9851
1438.78	56.8816
1440.35	58.3307
1441.92	59.7868
1443.49	61.0453
1445.06	61.5879
1446.63	61.6953
1448.2	62.0615
1449.77	62.5352
1451.34	62.2247
1452.91	62.3446
1454.48	63.2038
1456.05	61.3278
1457.62	59.8311
1459.18	58.2869
1460.75	55.9993
1462.32	54.3175
1463.89	53.0299
1465.45	51.439
1467.02	49.3929
1468.59	46.3123
1470.15	43.7278
1471.72	40.5307
1473.28	38.3032
1474.85	36.0764
1476.41	33.6614
1477.98	31.678
1479.54	29.0805
1481.1	27.0364
1482.67	23.7038
1484.23	21.5763
1485.79	20.7116
1487.36	19.4097
1488.92	18.1629
1490.48	15.9695
1492.04	14.8213
1493.61	13.5525
1495.17	12.789
1496.73	10.6456
1498.29	9.01382
1499.85	8.61294
1501.41	8.23262
1502.97	7.04224
1504.53	6.63159
1506.09	5.55543
1507.65	5.27735
1509.2	5.09148
1510.76	4.5402
1512.32	4.27734
1513.88	3.93214
1515.43	3.03133
1516.99	3.39968
1518.55	3.72355
1520.1	4.13851
1521.66	4.11234
1523.22	4.47367
1524.77	4.85377
1526.33	5.77406
1527.88	6.69733
1529.44	7.97039
1530.99	9.08439
1532.54	9.50878
1534.1	10.2357
1535.65	11.3928
1537.21	12.3948
1538.76	13.8624
1540.31	15.2242
1541.86	16.7728
1543.42	17.8426
1544.97	18.0302
1546.52	19.2909
1548.07	21.5255
1549.62	23.8274
1551.17	26.4525
1552.72	28.9197
1554.27	30.0751
1555.82	31.6778
1557.37	33.2035
1558.92	35.1155
1560.47	37.5424
1562.02	40.2991
1563.56	42.3261
1565.11	43.4914
1566.66	44.6253
1568.21	45.274
1569.75	46.3981
1571.3	47.4396
1572.85	48.4657
1574.39	48.5293
1575.94	49.3016
1577.49	50.0532
1579.03	50.3352
1580.57	50.009
1582.12	49.8678
1583.66	50.8833
1585.21	51.8572
1586.75	50.5694
1588.3	50.4912
1589.84	50.456
1591.38	50.674
1592.92	50.5588
1594.47	51.0204
1596.01	50.0675
1597.55	49.3759
1599.09	49.1768
1600.63	49.0398
1602.17	48.7263
1603.71	48.4615
1605.25	47.6517
1606.79	47.0067
1608.33	45.8429
1609.87	44.9071
1611.41	44.2201
1612.95	42.7662
1614.49	42.4803
1616.03	42.2783
1617.57	41.9631
1619.1	42.6935
1620.64	43.2992
1622.18	44.1273
1623.72	44.7784
1625.25	46.1962
1626.79	47.1981
1628.32	48.421
1629.86	49.1911
1631.39	50.0213
1632.93	51.2338
1634.46	51.871
1636	53.1646
1637.53	53.367
1639.07	53.3729
1640.6	54.0976
1642.13	55.1816
1643.67	55.8096
1645.2	56.6535
1646.73	57.4952
1648.26	57.7625
1649.8	58.8237
1651.33	59.3771
1652.86	60.1651
1654.39	60.8465
1655.92	60.6712
1657.45	60.2866
1658.98	60.4303
1660.51	60.858
1662.04	60.503
1663.57	59.4711
1665.1	59.629
1666.63	58.8076
1668.16	58.3428
1669.68	56.6042
1671.21	54.6594
1672.74	53.8351
1674.27	52.3329
1675.79	50.087
1677.32	47.9986
1678.85	45.7041
1680.37	42.6938
1681.9	39.6136
1683.42	37.2798
1684.95	34.837
1686.47	32.8859
1688	30.2836
1689.52	28.3876
1691.05	26.9495
1692.57	24.2078
1694.09	22.2818
1695.62	20.2666
1697.14	18.6345
1698.66	16.884
1700.18	15.3162
1701.71	14.3443
1703.23	12.1538
1704.75	10.5963
1706.27	8.37724
1707.79	6.86553
1709.31	5.09128
1710.83	3.84461
1712.35	2.8649
1713.87	1.47399
1715.39	0.974836
1716.91	0.749807
1718.43	0.36926
1719.95	-0.551089
1721.47	-0.614264
1722.99	-0.490228
1724.5	-0.933448
1726.02	-0.736065
1727.54	-0.982924
1729.06	-1.89199
1730.57	-1.99063
1732.09	-1.51652
1733.61	-1.20914
1735.12	-0.845863
1736.64	-0.248662
1738.15	-0.00987469
1739.67	-0.396359
1741.18	-0.344399
1742.7	-0.841405
1744.21	-0.895352
1745.72	-1.35191
1747.24	-0.993947
1748.75	-0.643677
1750.26	-0.911352
1751.77	-0.778662
1753.29	0.0127725
1754.8	0.0193531
1756.31	-0.0413725
1757.82	0.306446
1759.33	1.23537
1760.84	1.56113
1762.36	1.593
1763.87	0.808623
1765.38	0.988181
1766.89	0.897714
1768.4	0.572012
1769.91	1.32652
1771.41	1.64299
1772.92	2.23262
1774.43	2.73007
1775.94	2.60431
1777.45	2.21394
1778.95	2.18241
1780.46	2.93004
1781.97	2.86303
1783.48	2.93129
1784.98	3.38253
1786.49	3.94784
1787.99	3.51325
1789.5	3.6268
1791.01	3.40579
1792.51	3.72594
1794.01	4.02573
1795.52	4.03354
1797.02	4.54734
1798.53	4.28873
1800.03	3.85104
1801.53	4.45429
1803.04	5.09957
1804.54	5.21047
1806.04	5.46994
1807.54	5.32872
1809.05	4.87809
1810.55	4.22896
1812.05	4.26295
1813.55	3.70928
1815.05	3.45888
1816.55	3.53861
1818.05	3.67031
1819.55	4.15915
1821.05	4.03329
1822.55	4.46181
1824.05	4.65737
1825.55	5.18383
1827.05	5.10828
1828.55	5.41866
1830.04	5.32682
1831.54	5.49452
1833.04	5.84363
1834.54	5.70729
1836.03	5.71852
1837.53	6.34894
1839.03	6.80023
1840.52	7.15781
1842.02	7.29097
1843.51	7.6035
1845.01	7.38187
1846.5	6.73112
1848	6.84347
1849.49	7.49359
1850.99	7.61333
1852.48	7.86478
1853.97	8.2998
1855.47	8.1181
1856.96	8.16013
1858.45	8.14057
1859.94	8.57282
1861.44	8.45848
1862.93	8.62197
1864.42	9.14936
1865.91	9.35727
1867.4	9.77026
1868.89	9.66691
1870.38	9.70678
1871.87	9.89403
1873.36	9.50248
1874.85	9.25013
1876.34	9.35551
1877.83	9.81051
1879.32	9.55498
1880.81	9.27269
1882.3	9.47212
1882.57	9.37972
1884.07	9.46358
1885.56	9.81934
1887.06	9.73325
1888.55	9.62826
1890.04	10.0217
1891.54	9.81547
1893.03	9.55011
1894.52	9.54245
1896.02	10.0475
1897.51	10.8039
1899	11.6004
1900.49	11.7017
1901.98	11.9678
1903.47	11.89
1904.96	12.5484
1906.45	12.5091
1907.94	12.317
1909.43	12.3953
1910.92	12.0907
1912.41	11.1309
1913.9	11.1567
1915.39	11.7548
1916.88	11.4028
1918.37	11.1505
1919.85	11.5135
1921.34	12.1622
1922.83	12.4907
1924.32	12.0151
1925.8	11.88
1927.29	11.7937
1928.78	11.7099
1930.26	12.4625
1931.75	12.8374
1933.23	13.269
1934.72	13.1484
1936.2	13.3655
1937.69	13.3658
1939.17	13.4708
1940.66	13.4248
1942.14	13.5274
1943.63	13.626
1945.11	13.7796
1946.59	13.2569
1948.07	13.1646
1949.56	13.1156
1951.04	13.5046
1952.52	13.3355
1954	13.1201
1955.48	12.7995
1956.96	12.8554
1958.45	13.1035
1959.93	12.8645
1961.41	12.4557
1962.89	12.4156
1964.37	12.7536
1965.85	13.0038
1967.32	13.6151
1968.8	14.0664
1970.28	13.8633
1971.76	14.3832
1973.24	15.0814
1974.72	15.0733
1976.19	15.5392
1977.67	15.6278
1979.15	15.9608
1980.63	15.7835
1982.1	15.8039
1983.58	15.9154
1985.05	16.2943
1986.53	16.9517
1988	17.9455
1989.48	18.0828
1990.95	18.0294
1992.43	18.7705
1993.9	18.8428
1995.38	19.0325
1996.85	18.8015
1998.32	19.0047
1999.8	19.2358
2001.27	19.8433
2002.74	20.4427
2004.22	20.8337
2005.69	20.8737
2007.16	20.8889
2008.63	21.2511
2010.1	21.8583
2011.57	22.666
2013.04	22.5193
2014.51	21.7087
2015.98	21.206
2017.45	20.6855
2018.92	20.1182
2020.39	19.5747
2021.86	18.9701
2023.33	18.6099
2024.8	19.3945
2026.27	19.808
2027.74	20.0444
2029.2	19.6605
2030.67	19.6999
2032.14	19.2758
2033.61	18.6663
2035.07	18.3453
2036.54	18.8061
2038.01	18.7323
2039.47	18.8484
2040.94	18.8027
2042.4	18.6717
2043.87	18.5501
2045.33	18.9972
2046.8	19.4388
2048.26	19.2508
2049.72	19.168
2051.19	19.0031
2052.65	19.0989
2054.12	19.2638
2055.58	19.3349
2057.04	19.7105
2058.5	20.3521
2059.97	20.4951
2061.43	20.4997
2062.89	20.2587
2064.35	20.2351
2065.81	19.8131
2067.27	19.0301
2068.73	19.1617
2070.19	19.5392
2071.65	20.9143
2073.11	20.8088
2074.57	21.2846
2076.03	20.7426
2077.49	21.4771
2078.95	21.6651
2080.41	22.062
2081.87	22.0729
2083.32	22.1143
2084.78	21.633
2086.24	20.9644
2087.7	20.6314
2089.15	20.9729
2090.61	21.498
2092.07	21.6875
2093.52	22.1684
2094.98	22.236
2096.43	23.0833
2097.89	23.85
2099.34	24.0247
2100.8	23.5533
2102.25	22.7726
2103.71	23.1445
2105.16	23.0289
2106.61	23.0369
2108.07	22.9591
2109.52	23.0074
2110.97	22.9545
2112.43	23.1077
2113.88	23.2784
2115.33	23.379
2116.78	23.3576
2118.23	24.1782
2119.68	24.7825
2121.13	25.4799
