#Acq. time (s)=	45
#Accumulations=	2
#Range (cm-¹)=	200...3150
#Windows=	2
#Auto scanning=	Off
#Autofocus=	Off
#Macrospot=	Off
#AutoExposure=	Off
#Spike filter=	Multiple accum.
#Delay time (s)=	0
#Binning=	1
#Readout mode=	Signal
#DeNoise=	Off
#ICS correction=	On
#Dark correction=	Off
#Inst. Process=	Off
#Detector Gain=	Best Dynamic Range
#Detector ADC=	20 kHz       
#Detector temperature (°C)=	-69.85
#Instrument=	LabRAM HR Evol
#Detector=	Synapse
#Objective=	x100
#Grating=	600 gr/mm
#ND Filter=	100%
#Laser (nm)=	532 
#Hole=	100.021
#Range=	Auto
#Laser Pol.=	No
#Raman. Pol.=	No
#Laser Pol. (°)=	-0.0007625
#Raman Pol. (°)=	89.9995
#Collection=	Microscope
#StageXY=	Marzhauser
#StageZ=	Marzhauser
#X (µm)=	4752.7
#Y (µm)=	-7707.7
#Z (µm)=	584.85
#Full time(mm:ss)=	3:18
#Project=	
#Sample=	
#Site=	
#Title=	Thy_30_10_33_2x_45s_532 nm_x100_100%_600 gr_mm
#Remark=	
#Date=	30.06.2022 13:49
#Acquired=	30.06.2022 13:49:53
#Base:Fit=	10.08.2022 09:58:11
#Base:Sub=	10.08.2022 09:58:44
#Filter:Polynom=	16.08.2022 10:22:53
#AxisType[0]=Intens
#AxisUnit[0]=Cnt
#AxisType[1]=Spectr
#AxisUnit[1]=1/cm
200.533	10.4543
202.348	10.5555
204.162	10.5245
205.976	9.69928
207.792	8.62494
209.605	7.62796
211.418	7.37122
213.23	6.82578
215.044	6.40491
216.856	6.21566
218.667	5.8646
220.478	6.85317
222.289	6.94034
224.102	7.77167
225.912	8.77131
227.721	9.78124
229.531	10.0796
231.34	10.5495
233.148	9.80977
234.956	10.6259
236.766	11.1883
238.574	11.8128
240.381	10.9144
242.188	10.1808
243.994	9.74731
245.801	9.31218
247.606	9.62888
249.412	9.4773
251.217	9.27838
253.024	8.79227
254.828	9.29612
256.632	8.97877
258.436	8.42298
260.239	8.86694
262.042	8.28372
263.845	8.33145
265.647	7.57286
267.449	7.31347
269.25	7.50536
271.052	7.43456
272.852	8.10194
274.653	8.21986
276.453	8.37635
278.253	9.41052
280.052	9.11566
281.852	8.65552
283.65	7.62971
285.449	6.76887
287.247	6.63756
289.044	5.97036
290.842	5.55273
292.639	5.173
294.436	5.26345
296.232	5.08435
298.028	5.73899
299.821	6.54207
301.617	8.41419
303.412	8.20571
305.206	8.71838
307	9.92145
308.794	11.5924
310.588	12.764
312.381	12.9833
314.172	13.6322
315.964	13.6375
317.756	13.3958
319.548	13.3687
321.34	13.555
323.131	13.2654
324.921	13.7807
326.71	13.7429
328.5	12.9986
330.29	11.8254
332.079	12.4134
333.868	12.4664
335.654	12.0809
337.443	11.9915
339.231	11.1241
341.018	11.4208
342.804	11.169
344.591	10.9171
346.377	11.399
348.163	12.1768
349.947	12.0729
351.733	11.5624
353.518	11.4849
355.303	10.2969
357.085	10.2949
358.869	11.1048
360.653	10.3314
362.435	10.308
364.218	10.8846
366.001	10.5065
367.781	10.0336
369.563	9.3078
371.345	9.03714
373.124	7.89418
374.905	7.49223
376.686	7.66838
378.464	7.91415
380.244	7.02599
382.022	6.94248
383.801	6.8662
385.58	6.57859
387.357	7.24564
389.135	7.78298
390.911	7.98267
392.689	7.4111
394.466	7.36224
396.241	7.48627
398.018	6.86257
399.792	5.94031
401.568	5.62933
403.341	5.39148
405.117	5.59531
406.889	5.6149
408.664	6.53832
410.436	6.44289
412.21	6.88488
413.981	6.81538
415.755	7.97921
417.525	7.23989
419.298	7.54962
421.068	8.07114
422.84	7.66896
424.609	8.7389
426.38	9.54519
428.149	10.4515
429.919	10.9335
431.688	10.9394
433.455	11.4419
435.225	12.03
436.992	11.9661
438.76	11.9075
440.527	11.6166
442.293	11.6973
444.06	11.7078
445.826	12.5065
447.593	12.6056
449.357	13.2988
451.122	13.449
452.888	14.6586
454.651	14.2979
456.415	14.9715
458.18	15.4002
459.942	15.4991
461.705	16.406
463.469	16.3865
465.23	16.6034
466.991	16.5477
468.752	16.4338
470.515	17.8922
472.275	17.0127
474.035	17.3105
475.797	17.608
477.556	17.5569
479.315	17.7551
481.073	17.9236
482.834	17.7977
484.592	17.8847
486.349	18.0479
488.106	19.4555
489.863	19.6975
491.622	20.7674
493.378	21.4234
495.134	21.3288
496.889	22.908
498.645	23.4969
500.401	23.9521
502.156	23.3922
503.91	24.2346
505.664	23.5415
507.417	24.1882
509.171	25.0209
510.923	26.1782
512.678	26.5618
514.43	25.667
516.182	25.4746
517.933	24.4249
519.684	24.5792
521.435	24.1824
523.186	24.6677
524.936	24.3231
526.686	24.6092
528.435	24.2816
530.184	23.4215
531.933	23.0314
533.682	23.3846
535.43	23.0524
537.18	22.5424
538.927	21.2479
540.674	21.1222
542.421	19.6484
544.167	18.8232
545.913	17.7434
547.659	17.009
549.403	15.6601
551.148	13.7307
552.893	13.3617
554.637	12.6741
556.381	12.1341
558.125	10.6726
559.868	9.59167
561.611	9.73402
563.354	9.04912
565.097	7.74369
566.839	7.06417
568.581	6.10762
570.322	4.89896
572.063	4.62352
573.802	4.78131
575.542	4.89187
577.283	3.63393
579.022	3.81145
580.762	3.36999
582.501	2.83624
584.24	2.70357
585.976	2.21267
587.714	1.47179
589.452	1.69382
591.19	2.39997
592.927	3.04275
594.663	3.0335
596.398	3.54328
598.134	3.26818
599.87	2.54616
601.605	3.535
603.338	4.42726
605.073	4.58378
606.808	5.3947
608.542	5.74771
610.274	6.96754
612.007	7.77872
613.74	9.05309
615.473	9.27401
617.204	10.1685
618.936	10.6855
620.668	11.1891
622.397	11.3699
624.128	10.7634
625.859	11.2122
627.588	12.0038
629.318	12.6519
631.048	14.2235
632.775	14.7165
634.505	15.5906
636.233	16.3073
637.96	17.9107
639.688	18.5809
641.416	19.3172
643.142	20.122
644.869	20.5195
646.594	22.5011
648.32	22.4503
650.045	22.2083
651.771	22.7339
653.496	23.4555
655.219	24.4411
656.944	25.0666
658.667	25.9665
660.391	26.4202
662.113	26.0644
663.837	25.4617
665.558	25.7363
667.281	24.721
669.002	23.4942
670.724	23.4834
672.444	24.357
674.166	23.883
675.885	24.1886
677.606	25.4212
679.325	24.9726
681.045	24.5839
682.763	25.7012
684.483	27.1077
686.2	28.4086
687.917	29.8323
689.636	28.8587
691.352	28.4424
693.07	28.9645
694.786	29.4282
696.501	30.2097
698.219	31.0264
699.933	32.1409
701.65	33.8947
703.364	34.647
705.078	34.8312
706.793	35.9988
708.506	36.6187
710.219	37.4598
711.934	38.7885
713.646	39.9406
715.358	41.4935
717.071	42.0954
718.782	41.5568
720.493	42.6042
722.204	43.123
723.916	43.9378
725.626	43.7563
727.336	44.8904
729.045	45.1401
730.756	46.514
732.464	47.7415
734.173	47.6371
735.881	48.617
737.59	49.3939
739.297	49.994
741.004	50.5544
742.711	51.5597
744.417	52.4445
746.125	52.4534
747.831	52.7078
749.537	53.0152
751.242	54.3087
752.946	55.0174
754.651	56.6809
756.357	57.8867
758.061	59.6287
759.764	60.5729
761.467	62.1681
763.17	63.281
764.872	62.7704
766.575	64.1735
768.276	64.915
769.978	65.5841
771.679	65.3553
773.382	65.8362
775.083	65.5781
776.783	66.9874
778.483	68.7477
780.182	69.778
781.882	71.0918
783.581	71.7958
785.279	72.7531
786.978	73.1345
788.676	73.3645
790.373	73.8392
792.071	74.5772
793.768	75.6642
795.464	76.2619
797.161	76.9309
798.857	77.4779
800.552	78.3477
802.248	77.475
803.941	78.027
805.636	78.6427
807.33	78.2919
809.024	78.211
810.718	78.4389
812.412	78.4165
814.105	78.1609
815.798	79.079
817.49	79.6346
819.183	80.6167
820.873	81.2124
822.564	81.7321
824.256	82.7988
825.947	82.9552
827.637	84.0154
829.328	83.6635
831.016	83.4765
832.705	83.6248
834.395	83.7529
836.084	84.3605
837.772	83.1661
839.459	82.6219
841.147	82.3317
842.835	81.3548
844.522	80.1865
846.209	78.4112
847.894	77.181
849.581	75.6133
851.267	74.5827
852.953	72.846
854.637	71.9252
856.322	70.0855
858.007	69.4499
859.689	67.7847
861.374	66.3925
863.058	65.7372
864.739	63.7406
866.423	62.5586
868.106	61.8117
869.787	62.1477
871.469	60.857
873.151	60.7831
874.831	59.9578
876.512	59.3329
878.193	58.7675
879.872	57.1449
881.553	56.5658
883.231	55.8358
884.911	55.9852
886.591	54.9879
888.268	55.0648
889.947	54.3098
891.623	54.4066
893.302	54.5581
894.978	54.8734
896.656	54.6379
898.331	55.2598
900.008	55.638
901.683	56.5804
903.359	56.2793
905.033	56.0833
906.709	56.1
908.383	55.8098
910.058	55.3281
911.731	55.9126
913.405	55.4198
915.078	55.1419
916.752	54.8866
918.423	54.8805
920.096	53.6574
921.768	51.8029
923.438	51.8916
925.111	51.347
926.781	50.2913
928.452	49.9633
930.122	48.9626
931.791	48.3052
933.462	47.7517
935.13	47.033
936.799	45.5993
938.468	45.1493
940.136	44.5499
941.803	44.0481
943.472	42.4101
945.139	42.2102
946.805	42.0665
948.473	41.5214
950.139	41.3816
951.804	41.7623
953.471	41.09
955.136	40.1748
956.801	40.0324
958.465	39.0256
960.131	37.5598
961.794	37.1835
963.458	37.5518
965.12	39.2377
966.785	40.9264
968.447	42.2586
970.109	42.8069
971.771	43.1127
973.432	43.9395
975.095	44.631
976.756	45.5661
978.417	45.8037
980.077	46.2252
981.737	46.7611
983.396	47.087
985.057	48.2234
986.716	48.759
988.375	49.736
990.033	50.1384
991.691	50.7718
993.349	51.4028
995.006	51.9407
996.663	51.139
998.32	50.0763
999.976	50.6851
1001.63	50.8727
1003.29	50.7786
1004.95	50.914
1006.6	50.8829
1008.26	50.1645
1009.91	50.0889
1011.56	48.8881
1013.22	48.1856
1014.87	46.9873
1016.53	46.5141
1018.18	45.7455
1019.83	44.3432
1021.48	43.8487
1023.14	42.9822
1024.79	41.9398
1026.44	41.778
1028.09	41.6923
1029.74	41.1154
1031.39	40.552
1033.04	38.5713
1034.69	37.5415
1036.34	35.5242
1037.99	34.665
1039.64	32.7471
1041.29	32.2153
1042.94	31.4133
1044.58	31.6781
1046.23	31.8119
1047.88	31.7753
1049.52	31.0977
1051.17	29.8926
1052.82	29.0477
1054.46	28.8327
1056.11	29.3739
1057.75	29.4364
1059.4	29.3506
1061.04	28.2133
1062.69	28.5833
1064.33	28.5122
1065.98	29.0534
1067.62	29.071
1069.26	28.457
1070.9	28.0438
1072.55	27.2998
1074.19	26.9595
1075.83	26.6718
1077.47	25.6976
1079.11	25.5058
1080.76	25.3294
1082.4	25.8249
1084.04	25.3333
1085.68	25.1465
1087.32	24.5124
1088.95	24.0524
1090.59	23.9927
1092.23	24.7976
1093.87	24.1664
1095.51	23.5361
1097.15	23.4844
1098.78	24.2371
1100.42	24.4605
1102.06	23.7059
1103.69	24.7824
1105.33	25.2071
1106.97	25.4243
1108.6	25.7586
1110.24	25.5991
1111.87	25.2905
1113.51	24.8051
1115.14	24.6501
1116.77	24.7067
1118.41	23.827
1120.04	23.3587
1121.67	21.9092
1123.31	21.8021
1124.94	20.858
1126.57	20.0317
1128.2	19.7349
1129.83	19.7157
1131.47	18.2868
1133.1	18.1154
1134.72	18.3521
1136.36	17.6888
1137.98	16.8677
1139.62	15.5878
1141.24	14.9363
1142.87	14.5238
1144.5	14.2309
1146.13	12.8471
1147.76	12.3914
1149.38	10.9638
1151.01	9.98013
1152.64	9.36583
1154.27	7.78514
1155.89	7.07772
1157.52	6.57788
1159.14	6.30182
1160.77	6.2797
1162.39	4.72695
1164.02	4.95765
1165.64	4.97104
1167.27	4.84155
1168.89	4.69843
1170.51	4.17359
1172.14	4.11458
1173.76	5.05416
1175.38	5.14846
1177	5.6553
1178.63	6.67892
1180.25	7.78059
1181.87	8.48394
1183.49	9.03603
1185.11	10.2353
1186.73	10.9118
1188.35	11.4072
1189.97	12.5703
1191.59	13.291
1193.21	13.3416
1194.83	14.2074
1196.45	15.8074
1198.07	16.0901
1199.68	17.0365
1201.3	18.2433
1202.92	19.48
1204.53	21.4487
1206.15	23.0015
1207.77	24.4892
1209.38	26.1522
1211	28.0664
1212.62	30.0866
1214.23	32.5978
1215.84	34.0867
1217.46	35.5915
1219.07	37.0695
1220.69	39.0055
1222.3	41.3105
1223.91	43.0828
1225.53	44.3417
1227.14	45.2483
1228.75	47.9112
1230.36	49.5909
1231.97	51.8001
1233.59	53.5654
1235.2	54.9419
1236.81	56.7579
1238.42	59.6705
1240.03	60.9419
1241.64	61.7727
1243.25	62.6072
1244.85	65.0689
1246.46	65.8116
1248.07	66.6765
1249.68	67.8529
1251.29	69.1013
1252.9	71.0296
1254.5	72.6386
1256.11	73.3143
1257.72	73.2844
1259.32	73.8526
1260.93	74.4983
1262.54	74.8817
1264.14	75.2135
1265.75	75.9509
1267.35	76.9594
1268.96	76.9871
1270.56	78.0796
1272.16	78.2593
1273.77	78.1896
1275.37	79.8409
1276.97	81.1535
1278.57	80.176
1280.18	80.8719
1281.78	81.7557
1283.38	82.6704
1284.98	84.1924
1286.58	84.8715
1288.18	84.834
1289.78	85.2397
1291.38	86.5535
1292.99	86.3537
1294.58	85.0342
1296.18	85.1132
1297.78	84.8945
1299.38	85.5962
1300.98	86.9994
1302.58	86.9139
1304.17	86.9114
1305.77	87.1009
1307.37	87.898
1308.97	89.5587
1310.56	89.3659
1312.16	89.0974
1313.76	89.0268
1315.35	89.4899
1316.95	90.344
1318.54	90.4563
1320.14	88.4263
1321.73	88.3396
1323.32	88.0045
1324.92	88.0677
1326.51	86.5423
1328.1	84.99
1329.7	84.8397
1331.29	84.2212
1332.88	83.1729
1334.47	81.7336
1336.07	80.0076
1337.66	78.8844
1339.25	78.0134
1340.84	76.7054
1342.43	76.023
1344.02	74.8444
1345.61	73.0751
1347.2	71.1339
1348.79	68.9793
1350.37	67.6324
1351.96	66.1046
1353.55	64.8044
1355.14	64.2261
1356.73	62.8817
1358.31	60.6358
1359.9	60.333
1361.49	59.3261
1363.07	58.2119
1364.66	56.5657
1366.25	54.5309
1367.83	52.3185
1369.42	51.2532
1371	50.3287
1372.59	47.9344
1374.17	46.2765
1375.75	45.6088
1377.34	44.4542
1378.92	44.4138
1380.5	43.1681
1382.09	42.8459
1383.67	42.4397
1385.25	42.0321
1386.83	42.0549
1388.42	41.4779
1390	40.6149
1391.58	41.3589
1393.16	41.2058
1394.74	40.9149
1396.32	39.6879
1397.9	38.9114
1399.48	38.2096
1401.06	37.7085
1402.64	36.5002
1404.21	35.2871
1405.79	34.6218
1407.37	34.8942
1408.95	35.7408
1410.53	36.7756
1412.1	37.5073
1413.68	38.1522
1415.26	38.6504
1416.83	39.5737
1418.41	40.6473
1419.98	42.5151
1421.56	44.5089
1423.13	45.7404
1424.71	47.9186
1426.28	50.8615
1427.86	55.0617
1429.43	58.2409
1431	61.0578
1432.58	63.1511
1434.15	65.9787
1435.72	68.2761
1437.29	69.8975
1438.87	72.1332
1440.44	73.8394
1442.01	75.0414
1443.58	75.5696
1445.15	76.1904
1446.72	76.5915
1448.29	77.2678
1449.86	77.0798
1451.43	76.4646
1453	76.4508
1454.57	75.833
1456.14	75.2582
1457.71	74.3435
1459.27	73.7279
1460.84	72.1635
1462.41	70.0619
1463.98	68.063
1465.54	66.1928
1467.11	63.59
1468.67	61.4289
1470.24	58.6197
1471.81	54.913
1473.37	51.5408
1474.94	48.4801
1476.5	45.8578
1478.07	41.6296
1479.63	37.9313
1481.19	34.7533
1482.76	31.606
1484.32	29.8696
1485.88	26.781
1487.45	25.4165
1489.01	24.0138
1490.57	21.7508
1492.13	19.6893
1493.69	18.2165
1495.26	17.5378
1496.82	16.8723
1498.38	16.8565
1499.94	16.3283
1501.5	16.3494
1503.06	16.3132
1504.62	16.225
1506.17	16.2753
1507.73	15.4585
1509.29	15.2619
1510.85	15.4658
1512.41	15.9253
1513.97	15.8928
1515.52	15.7743
1517.08	16.1985
1518.64	16.9477
1520.19	17.2283
1521.75	17.9717
1523.31	19.0844
1524.86	19.9167
1526.42	20.4908
1527.97	20.55
1529.52	22.0719
1531.08	22.6451
1532.63	23.7638
1534.19	25.2493
1535.74	27.0207
1537.29	28.799
1538.85	29.2764
1540.4	31.4976
1541.95	32.7075
1543.5	34.0835
1545.06	35.848
1546.61	37.1497
1548.16	38.0062
1549.71	39.5234
1551.26	40.9621
1552.81	42.3573
1554.36	42.5251
1555.91	43.2539
1557.46	44.1085
1559.01	45.3835
1560.56	47.1291
1562.11	48.8076
1563.65	49.8196
1565.2	52.6008
1566.75	53.1498
1568.29	54.1974
1569.84	55.5505
1571.39	57.2869
1572.94	58.9831
1574.48	60.093
1576.03	60.9495
1577.57	62.2185
1579.12	63.2982
1580.66	63.7297
1582.21	64.8452
1583.75	66.4612
1585.3	67.3172
1586.84	68.3509
1588.38	69.7401
1589.93	70.0359
1591.47	70.5748
1593.01	71.5273
1594.55	71.8629
1596.1	72.1815
1597.64	72.1777
1599.18	72.7577
1600.72	71.9384
1602.26	71.0362
1603.8	70.7917
1605.34	70.5499
1606.88	70.3321
1608.42	69.3852
1609.96	69.6553
1611.5	69.6324
1613.04	69.6532
1614.58	69.0754
1616.12	68.5365
1617.65	69.387
1619.19	69.4429
1620.73	69.8982
1622.27	70.7541
1623.8	70.6697
1625.34	71.3659
1626.87	72.5625
1628.41	73.1419
1629.95	74.5212
1631.48	75.7396
1633.02	77.8249
1634.55	79.3542
1636.09	81.3112
1637.62	83.0931
1639.15	84.529
1640.69	87.1276
1642.22	89.8951
1643.76	91.6459
1645.29	93.7388
1646.82	95.6604
1648.35	97.0932
1649.88	98.1508
1651.42	98.8046
1652.95	99.5131
1654.48	101.56
1656.01	102.088
1657.54	103.328
1659.07	103.65
1660.6	104.53
1662.13	104.374
1663.66	103.71
1665.19	102.378
1666.72	100.399
1668.24	99.0266
1669.77	96.6594
1671.3	94.1548
1672.83	91.484
1674.35	88.4543
1675.88	85.3582
1677.41	81.382
1678.93	78.3381
1680.46	74.3578
1681.99	71.0341
1683.51	67.4511
1685.04	64.4046
1686.56	61.0577
1688.09	57.6954
1689.61	54.0149
1691.13	50.9893
1692.66	48.2951
1694.18	45.8335
1695.71	42.4182
1697.23	38.8175
1698.75	35.2895
1700.27	31.8307
1701.8	29.6039
1703.32	27.2127
1704.84	24.8431
1706.36	23.2109
1707.88	20.4132
1709.4	18.2763
1710.92	16.3657
1712.44	15.0106
1713.96	13.8189
1715.48	12.4882
1717	12.0775
1718.52	11.0387
1720.04	9.97833
1721.56	8.61088
1723.07	7.98589
1724.59	7.33008
1726.11	6.76807
1727.63	6.74788
1729.14	6.29501
1730.66	6.34938
1732.18	5.90193
1733.69	5.78345
1735.21	4.90441
1736.72	4.61896
1738.24	4.0245
1739.75	2.7586
1741.27	2.69795
1742.78	2.419
1744.3	2.0698
1745.81	1.85726
1747.32	1.99084
1748.84	1.85502
1750.35	2.41679
1751.86	2.24961
1753.37	2.19248
1754.89	1.96869
1756.4	1.53989
1757.91	1.89195
1759.42	1.3094
1760.93	1.00243
1762.44	0.766564
1763.95	0.624537
1765.46	0.431655
1766.97	0.290539
1768.48	-0.459214
1769.99	-1.13452
1771.5	-1.78891
1773.01	-1.94544
1774.52	-1.65518
1776.03	-1.35039
1777.53	-0.901931
1779.04	-0.838612
1780.55	-0.644254
1782.06	-0.407436
1783.56	-0.269982
1785.07	-0.0184017
1786.57	0.448994
1788.08	0.8301
1789.59	0.514208
1791.09	0.46031
1792.6	1.00571
1794.1	1.38592
1795.6	1.51403
1797.11	1.42315
1798.61	1.80243
1800.12	1.78216
1801.62	1.74277
1803.12	2.16357
1804.63	2.26616
1806.13	2.98304
1807.63	2.79725
1809.13	3.13576
1810.63	3.18192
1812.14	3.697
1813.64	3.98706
1815.14	3.72129
1816.64	4.66067
1818.14	4.95067
1819.64	5.04526
1821.14	5.05409
1822.64	5.56746
1824.14	5.77644
1825.63	5.79927
1827.13	5.08662
1828.63	5.13774
1830.13	5.07226
1831.63	5.4939
1833.12	5.97808
1834.62	6.26898
1836.12	6.65321
1837.62	6.85896
1839.11	7.06614
1840.61	7.16905
1842.1	7.40471
1843.6	7.35765
1845.09	7.47505
1846.59	7.76081
1848.08	8.2085
1849.58	9.0302
1851.07	8.71162
1852.57	9.83352
1854.06	9.89089
1855.55	9.97022
1857.04	10.0824
1858.54	10.0063
1860.03	10.1968
1861.52	10.072
1863.01	10.5143
1864.5	10.5876
1866	11.0612
1867.49	11.7499
1868.98	11.948
1870.47	11.2589
1871.96	10.8435
1873.45	10.8047
1874.94	10.8487
1876.43	11.0023
1877.92	11.8469
1879.41	12.0132
1880.89	11.3714
1882.38	11.3921
1882.48	11.9173
1883.97	11.7478
1885.47	11.4317
1886.96	11.8101
1888.46	11.7172
1889.95	12.2439
1891.44	11.9145
1892.94	11.788
1894.43	11.9348
1895.92	12.1579
1897.41	12.1427
1898.9	12.6197
1900.4	12.0393
1901.89	12.608
1903.38	13.417
1904.87	13.9072
1906.36	13.9296
1907.85	13.8554
1909.34	13.3999
1910.83	13.9128
1912.32	14.0883
1913.81	14.1342
1915.29	14.7829
1916.78	14.9254
1918.27	14.553
1919.76	15.2168
1921.25	16.0018
1922.74	15.9552
1924.22	15.4549
1925.71	15.8937
1927.2	15.5771
1928.68	15.9907
1930.17	15.9704
1931.65	16.2214
1933.14	16.5854
1934.63	16.3179
1936.11	16.5378
1937.59	16.3069
1939.08	16.2222
1940.56	16.2197
1942.05	15.7612
1943.53	14.6247
1945.01	14.4953
1946.5	14.5586
1947.98	14.4263
1949.46	14.6283
1950.94	14.5577
1952.43	13.3722
1953.91	13.2887
1955.39	13.5772
1956.87	13.5031
1958.35	13.2104
1959.83	12.7603
1961.31	13.0226
1962.79	12.2072
1964.27	12.5371
1965.75	12.2233
1967.23	12.0255
1968.71	12.3088
1970.19	12.7109
1971.67	13.1206
1973.14	12.5941
1974.62	12.3287
1976.1	13
1977.58	13.2935
1979.05	13.0323
1980.53	13.6197
1982.01	14.1418
1983.48	14.4677
1984.96	14.8618
1986.43	14.973
1987.91	15.2377
1989.38	15.6578
1990.86	15.6899
1992.33	15.5552
1993.81	16.6652
1995.28	16.699
1996.76	16.6396
1998.23	17.0179
1999.7	17.4797
2001.18	18.1176
2002.65	17.3325
2004.12	17.1099
2005.59	17.3537
2007.06	17.4149
2008.54	17.4246
2010.01	17.9057
2011.48	18.5616
2012.95	18.6256
2014.42	18.9796
2015.89	19.1016
2017.36	18.6339
2018.83	18.9771
2020.3	18.995
2021.77	19.2508
2023.24	19.0751
2024.71	19.0346
2026.17	19.0876
2027.64	19.5291
2029.11	19.2228
2030.58	19.6683
2032.04	19.1128
2033.51	19.2541
2034.98	20.1709
2036.45	20.6031
2037.91	21.1945
2039.38	21.678
2040.84	21.8167
2042.31	22.5781
2043.77	23.0586
2045.24	23.4072
2046.7	23.3833
2048.17	23.5924
2049.63	23.7431
2051.1	24.2048
2052.56	24.519
2054.02	25.0525
2055.48	24.8757
2056.95	24.576
2058.41	24.8273
2059.87	25.6296
2061.33	25.8654
2062.8	25.7057
2064.26	26.4008
2065.72	26.6417
2067.18	27.7888
2068.64	27.8566
2070.1	28.9058
2071.56	29.2661
2073.02	29.4359
2074.48	29.6922
2075.94	29.8503
2077.4	31.053
2078.86	32.0007
2080.31	33.0702
2081.77	34.2022
2083.23	34.67
2084.69	34.944
2086.14	35.235
2087.6	36.3865
2089.06	36.8246
2090.52	37.3723
2091.97	37.87
2093.43	38.2125
2094.88	38.8255
2096.34	39.1253
2097.79	39.9442
2099.25	41.0371
2100.7	41.6201
2102.16	42.4423
2103.61	44.0044
2105.07	45.0158
2106.52	46.5724
2107.97	47.6033
2109.43	48.6556
2110.88	49.7906
2112.33	50.9613
2113.78	51.9734
2115.24	53.9998
2116.69	55.3697
2118.14	56.4758
2119.59	57.1111
2121.04	58.5214
2122.49	59.3441
2123.94	60.7014
2125.39	61.9089
2126.84	63.8176
2128.29	65.2311
2129.74	66.9575
2131.19	68.9535
2132.64	70.7673
