#Acq. time (s)=	45
#Accumulations=	2
#Range (cm-¹)=	200...3150
#Windows=	2
#Auto scanning=	Off
#Autofocus=	Off
#Macrospot=	Off
#AutoExposure=	Off
#Spike filter=	Multiple accum.
#Delay time (s)=	0
#Binning=	1
#Readout mode=	Signal
#DeNoise=	Off
#ICS correction=	On
#Dark correction=	Off
#Inst. Process=	Off
#Detector Gain=	Best Dynamic Range
#Detector ADC=	20 kHz       
#Detector temperature (°C)=	-69.85
#Instrument=	LabRAM HR Evol
#Detector=	Synapse
#Objective=	x100
#Grating=	600 gr/mm
#ND Filter=	100%
#Laser (nm)=	532 
#Hole=	100.021
#Range=	Auto
#Laser Pol.=	No
#Raman. Pol.=	No
#Laser Pol. (°)=	-0.0007625
#Raman Pol. (°)=	89.9995
#Collection=	Microscope
#StageXY=	Marzhauser
#StageZ=	Marzhauser
#X (µm)=	1955.2
#Y (µm)=	-51.4
#Z (µm)=	425.15
#Full time(mm:ss)=	3:19
#Project=	
#Sample=	
#Site=	
#Title=	Thy_40_11_24_2x_45s_532 nm_x100_100%_600 gr_mm
#Remark=	
#Date=	05.07.2022 11:34
#Acquired=	05.07.2022 11:34:36
#Base:Fit=	10.08.2022 10:01:35
#Base:Sub=	10.08.2022 10:01:52
#Filter:Polynom=	16.08.2022 10:21:53
#AxisType[0]=Intens
#AxisUnit[0]=Cnt
#AxisType[1]=Spectr
#AxisUnit[1]=1/cm
200.43	22.9516
202.244	22.2125
204.059	21.9498
205.873	22.3896
207.688	22.579
209.501	22.5497
211.314	22.3005
213.127	22.3434
214.941	21.8988
216.753	20.1512
218.564	19.1336
220.375	17.65
222.186	16.8173
223.999	15.4593
225.809	15.3025
227.618	15.0962
229.428	15.1779
231.236	14.1848
233.045	12.714
234.855	12.7577
236.663	12.1022
238.471	11.3487
240.278	11.6759
242.085	10.5072
243.891	9.95461
245.698	9.38588
247.503	9.10928
249.309	9.97547
251.116	10.5368
252.921	11.1168
254.725	11.8359
256.529	12.1809
258.333	11.8956
260.136	12.4605
261.939	11.9626
263.742	12.5834
265.544	12.2007
267.346	11.59
269.148	10.6626
270.949	11.7191
272.75	11.645
274.55	10.6971
276.351	10.8415
278.15	11.7801
279.95	12.8462
281.749	14.0988
283.548	14.0892
285.346	13.8929
287.144	13.6152
288.942	13.467
290.739	12.6499
292.536	12.6912
294.333	11.9749
296.129	11.7042
297.925	10.9654
299.721	10.7357
301.514	11.416
303.309	11.3997
305.104	10.4416
306.898	9.68697
308.692	9.70593
310.486	9.47108
312.279	9.9036
314.072	9.44235
315.862	10.6236
317.654	10.2637
319.446	8.74528
321.238	8.50762
323.029	8.33594
324.819	8.41115
326.608	7.66889
328.398	8.3767
330.188	8.66465
331.977	8.20926
333.766	9.72837
335.553	10.0268
337.341	10.7719
339.129	12.3496
340.917	11.6336
342.704	11.5622
344.489	10.9869
346.275	10.7984
348.062	10.4033
349.845	9.57177
351.631	8.6086
353.416	8.86596
355.201	8.0166
356.984	7.86179
358.768	8.28361
360.552	8.80863
362.333	8.65916
364.116	8.47089
365.899	9.22964
367.68	8.56452
369.462	7.31391
371.243	7.21012
373.023	5.75326
374.804	5.12382
376.585	5.63051
378.363	5.73641
380.143	4.86132
381.923	5.53063
383.7	5.88411
385.479	6.26308
387.256	6.14976
389.034	6.4381
390.812	6.65668
392.588	6.04602
394.365	5.85703
396.14	6.15452
397.916	5.36269
399.691	5.37908
401.467	5.17468
403.24	4.93307
405.015	5.52837
406.788	4.9014
408.563	4.81372
410.335	5.58399
412.109	5.43183
413.88	5.53523
415.654	6.80739
417.424	7.69289
419.197	7.72412
420.967	8.09034
422.739	9.24097
424.508	9.3057
426.279	10.1281
428.048	10.5901
429.819	10.1991
431.587	10.6091
433.356	10.5358
435.124	10.6202
436.891	10.8441
438.66	11.8098
440.426	12.755
442.194	13.3964
443.96	13.4016
445.725	13.3191
447.492	13.4595
449.257	12.9954
451.021	13.6679
452.787	13.2524
454.551	12.9571
456.314	12.7764
458.079	13.4873
459.842	14.9377
461.604	14.7857
463.368	15.3518
465.13	16.0549
466.891	15.8856
468.654	14.9413
470.415	15.0075
472.175	14.7928
473.935	14.4732
475.696	14.8591
477.456	14.7101
479.215	14.7557
480.973	14.2523
482.733	14.2894
484.491	13.5269
486.249	13.5232
488.006	14.5951
489.765	15.1488
491.522	15.5611
493.278	16.5595
495.034	17.5502
496.789	18.1427
498.544	18.8273
500.301	20.0335
502.056	20.317
503.81	20.8121
505.564	21.5208
507.317	21.9836
509.071	22.1679
510.825	22.7482
512.578	22.4288
514.33	22.165
516.082	21.9258
517.833	22.0648
519.585	21.689
521.335	22.1223
523.086	22.6246
524.836	22.5877
526.586	23.4169
528.335	22.4586
530.085	22.4879
531.835	22.3575
533.584	21.9916
535.332	22.2477
537.08	21.761
538.827	21.8547
540.574	20.2833
542.321	20.114
544.068	19.8513
545.814	19.2922
547.56	18.0994
549.305	16.6656
551.05	16.0464
552.795	15.7727
554.54	14.5635
556.282	13.6397
558.025	13.5598
559.769	13.5076
561.512	12.3919
563.255	11.5296
564.997	9.76316
566.739	8.98539
568.481	7.97679
570.223	8.07984
571.964	7.27705
573.705	7.84104
575.443	7.53591
577.183	6.58075
578.923	6.08539
580.663	6.70463
582.402	6.0811
584.141	5.98295
585.879	5.74447
587.615	5.24589
589.353	4.19674
591.09	3.97732
592.828	4.63553
594.564	3.93232
596.299	3.99858
598.035	4.60827
599.771	5.60294
601.506	5.83942
603.242	6.30682
604.974	6.89713
606.709	7.84489
608.443	9.47516
610.177	9.75569
611.908	9.85457
613.642	10.5154
615.374	10.7591
617.105	11.5714
618.837	11.5761
620.569	11.2173
622.3	11.3884
624.03	11.7324
625.761	12.6169
627.491	13.0741
629.219	14.9053
630.949	15.3468
632.677	15.936
634.406	16.7927
636.135	17.8933
637.861	19.8782
639.59	20.8538
641.318	20.9391
643.043	21.6362
644.77	21.8156
646.495	21.2335
648.222	20.414
649.948	20.8854
651.672	21.6832
653.398	22.1718
655.121	22.416
656.846	23.4848
658.569	23.7973
660.293	24.3671
662.015	24.8869
663.738	25.622
665.46	25.8559
667.183	26.5768
668.903	26.5754
670.626	26.4871
672.346	26.2057
674.067	25.8257
675.787	26.0902
677.508	27.1819
679.226	27.4152
680.947	27.8408
682.665	29.5802
684.385	30.4653
686.102	30.6638
687.821	30.3157
689.538	30.6417
691.254	31.0358
692.972	31.3719
694.688	31.8889
696.406	31.0364
698.121	31.5104
699.835	31.4917
701.552	32.802
703.266	32.5523
704.98	32.3178
706.695	32.4248
708.409	33.7375
710.121	34.8839
711.836	36.2694
713.548	36.5158
715.26	37.9118
716.973	37.9884
718.685	38.9231
720.396	39.6634
722.108	39.9888
723.818	40.577
725.528	40.2331
727.238	40.7476
728.949	40.9168
730.658	41.167
732.367	41.5072
734.075	43.4086
735.785	45.2488
737.493	46.1193
739.2	46.4926
740.907	47.4003
742.614	48.3061
744.322	49.6272
746.028	50.8192
747.734	52.0012
749.439	52.7027
751.144	52.3454
752.849	53.9418
754.555	54.8379
756.26	55.0232
757.963	56.844
759.667	57.7402
761.37	58.7943
763.073	59.7001
764.775	60.5003
766.477	61.3775
768.179	62.6334
769.883	62.3373
771.584	63.1218
773.285	64.1431
774.986	64.6991
776.686	65.9193
778.386	67.0234
780.085	67.3755
781.785	67.7738
783.484	69.2283
785.182	70.2383
786.881	71.4087
788.579	71.4931
790.276	72.8398
791.974	74.5141
793.671	74.8839
795.367	75.6333
797.064	76.386
798.76	76.5736
800.456	78.1407
802.151	78.5319
803.846	78.5915
805.541	78.3521
807.234	78.8894
808.928	79
810.622	79.0032
812.315	78.9082
814.008	79.2441
815.701	80.207
817.394	81.2438
819.086	82.6694
820.778	83.1695
822.468	83.5493
824.159	83.1714
825.85	83.2244
827.541	83.9495
829.231	83.8297
830.921	82.8261
832.609	82.9325
834.298	82.5038
835.987	81.8252
837.676	80.5952
839.364	79.9048
841.051	77.8257
842.738	77.006
844.426	75.6766
846.113	74.0312
847.798	73.2692
849.484	71.8145
851.171	71.0946
852.857	69.8757
854.54	68.4072
856.226	67.0699
857.911	66.1006
859.593	65.8486
861.278	65.0452
862.961	64.1503
864.645	62.6831
866.327	62.383
868.01	61.0284
869.692	59.2467
871.373	58.3419
873.055	57.6538
874.735	57.0646
876.416	55.5413
878.097	53.7888
879.776	54.5186
881.457	53.4056
883.135	53.2031
884.815	52.8468
886.495	51.9317
888.172	51.6757
889.851	51.6567
891.528	51.5813
893.206	50.7522
894.882	51.5365
896.56	52.1911
898.237	52.9703
899.912	53.104
901.589	52.6554
903.263	52.1992
904.94	51.5162
906.614	50.9352
908.289	50.641
909.962	51.2235
911.635	51.5648
913.31	51.4404
914.982	51.6317
916.656	50.6411
918.328	48.7281
920.001	48.1793
921.672	47.6924
923.345	48.5195
925.015	47.4488
926.685	47.4619
928.357	47.4094
930.026	46.8535
931.698	46.3036
933.366	45.8236
935.035	45.2104
936.705	44.2525
938.373	44.3155
940.041	43.6714
941.71	43.4415
943.377	42.2918
945.044	40.7484
946.712	40.2264
948.378	38.752
950.044	38.9445
951.709	38.3521
953.376	38.1202
955.041	38.3467
956.706	39.0782
958.372	38.9599
960.036	38.3214
961.699	38.6246
963.362	38.8514
965.027	38.3504
966.69	39.3811
968.352	39.6572
970.014	40.1819
971.676	40.2273
973.339	40.1873
975	39.707
976.661	39.2201
978.322	39.1962
979.982	38.0202
981.642	37.5405
983.303	37.4208
984.962	37.2587
986.621	37.6376
988.28	37.2503
989.938	37.8073
991.596	37.2037
993.254	36.9963
994.911	35.787
996.57	35.2351
998.227	34.0005
999.884	32.5296
1001.54	32.0431
1003.2	32.4105
1004.85	31.1656
1006.51	31.0675
1008.16	30.6056
1009.82	29.0792
1011.47	28.858
1013.12	28.1577
1014.78	27.293
1016.43	27.0948
1018.08	26.5617
1019.74	26.3368
1021.39	25.56
1023.04	24.4989
1024.69	24.1295
1026.34	23.505
1028	23.6324
1029.65	23.6949
1031.3	23.3052
1032.95	23.3248
1034.6	22.4833
1036.25	22.3921
1037.9	22.3026
1039.54	22.8287
1041.19	22.059
1042.84	22.0012
1044.49	22.5958
1046.14	23.0963
1047.78	24.3311
1049.43	25.1388
1051.08	24.904
1052.72	24.973
1054.37	24.2657
1056.02	23.7618
1057.66	23.4826
1059.31	23.5148
1060.95	23.2385
1062.6	24.2334
1064.24	24.94
1065.88	24.6994
1067.53	23.6491
1069.17	22.7886
1070.81	22.7066
1072.45	22.7022
1074.1	21.9169
1075.74	22.1567
1077.38	20.5294
1079.02	20.858
1080.66	20.4577
1082.3	19.585
1083.94	18.7628
1085.58	18.9751
1087.22	17.78
1088.86	18.7677
1090.5	17.6805
1092.14	16.6425
1093.78	17.4113
1095.42	17.0581
1097.05	16.5506
1098.69	15.9401
1100.33	15.9108
1101.96	16.1646
1103.6	15.5159
1105.24	14.657
1106.87	14.3983
1108.51	14.0833
1110.14	14.1163
1111.78	14.4652
1113.41	14.3299
1115.05	14.8031
1116.68	15.3496
1118.31	15.6666
1119.95	15.4264
1121.58	15.6715
1123.21	15.4342
1124.85	14.9923
1126.48	14.6836
1128.11	15.2477
1129.74	15.5525
1131.37	14.4071
1133	14.0584
1134.63	13.7799
1136.26	13.3081
1137.89	13.3954
1139.52	13.7385
1141.15	12.8823
1142.78	12.7497
1144.41	13.0529
1146.04	12.7468
1147.66	11.6046
1149.29	10.6286
1150.92	10.8791
1152.55	11.2738
1154.17	10.5517
1155.8	9.90656
1157.43	9.88906
1159.05	9.0201
1160.68	9.56649
1162.3	9.46837
1163.93	8.40026
1165.55	7.86744
1167.17	7.89062
1168.8	7.49216
1170.42	8.47387
1172.05	8.12463
1173.67	8.30784
1175.29	8.39597
1176.91	7.18254
1178.54	7.61461
1180.16	8.01179
1181.78	8.63168
1183.4	9.08679
1185.02	8.51882
1186.64	9.1329
1188.26	10.6403
1189.88	11.2559
1191.5	11.8148
1193.12	12.1317
1194.74	12.9345
1196.36	12.9437
1197.97	12.2493
1199.59	13.0746
1201.21	13.5589
1202.83	14.5921
1204.44	14.8534
1206.06	15.7045
1207.68	16.7
1209.29	17.9448
1210.91	17.8613
1212.52	16.9896
1214.14	18.5045
1215.75	19.7348
1217.37	20.2608
1218.98	20.1423
1220.59	21.1063
1222.21	20.4917
1223.82	21.8059
1225.43	22.5249
1227.05	23.9374
1228.66	23.7107
1230.27	24.8699
1231.88	26.6262
1233.49	26.8038
1235.1	27.2975
1236.72	28.4197
1238.33	29.1623
1239.94	30.054
1241.55	31.5456
1243.16	32.8765
1244.76	33.2645
1246.37	33.5859
1247.98	34.6347
1249.59	35.2044
1251.2	36.7204
1252.8	37.1412
1254.41	37.1888
1256.02	37.0384
1257.62	37.3533
1259.23	39.0063
1260.84	39.3643
1262.44	40.5316
1264.05	41.9131
1265.66	42.5194
1267.26	43.0627
1268.86	43.8795
1270.47	44.0837
1272.07	45.1558
1273.67	46.346
1275.28	47.7816
1276.88	47.9834
1278.48	49.1924
1280.09	51.5022
1281.69	52.0136
1283.29	51.8084
1284.89	52.1131
1286.49	53.0066
1288.09	53.2885
1289.69	53.0016
1291.29	53.1736
1292.89	53.4496
1294.49	54.8658
1296.09	55.6749
1297.69	55.7845
1299.29	55.0466
1300.89	55.6247
1302.49	55.2948
1304.08	56.3674
1305.68	56.0267
1307.28	55.855
1308.88	55.5294
1310.47	56.0779
1312.07	56.4317
1313.66	56.1424
1315.26	55.8831
1316.85	56.5575
1318.45	56.5365
1320.04	56.7834
1321.64	56.1755
1323.23	55.5246
1324.83	53.6982
1326.42	52.8738
1328.01	53.3206
1329.61	52.0649
1331.2	51.3194
1332.79	49.8925
1334.38	48.358
1335.97	47.1276
1337.56	47.2416
1339.16	46.2967
1340.75	45.5151
1342.34	45.1235
1343.93	44.3204
1345.52	43.694
1347.11	42.9793
1348.7	42.8548
1350.29	42.8161
1351.87	42.5107
1353.46	41.5346
1355.05	41.0095
1356.64	40.7135
1358.22	40.9397
1359.81	40.4522
1361.4	38.7232
1362.98	38.2185
1364.57	37.5535
1366.16	36.9673
1367.74	35.8157
1369.33	35.0788
1370.91	36.1206
1372.5	36.2683
1374.08	35.9473
1375.67	35.6434
1377.25	34.7258
1378.83	33.7269
1380.41	33.9743
1382	34.127
1383.58	33.4076
1385.16	33.1712
1386.74	33.5263
1388.33	33.5854
1389.91	32.3541
1391.49	32.0979
1393.07	31.3499
1394.65	30.3205
1396.23	29.6907
1397.81	28.3382
1399.39	27.3898
1400.97	27.214
1402.55	26.693
1404.13	26.2469
1405.7	26.2854
1407.28	25.3719
1408.86	23.6698
1410.44	23.6491
1412.01	23.566
1413.59	24.2594
1415.17	25.4739
1416.74	26.8188
1418.32	27.7568
1419.89	28.9442
1421.47	30.5128
1423.04	32.3166
1424.62	34.0716
1426.19	36.042
1427.77	37.3834
1429.34	39.1888
1430.91	40.953
1432.49	42.1939
1434.06	44.9046
1435.63	46.1428
1437.2	47.0956
1438.78	47.7397
1440.35	48.8503
1441.92	50.6576
1443.49	51.9059
1445.06	53.6939
1446.63	54.8107
1448.2	55.5769
1449.77	56.9577
1451.34	56.6863
1452.91	56.5237
1454.48	57.2983
1456.05	57.0828
1457.62	56.6209
1459.18	55.8229
1460.75	54.6132
1462.32	53.2321
1463.89	52.6238
1465.45	50.8049
1467.02	48.6238
1468.59	47.1432
1470.15	46.668
1471.72	44.6892
1473.28	42.8347
1474.85	42.0495
1476.41	41.0406
1477.98	39.6968
1479.54	37.6474
1481.1	35.3903
1482.67	33.2717
1484.23	30.833
1485.79	29.6242
1487.36	27.9009
1488.92	27.2201
1490.48	25.3015
1492.04	25.4214
1493.61	24.1525
1495.17	23.4143
1496.73	22.6932
1498.29	21.3214
1499.85	21.3922
1501.41	20.9512
1502.97	21.0817
1504.53	20.5938
1506.09	19.6758
1507.65	19.6503
1509.2	19.2387
1510.76	18.312
1512.32	17.8101
1513.88	16.4283
1515.43	15.9388
1516.99	15.5632
1518.55	16.0325
1520.1	16.2248
1521.66	16.1285
1523.22	15.6693
1524.77	15.9062
1526.33	15.6446
1527.88	16.1121
1529.44	15.9792
1530.99	16.4501
1532.54	16.1317
1534.1	16.0577
1535.65	16.7839
1537.21	17.4623
1538.76	18.3994
1540.31	19.3313
1541.86	19.5273
1543.42	19.5985
1544.97	21.0088
1546.52	22.4743
1548.07	23.4415
1549.62	24.3527
1551.17	25.1083
1552.72	26.4628
1554.27	26.9283
1555.82	27.2968
1557.37	27.6291
1558.92	27.8777
1560.47	27.8136
1562.02	28.1756
1563.56	28.6257
1565.11	28.5771
1566.66	29.2276
1568.21	29.1741
1569.75	31.144
1571.3	31.6894
1572.85	33.3196
1574.39	33.8726
1575.94	34.3511
1577.49	35.2489
1579.03	35.9879
1580.57	36.8306
1582.12	36.7617
1583.66	36.7744
1585.21	37.1454
1586.75	37.4262
1588.3	36.88
1589.84	37.1573
1591.38	37.8004
1592.92	38.8113
1594.47	39.3726
1596.01	41.3708
1597.55	41.4554
1599.09	41.2573
1600.63	40.7041
1602.17	41.569
1603.71	41.0577
1605.25	41.2689
1606.79	40.6725
1608.33	41.205
1609.87	41.04
1611.41	41.7504
1612.95	41.9468
1614.49	41.1267
1616.03	40.6416
1617.57	40.6973
1619.1	41.1925
1620.64	42.1036
1622.18	43.6789
1623.72	44.5392
1625.25	45.3584
1626.79	45.8615
1628.32	46.534
1629.86	46.8763
1631.39	47.5514
1632.93	46.2472
1634.46	47.1664
1636	48.0536
1637.53	48.1566
1639.07	48.5724
1640.6	48.9957
1642.13	49.3952
1643.67	49.8118
1645.2	50.6476
1646.73	52.0608
1648.26	52.7404
1649.8	53.383
1651.33	52.8536
1652.86	53.0213
1654.39	52.6581
1655.92	52.8623
1657.45	52.3423
1658.98	52.1982
1660.51	51.7329
1662.04	51.948
1663.57	50.8126
1665.1	50.1857
1666.63	50.1668
1668.16	49.3939
1669.68	48.4608
1671.21	46.8958
1672.74	45.6637
1674.27	43.4756
1675.79	41.2577
1677.32	39.6952
1678.85	38.7263
1680.37	36.4761
1681.9	35.4086
1683.42	33.5103
1684.95	32.7768
1686.47	30.3508
1688	28.7249
1689.52	27.0473
1691.05	25.6453
1692.57	24.5363
1694.09	23.018
1695.62	22.3182
1697.14	21.1126
1698.66	19.7767
1700.18	18.4538
1701.71	16.9076
1703.23	14.8395
1704.75	13.0959
1706.27	11.1259
1707.79	10.7426
1709.31	8.98428
1710.83	9.21423
1712.35	7.91406
1713.87	5.95831
1715.39	5.46632
1716.91	4.78822
1718.43	4.02736
1719.95	3.48763
1721.47	2.71294
1722.99	2.26637
1724.5	1.91132
1726.02	1.47094
1727.54	0.771362
1729.06	0.483386
1730.57	0.0318266
1732.09	0.336662
1733.61	-0.180966
1735.12	-0.0882026
1736.64	-0.0185765
1738.15	0.0115076
1739.67	-0.172012
1741.18	0.240732
1742.7	-0.322825
1744.21	-0.35364
1745.72	-0.355428
1747.24	-0.509387
1748.75	-0.144001
1750.26	-0.0297776
1751.77	0.215787
1753.29	1.19779
1754.8	1.67737
1756.31	1.96827
1757.82	2.14642
1759.33	2.02085
1760.84	1.97611
1762.36	1.49164
1763.87	2.04647
1765.38	2.36276
1766.89	2.0097
1768.4	1.41396
1769.91	1.70503
1771.41	2.30956
1772.92	1.33057
1774.43	1.19171
1775.94	1.47828
1777.45	1.1743
1778.95	0.829562
1780.46	0.95093
1781.97	1.5963
1783.48	2.34207
1784.98	2.23329
1786.49	2.70705
1787.99	2.31798
1789.5	2.20613
1791.01	2.52834
1792.51	2.12637
1794.01	2.58916
1795.52	2.64468
1797.02	2.7189
1798.53	3.31178
1800.03	3.24579
1801.53	2.88504
1803.04	2.91278
1804.54	3.25303
1806.04	3.5612
1807.54	3.58
1809.05	3.62778
1810.55	3.98883
1812.05	4.64688
1813.55	4.91518
1815.05	5.25019
1816.55	5.62866
1818.05	5.39479
1819.55	6.23358
1821.05	6.532
1822.55	6.83574
1824.05	7.41753
1825.55	7.60906
1827.05	7.47761
1828.55	7.49562
1830.04	6.65128
1831.54	6.21725
1833.04	6.29056
1834.54	6.04857
1836.03	5.91317
1837.53	5.79704
1839.03	5.83532
1840.52	5.8345
1842.02	5.08697
1843.51	5.22539
1845.01	5.44522
1846.5	5.28688
1848	5.29599
1849.49	5.85633
1850.99	6.03745
1852.48	5.96841
1853.97	6.11772
1855.47	5.99517
1856.96	6.35773
1858.45	6.02278
1859.94	6.00847
1861.44	6.32672
1862.93	6.16151
1864.42	5.88229
1865.91	5.87551
1867.4	5.47858
1868.89	6.22977
1870.38	5.63199
1871.87	5.4151
1873.36	5.8338
1874.85	5.30443
1876.34	4.57062
1877.83	4.29604
1879.32	4.31661
1880.81	4.60283
1882.3	4.48689
1882.57	4.91388
1884.07	5.23579
1885.56	5.37301
1887.06	5.28375
1888.55	5.0436
1890.04	5.38503
1891.54	5.40153
1893.03	5.45306
1894.52	4.79521
1896.02	4.13328
1897.51	3.97033
1899	3.73801
1900.49	3.81914
1901.98	4.0233
1903.47	3.74115
1904.96	3.63914
1906.45	3.34757
1907.94	3.22516
1909.43	3.67792
1910.92	3.31339
1912.41	3.17442
1913.9	3.24728
1915.39	2.86375
1916.88	3.24985
1918.37	3.04946
1919.85	2.63965
1921.34	2.62121
1922.83	2.56411
1924.32	2.37039
1925.8	2.46373
1927.29	2.69825
1928.78	2.72155
1930.26	2.65923
1931.75	2.77494
1933.23	2.79826
1934.72	2.79571
1936.2	3.02343
1937.69	2.51906
1939.17	3.41923
1940.66	4.17479
1942.14	4.39254
1943.63	3.52761
1945.11	3.34411
1946.59	3.34812
1948.07	2.58411
1949.56	2.67444
1951.04	3.49596
1952.52	3.78844
1954	4.14934
1955.48	4.47824
1956.96	4.7479
1958.45	4.38571
1959.93	4.31655
1961.41	4.35184
1962.89	4.18753
1964.37	4.42127
1965.85	4.4025
1967.32	4.32036
1968.8	4.03534
1970.28	3.94895
1971.76	4.50143
1973.24	4.71204
1974.72	4.53002
1976.19	4.09934
1977.67	3.7064
1979.15	3.67862
1980.63	3.82062
1982.1	3.80188
1983.58	3.26493
1985.05	2.53293
1986.53	3.08071
1988	2.97389
1989.48	2.77737
1990.95	2.60125
1992.43	1.69475
1993.9	1.55702
1995.38	2.11296
1996.85	2.07187
1998.32	1.87915
1999.8	1.93233
2001.27	1.68886
2002.74	1.09996
2004.22	0.566057
2005.69	0.565927
2007.16	0.834356
2008.63	1.03065
2010.1	1.34033
2011.57	0.668539
2013.04	0.975006
2014.51	1.22465
2015.98	0.561595
2017.45	0.788465
2018.92	1.71133
2020.39	1.8038
2021.86	1.8844
2023.33	2.1374
2024.8	1.72159
2026.27	1.71297
2027.74	2.23849
2029.2	2.29477
2030.67	1.69291
2032.14	1.42348
2033.61	1.17413
2035.07	1.13981
2036.54	1.14795
2038.01	0.859529
2039.47	0.859834
2040.94	0.888285
2042.4	0.550878
2043.87	0.741995
2045.33	0.9888
2046.8	1.11699
2048.26	1.52024
2049.72	2.30044
2051.19	2.64998
2052.65	3.20289
2054.12	3.10753
2055.58	3.57406
2057.04	3.76608
2058.5	4.19624
2059.97	4.61258
2061.43	4.50453
2062.89	4.85139
2064.35	4.99622
2065.81	5.1879
2067.27	6.12919
2068.73	6.80659
2070.19	6.65287
2071.65	6.37023
2073.11	6.62709
2074.57	6.54366
2076.03	6.60174
2077.49	7.12891
2078.95	7.62177
2080.41	8.64363
2081.87	8.59723
2083.32	9.60938
2084.78	10.0625
2086.24	10.9525
2087.7	12.3057
2089.15	13.1005
2090.61	14.1026
2092.07	14.5371
2093.52	14.2251
2094.98	15.0214
2096.43	15.8449
2097.89	15.6994
2099.34	16.2388
2100.8	16.3867
2102.25	16.3175
2103.71	16.8643
2105.16	17.1396
2106.61	17.1548
2108.07	17.5334
2109.52	17.9407
2110.97	18.9379
2112.43	20.4835
2113.88	22.1851
2115.33	22.8743
2116.78	24.3537
2118.23	25.4194
2119.68	27.0407
2121.13	28.0832
2122.59	29.1611
2124.04	30.1471
2125.49	31.3608
2126.94	32.4085
2128.39	33.5724
2129.83	34.6832
2131.28	35.5328
