#Acq. time (s)=	45
#Accumulations=	2
#Range (cm-¹)=	200...3150
#Windows=	2
#Auto scanning=	Off
#Autofocus=	Off
#Macrospot=	Off
#AutoExposure=	Off
#Spike filter=	Multiple accum.
#Delay time (s)=	0
#Binning=	1
#Readout mode=	Signal
#DeNoise=	Off
#ICS correction=	On
#Dark correction=	Off
#Inst. Process=	Off
#Detector Gain=	Best Dynamic Range
#Detector ADC=	20 kHz       
#Detector temperature (°C)=	-69.85
#Instrument=	LabRAM HR Evol
#Detector=	Synapse
#Objective=	x100
#Grating=	600 gr/mm
#ND Filter=	100%
#Laser (nm)=	532 
#Hole=	100.021
#Range=	Auto
#Laser Pol.=	No
#Raman. Pol.=	No
#Laser Pol. (°)=	-0.0007625
#Raman Pol. (°)=	89.9995
#Collection=	Microscope
#StageXY=	Marzhauser
#StageZ=	Marzhauser
#X (µm)=	-5919
#Y (µm)=	2858.6
#Z (µm)=	-224.15
#Full time(mm:ss)=	3:18
#Project=	
#Sample=	
#Site=	
#Title=	Thy_20_09_42_2x_45s_532 nm_x100_100%_600 gr_mm
#Remark=	
#Date=	29.06.2022 13:37
#Acquired=	29.06.2022 13:37:33
#Base:Fit=	10.08.2022 09:52:02
#Base:Fit=	10.08.2022 09:52:12
#Base:Sub=	10.08.2022 09:54:21
#Filter:Polynom=	16.08.2022 10:24:04
#AxisType[0]=Intens
#AxisUnit[0]=Cnt
#AxisType[1]=Spectr
#AxisUnit[1]=1/cm
200.523	-3.18708
202.339	-1.63782
204.154	-0.287022
205.967	1.09895
207.781	2.09695
209.596	3.10569
211.409	4.17653
213.222	4.6958
215.034	5.23766
216.848	6.41334
218.659	7.51398
220.47	8.49301
222.281	7.96181
224.091	8.79163
225.903	9.95914
227.713	10.9445
229.522	12.6041
231.331	13.9072
233.14	14.2022
234.948	14.8836
236.756	15.3006
238.566	14.8588
240.373	13.9128
242.18	14.3569
243.986	14.0247
245.792	13.7926
247.598	14.0226
249.403	13.3885
251.208	13.0736
253.013	12.9594
254.818	13.3469
256.624	12.8437
258.427	12.4392
260.231	12.2941
262.034	12.2133
263.836	11.5918
265.638	11.5082
267.44	12.6904
269.242	11.3015
271.043	10.6084
272.844	10.5006
274.645	9.89702
276.445	8.53999
278.245	8.7626
280.044	8.62052
281.843	8.59984
283.642	9.46908
285.44	9.57748
287.238	9.44887
289.036	8.63513
290.833	7.85955
292.63	7.79072
294.425	7.96623
296.221	8.44231
298.017	8.50699
299.813	8.9296
301.608	10.2505
303.403	10.9549
305.198	12.0717
306.992	13.1341
308.786	13.7163
310.579	14.3111
312.371	14.9282
314.163	16.7371
315.956	17.8222
317.748	18.725
319.54	19.9724
321.331	19.7373
323.122	19.7371
324.911	20.1642
326.701	19.9623
328.491	19.3744
330.281	19.7298
332.071	21.2333
333.857	21.2804
335.646	21.8002
337.434	22.3633
339.222	21.4937
341.008	21.8813
342.795	21.3924
344.582	22.3831
346.369	21.6357
348.153	21.9668
349.939	22.1733
351.724	22.4178
353.51	23.2491
355.292	22.8958
357.077	22.2314
358.861	20.7549
360.643	21.1041
362.426	21.0244
364.21	19.8901
365.99	19.7279
367.773	19.0146
369.555	18.442
371.335	17.9712
373.116	17.5475
374.897	17.5734
376.676	16.9222
378.456	16.8012
380.236	16.2172
382.014	16.3434
383.793	16.9584
385.57	16.7021
387.349	16.7924
389.127	16.875
390.903	17.3732
392.681	15.9917
394.456	14.8992
396.233	14.9461
398.007	14.6576
399.784	13.8698
401.56	13.3321
403.333	12.9928
405.108	12.7983
406.881	12.494
408.656	12.6604
410.428	12.7346
412.202	12.4743
413.973	12.155
415.746	11.4995
417.517	11.5647
419.29	11.3619
421.06	11.6293
422.831	11.0412
424.601	10.8213
426.37	10.8481
428.141	11.015
429.909	11.4093
431.679	11.7534
433.447	12.1191
435.216	12.1725
436.983	12.3976
438.75	12.8952
440.519	12.8149
442.285	13.5638
444.052	12.9366
445.818	14.0134
447.583	15.0152
449.349	15.776
451.114	16.5303
452.878	17.1209
454.643	18.1133
456.407	18.6758
458.169	19.5506
459.934	21.8239
461.696	22.5626
463.458	22.7449
465.222	23.8098
466.983	24.4744
468.744	24.6401
470.507	24.6307
472.267	24.7154
474.027	24.7045
475.787	25.3876
477.548	25.3945
479.307	25.9544
481.065	25.5747
482.823	25.808
484.583	27.003
486.341	27.2823
488.098	27.7194
489.855	29.3711
491.612	29.7597
493.37	30.633
495.126	30.5102
496.881	30.8857
498.636	29.7494
500.391	29.118
502.148	29.0112
503.902	28.4647
505.656	28.4257
507.409	27.6828
509.162	27.6519
510.915	27.055
512.668	26.9241
514.42	27.1413
516.174	26.2343
517.925	25.9774
519.676	25.5888
521.427	23.9113
523.178	24.0126
524.928	23.7637
526.678	23.4442
528.427	22.6298
530.176	22.0269
531.925	21.4
533.673	20.6765
535.422	20.2464
537.169	20.5389
538.917	20.4085
540.664	18.6097
542.411	18.2999
544.157	18.4604
545.903	18.2523
547.649	17.7857
549.395	16.2102
551.14	15.0688
552.884	15.1165
554.629	13.6063
556.373	12.4859
558.117	12.0908
559.86	11.9736
561.603	12.8631
563.346	12.5345
565.089	11.7292
566.831	11.1759
568.573	10.81
570.314	9.78102
572.053	9.93461
573.794	8.70775
575.534	9.02596
577.274	8.71867
579.014	7.88085
580.754	7.97362
582.493	7.92277
584.23	8.13663
585.968	7.68873
587.706	8.03156
589.444	6.63537
591.181	6.07728
592.919	5.26229
594.653	4.80519
596.39	4.702
598.126	4.32473
599.862	5.28743
601.595	5.26624
603.33	4.71058
605.065	6.08192
606.8	5.8494
608.532	5.11204
610.266	6.06865
611.999	6.08718
613.732	6.27793
615.463	6.77764
617.196	7.27236
618.928	7.61897
620.66	7.83871
622.389	8.98148
624.12	9.17905
625.851	8.83442
627.58	9.09072
629.31	10.4353
631.04	11.3022
632.767	10.7089
634.497	10.6272
636.223	10.4819
637.952	11.162
639.68	11.5311
641.406	11.5283
643.134	11.2568
644.861	11.1748
646.586	10.6664
648.312	11.6611
650.037	10.8238
651.762	10.51
653.486	10.4126
655.211	11.1064
656.936	11.3039
658.659	11.7907
660.383	13.8547
662.105	15.3351
663.829	14.3883
665.55	14.7125
667.273	15.0471
668.994	16.3028
670.716	14.9558
672.436	14.8289
674.158	14.9292
675.877	14.567
677.598	16.0803
679.317	16.6102
681.035	18.4526
682.755	19.3318
684.473	20.2014
686.192	22.0641
687.909	22.542
689.628	23.7317
691.344	24.9374
693.06	24.8531
694.778	25.6588
696.493	28.1212
698.211	29.0137
699.925	29.1836
701.64	29.6199
703.356	29.8256
705.07	30.2927
706.783	31.5028
708.498	31.5667
710.211	31.6992
711.924	32.18
713.638	31.9782
715.35	32.0271
717.061	32.292
718.774	32.3365
720.485	32.7563
722.196	32.76
723.906	33.1068
725.618	33.4369
727.328	34.097
729.037	34.5005
730.746	35.5926
732.456	36.3166
734.165	37.1433
735.873	37.7803
737.58	38.1921
739.289	38.9976
740.997	39.0281
742.703	38.7981
744.41	39.8045
746.116	41.1905
747.823	40.0829
749.529	40.6773
751.234	42.3175
752.938	43.5989
754.643	44.4796
756.347	44.6782
758.051	47.3494
759.756	48.592
761.459	48.6841
763.162	49.9463
764.865	50.375
766.567	51.5607
768.269	52.2054
769.97	53.5765
771.671	54.1131
773.372	55.5879
775.073	56.6732
776.773	57.3963
778.473	57.8408
780.174	58.1027
781.874	58.2517
783.573	57.7496
785.271	58.213
786.97	59.3349
788.668	60.1541
790.365	60.7065
792.063	61.4746
793.76	60.9833
795.456	61.7331
797.153	62.2485
798.847	63.3944
800.543	65.0495
802.238	66.3268
803.933	67.1728
805.628	68.1558
807.322	68.201
809.017	67.9532
810.71	69.6355
812.404	69.5002
814.097	70.2098
815.79	71.4284
817.483	71.5297
819.173	70.9732
820.865	71.3546
822.556	70.527
824.248	70.5265
825.939	69.7294
827.629	70.7881
829.318	71.253
831.008	71.0176
832.697	70.9903
834.387	71.6673
836.076	71.0879
837.765	70.972
839.451	70.7585
841.139	70.6403
842.827	69.1513
844.514	67.6653
846.2	66.6958
847.886	65.8965
849.573	65.361
851.259	64.5122
852.943	64.6221
854.629	63.7564
856.314	63.1348
857.997	62.6789
859.682	60.3677
861.366	58.8284
863.05	57.1177
864.732	56.015
866.415	55.4118
868.098	54.317
869.779	53.3503
871.461	52.4402
873.141	51.7054
874.823	51.385
876.505	50.4642
878.184	49.9971
879.865	49.7733
881.545	49.626
883.223	48.9059
884.903	48.0537
886.581	46.8547
888.26	45.9067
889.937	44.4187
891.616	42.7292
893.294	41.9134
894.97	41.2265
896.648	40.2037
898.323	39.8821
900	38.7641
901.675	37.1544
903.351	36.5104
905.026	36.471
906.701	36.3639
908.375	35.9413
910.05	35.8971
911.723	36.1509
913.398	36.0209
915.07	35.7768
916.742	35.6276
918.415	35.5542
920.087	35.1822
921.76	35.241
923.43	35.4624
925.103	35.6999
926.773	35.0301
928.443	35.0563
930.114	36.1308
931.783	36.1733
933.454	37.2374
935.123	37.826
936.791	37.3252
938.461	35.7475
940.128	34.7836
941.796	33.7789
943.464	32.8107
945.131	32.327
946.797	31.5663
948.465	30.8186
950.131	30.5387
951.797	30.4309
953.462	30.1647
955.128	30.0331
956.793	30.5173
958.457	29.9037
960.121	28.1312
961.786	28.0672
963.45	27.3721
965.113	28.0942
966.775	27.2917
968.44	27.9591
970.102	26.9064
971.763	27.8518
973.425	27.1234
975.086	27.0669
976.748	26.7707
978.409	26.3946
980.069	27.5488
981.729	27.8297
983.388	28.5585
985.048	29.3468
986.708	29.5384
988.367	30.117
990.025	30.8275
991.683	31.1085
993.341	32.286
994.998	32.6035
996.655	32.5767
998.312	32.8271
999.969	33.2358
1001.62	34.2714
1003.28	34.4143
1004.94	34.0959
1006.59	34.5351
1008.25	34.334
1009.9	33.7598
1011.56	34.8579
1013.21	35.6944
1014.86	34.7883
1016.52	34.1394
1018.17	33.034
1019.82	31.0031
1021.48	31.3391
1023.13	30.5606
1024.78	29.9483
1026.43	29.0199
1028.08	28.2148
1029.73	27.224
1031.38	25.6376
1033.03	24.8227
1034.68	22.8905
1036.33	21.7573
1037.98	21.4363
1039.63	20.8372
1041.28	19.8634
1042.93	18.721
1044.57	18.8477
1046.22	18.641
1047.87	18.4221
1049.52	16.7545
1051.16	16.7347
1052.81	15.3495
1054.45	15.0923
1056.1	13.4614
1057.75	13.3337
1059.39	12.8576
1061.04	13.0155
1062.68	13.1826
1064.32	13.7333
1065.97	14.4726
1067.61	14.059
1069.25	14.0244
1070.9	14.857
1072.54	14.8725
1074.18	15.0218
1075.82	14.7938
1077.47	15.2853
1079.11	15.0544
1080.75	15.2463
1082.39	16.1446
1084.03	16.2641
1085.67	16.1433
1087.31	16.24
1088.95	16.8695
1090.59	17.2085
1092.22	17.9721
1093.86	18.9721
1095.5	18.5052
1097.14	18.9837
1098.78	19.2717
1100.41	19.7931
1102.05	20.0001
1103.69	21.0077
1105.32	20.4706
1106.96	19.7626
1108.59	19.5553
1110.23	19.5531
1111.86	19.3427
1113.5	18.6592
1115.13	18.4458
1116.77	18.0039
1118.4	17.8031
1120.03	16.3775
1121.67	14.8232
1123.3	13.6316
1124.93	12.1448
1126.56	12.6324
1128.19	11.6793
1129.83	11.0701
1131.46	10.1215
1133.09	10.3931
1134.72	9.65305
1136.35	9.5931
1137.98	9.9244
1139.61	9.46771
1141.24	8.7086
1142.86	9.05067
1144.49	9.14819
1146.12	9.72671
1147.75	8.38364
1149.38	7.62597
1151	7.58386
1152.63	8.79249
1154.26	8.50693
1155.88	7.75454
1157.51	7.64704
1159.14	7.66057
1160.76	6.45757
1162.39	6.23468
1164.01	6.70393
1165.63	6.17976
1167.26	7.08235
1168.88	7.67202
1170.51	8.35716
1172.13	9.39515
1173.75	10.293
1175.38	10.9701
1177	11.4759
1178.62	12.8848
1180.24	14.0552
1181.86	14.8891
1183.48	15.2651
1185.1	16.1683
1186.72	16.6138
1188.34	17.1603
1189.96	19.2857
1191.58	20.6441
1193.2	20.1669
1194.82	20.816
1196.44	21.8185
1198.06	22.6609
1199.68	23.5424
1201.29	25.4256
1202.91	27.5898
1204.53	29.4148
1206.14	30.9535
1207.76	33.0093
1209.38	33.8158
1210.99	35.1802
1212.61	36.9868
1214.22	38.5612
1215.84	40.0566
1217.45	41.9169
1219.07	43.5232
1220.68	44.3468
1222.29	46.1013
1223.91	48.7648
1225.52	50.5407
1227.13	52.1558
1228.74	53.0876
1230.36	55.2246
1231.97	56.9385
1233.58	58.1439
1235.19	58.2943
1236.8	58.8835
1238.41	59.9967
1240.02	60.6758
1241.63	62.1048
1243.24	63.6462
1244.85	64.2282
1246.46	66.2624
1248.07	67.2819
1249.67	68.4423
1251.28	69.4665
1252.89	70.2588
1254.5	71.0076
1256.1	71.0894
1257.71	70.9031
1259.32	71.3421
1260.92	70.7332
1262.53	71.3913
1264.13	72.4562
1265.74	73.5871
1267.34	73.7892
1268.95	74.3643
1270.55	74.0752
1272.15	74.581
1273.76	75.056
1275.36	75.7003
1276.97	76.6514
1278.57	77.9659
1280.17	79.0206
1281.77	79.659
1283.37	79.6947
1284.97	80.371
1286.58	81.2344
1288.18	82.2212
1289.78	82.8967
1291.38	84.2349
1292.98	84.8175
1294.58	85.2735
1296.18	87.0993
1297.78	88.0877
1299.37	88.9808
1300.97	89.9106
1302.57	91.3455
1304.17	93.2328
1305.77	93.6459
1307.36	94.3942
1308.96	94.4408
1310.55	95.4993
1312.15	96.0724
1313.75	96.4224
1315.34	96.7925
1316.94	97.1299
1318.53	97.6166
1320.13	98.9296
1321.72	99.6939
1323.32	99.648
1324.91	99.4963
1326.5	100.156
1328.1	98.7942
1329.69	98.8839
1331.28	98.178
1332.87	97.3161
1334.47	96.206
1336.06	94.7597
1337.65	94.0975
1339.24	93.7913
1340.83	92.6473
1342.42	92.6338
1344.01	90.9939
1345.6	89.9664
1347.19	88.2618
1348.78	87.378
1350.37	86.1898
1351.96	86.4581
1353.54	85.2793
1355.13	83.6829
1356.72	83.7689
1358.31	82.6177
1359.89	80.4515
1361.48	78.8548
1363.07	77.16
1364.65	76.8693
1366.24	75.0284
1367.82	73.9763
1369.41	72.5002
1370.99	71.0439
1372.58	69.1287
1374.16	68.3582
1375.75	67.4695
1377.33	66.066
1378.91	65.0483
1380.5	64.1091
1382.08	63.5338
1383.66	62.5719
1385.25	62.0071
1386.83	61.8168
1388.41	60.6737
1389.99	59.6998
1391.57	57.4192
1393.15	56.5731
1394.73	55.6689
1396.31	55.5328
1397.89	53.8746
1399.47	53.1136
1401.05	52.4735
1402.63	51.6193
1404.21	50.3594
1405.78	49.7964
1407.36	50.7379
1408.94	51.5762
1410.52	52.7323
1412.1	53.899
1413.67	54.7379
1415.25	56.3726
1416.82	57.5641
1418.4	58.5737
1419.98	59.3982
1421.55	61.6459
1423.13	65.4121
1424.7	68.7552
1426.28	71.3463
1427.85	74.1989
1429.42	77.6226
1431	80.6069
1432.57	82.8033
1434.14	85.4504
1435.71	87.6383
1437.29	89.4217
1438.86	90.5064
1440.43	92.2041
1442	92.6921
1443.57	94.2627
1445.14	94.4392
1446.71	96.0524
1448.28	96.4286
1449.85	97.0615
1451.42	96.7027
1452.99	96.1738
1454.56	95.0374
1456.13	94.015
1457.7	92.6211
1459.26	91.8435
1460.83	90.1118
1462.4	87.5948
1463.97	85.8717
1465.54	82.3884
1467.1	78.8559
1468.67	75.0282
1470.23	71.8903
1471.8	69.5387
1473.36	66.0607
1474.93	62.2494
1476.49	58.7206
1478.06	55.9687
1479.62	53.7295
1481.19	50.1122
1482.75	46.5476
1484.31	44.965
1485.88	43.8205
1487.44	40.9451
1489	39.0095
1490.56	36.67
1492.13	35.1024
1493.69	33.9899
1495.25	32.0723
1496.81	30.4416
1498.37	29.7282
1499.93	30.1466
1501.49	30.7801
1503.05	29.7014
1504.61	29.7701
1506.17	29.6486
1507.73	30.3296
1509.28	29.3351
1510.84	29.5699
1512.4	29.7396
1513.96	29.3233
1515.52	29.4917
1517.07	29.2138
1518.63	29.9393
1520.19	30.5461
1521.74	32.3714
1523.3	33.3719
1524.85	33.8586
1526.41	34.3757
1527.96	35.4457
1529.52	36.5753
1531.07	37.8293
1532.63	38.8909
1534.18	40.5824
1535.73	41.8894
1537.29	44.1199
1538.84	44.9937
1540.39	46.5574
1541.94	48.8422
1543.5	50.0677
1545.05	51.2965
1546.6	53.1026
1548.15	55.8619
1549.7	58.2572
1551.25	60.1784
1552.8	62.6748
1554.35	64.9821
1555.9	67.0462
1557.45	68.7775
1559	69.2255
1560.55	70.3772
1562.1	72.7036
1563.65	74.3152
1565.19	74.7803
1566.74	76.438
1568.29	78.3769
1569.83	79.8366
1571.38	80.6748
1572.93	80.6985
1574.47	81.6153
1576.02	83.0304
1577.56	84.7003
1579.11	86.0881
1580.66	86.0229
1582.2	86.3805
1583.74	86.9421
1585.29	88.0555
1586.83	88.2549
1588.38	89.2606
1589.92	88.7805
1591.46	89.3206
1593.01	89.7981
1594.55	90.5399
1596.09	91.0003
1597.63	90.2184
1599.17	89.781
1600.71	88.7569
1602.25	89.1471
1603.79	89.9678
1605.34	89.6484
1606.88	88.7944
1608.41	87.8113
1609.95	87.0842
1611.49	86.5277
1613.03	86.4926
1614.57	85.9672
1616.11	84.736
1617.65	83.7659
1619.18	83.3317
1620.72	82.7165
1622.26	82.5798
1623.79	83.1131
1625.33	83.7382
1626.87	83.1547
1628.4	82.9146
1629.94	82.6926
1631.48	82.1906
1633.01	82.1426
1634.55	81.9341
1636.08	82.7443
1637.61	84.3428
1639.15	85.3642
1640.68	86.2104
1642.21	86.9753
1643.75	88.6008
1645.28	89.6446
1646.81	89.5852
1648.34	89.3552
1649.88	89.4581
1651.41	89.989
1652.94	89.7166
1654.47	90.6932
1656	90.6254
1657.53	90.2503
1659.06	91.3885
1660.59	91.7909
1662.12	91.7526
1663.65	90.5452
1665.18	90.4472
1666.71	89.6781
1668.24	89.6395
1669.76	88.6795
1671.29	86.9107
1672.82	84.5928
1674.35	82.6808
1675.87	80.8525
1677.4	78.561
1678.93	76.7134
1680.45	73.4195
1681.98	70.0488
1683.5	66.8349
1685.03	63.0843
1686.55	59.4776
1688.08	55.8792
1689.6	52.4513
1691.13	48.3549
1692.65	44.2849
1694.17	41.0933
1695.7	38.1761
1697.22	35.3461
1698.74	32.6912
1700.27	30.3298
1701.79	28.0554
1703.31	25.2052
1704.83	22.3922
1706.35	19.9537
1707.87	18.8754
1709.39	17.6695
1710.91	15.9226
1712.43	14.579
1713.95	13.6679
1715.47	11.904
1716.99	11.0023
1718.51	10.28
1720.03	9.03007
1721.55	7.77781
1723.07	5.97743
1724.58	5.37489
1726.1	5.29006
1727.62	5.27987
1729.13	5.54624
1730.65	6.23706
1732.17	6.06984
1733.68	6.61308
1735.2	7.06964
1736.72	6.7371
1738.23	6.08659
1739.74	6.43183
1741.26	7.14704
1742.77	7.07107
1744.29	7.35502
1745.8	7.45045
1747.32	7.29867
1748.83	7.29182
1750.34	7.42042
1751.85	6.92793
1753.37	6.51101
1754.88	6.31342
1756.39	5.70121
1757.9	5.47406
1759.41	5.15773
1760.92	4.74062
1762.44	4.61226
1763.95	4.86599
1765.46	4.67025
1766.96	4.43623
1768.47	4.4924
1769.98	4.74312
1771.49	4.1931
1773	3.73552
1774.51	3.41411
1776.02	2.59242
1777.53	2.14368
1779.03	1.66402
1780.54	1.25135
1782.05	1.93613
1783.55	1.87458
1785.06	1.53104
1786.57	1.35389
1788.07	1.74399
1789.58	2.13921
1791.08	1.28169
1792.59	1.49056
1794.09	1.28759
1795.6	0.686234
1797.1	0.793516
1798.61	0.649659
1800.11	1.1111
1801.61	1.59555
1803.12	1.99031
1804.62	2.0651
1806.12	2.22747
1807.62	2.37148
1809.12	2.17263
1810.63	1.79157
1812.13	1.79935
1813.63	1.90841
1815.13	2.57862
1816.63	2.60457
1818.13	2.71284
1819.63	2.80097
1821.13	3.01034
1822.63	2.82879
1824.13	2.31044
1825.63	2.64871
1827.13	2.6466
1828.62	2.52908
1830.12	2.81298
1831.62	2.88186
1833.12	3.56957
1834.61	3.46243
1836.11	3.12097
1837.61	3.46429
1839.1	3.87066
1840.6	3.25195
1842.09	3.28643
1843.59	3.57781
1845.09	3.11394
1846.58	2.94447
1848.08	3.04537
1849.57	3.57964
1851.06	3.41798
1852.56	3.73554
1854.05	3.58843
1855.54	3.2599
1857.04	3.06427
1858.53	2.47469
1860.02	2.56614
1861.51	2.24984
1863.01	2.05419
1864.5	2.27006
1865.99	2.2957
1867.48	2.54869
1868.97	2.57205
1870.46	2.67475
1871.95	3.46111
1873.44	3.0713
1874.93	2.90877
1876.42	3.5046
1877.91	2.90943
1879.4	3.17398
1880.89	3.13987
1882.37	2.76342
1882.46	3.05351
1883.95	3.18843
1885.45	3.4503
1886.94	3.60899
1888.43	3.80812
1889.93	4.29468
1891.42	4.59843
1892.91	4.7053
1894.41	5.31044
1895.9	5.76352
1897.39	6.10945
1898.88	7.03419
1900.37	7.4603
1901.86	7.65301
1903.36	8.05044
1904.85	7.84543
1906.34	8.09996
1907.83	7.92583
1909.32	7.67793
1910.81	8.22738
1912.29	8.31263
1913.78	8.3621
1915.27	8.7364
1916.76	8.57016
1918.25	8.14471
1919.74	7.57016
1921.23	7.41523
1922.71	7.15266
1924.2	6.36241
1925.69	5.84583
1927.17	5.29486
1928.66	4.91769
1930.15	5.09251
1931.63	4.77302
1933.12	5.12801
1934.6	5.34504
1936.09	5.5796
1937.57	5.43751
1939.06	5.08891
1940.54	4.20872
1942.02	4.05422
1943.51	4.12758
1944.99	4.74736
1946.47	4.14497
1947.96	4.30649
1949.44	4.53417
1950.92	4.54109
1952.4	4.30239
1953.88	4.30226
1955.37	4.13758
1956.85	4.7599
1958.33	4.73053
1959.81	5.58204
1961.29	5.69851
1962.77	5.92602
1964.25	5.97393
1965.73	5.93156
1967.21	5.99807
1968.69	6.72327
1970.16	7.26555
1971.64	6.83828
1973.12	6.72985
1974.6	6.53039
1976.08	6.33601
1977.55	6.28148
1979.03	6.16602
1980.51	6.60805
1981.98	6.49411
1983.46	6.08789
1984.94	7.02651
1986.41	6.91699
1987.89	6.97583
1989.36	6.56178
1990.84	6.34757
1992.31	6.27733
1993.79	6.42822
1995.26	6.8406
1996.73	6.98134
1998.21	6.33358
1999.68	6.67087
2001.15	6.96145
2002.63	7.5909
2004.1	8.03335
2005.57	7.7081
2007.04	8.15195
2008.51	8.21149
2009.99	8.76845
2011.46	8.66825
2012.93	8.54042
2014.4	8.65631
2015.87	8.83743
2017.34	8.79467
2018.81	8.77007
2020.28	8.01194
2021.75	7.92681
2023.21	8.10766
2024.68	8.58426
2026.15	8.01201
2027.62	8.85144
2029.09	9.09174
2030.56	9.80595
2032.02	10.3596
2033.49	10.7366
2034.96	9.89572
2036.42	10.3343
2037.89	10.2486
2039.36	10.1551
2040.82	11.0159
2042.29	11.6954
2043.75	11.6244
2045.22	11.329
2046.68	11.9561
2048.14	12.6763
2049.61	13.0532
2051.07	13.2543
2052.54	13.7954
2054	13.6327
2055.46	13.368
2056.93	13.5417
2058.39	14.3231
2059.85	14.0208
2061.31	13.8894
2062.77	13.6134
2064.23	13.9568
2065.7	13.8179
2067.16	14.0976
2068.62	14.3176
2070.08	14.3
2071.54	14.2325
2073	15.0937
2074.46	14.9355
2075.92	15.7657
2077.38	16.2151
2078.83	16.5268
2080.29	16.869
2081.75	17.3084
2083.21	17.341
2084.67	16.9831
2086.12	16.9871
2087.58	17.6491
2089.04	17.5078
2090.49	17.6691
2091.95	18.628
2093.41	18.7915
2094.86	18.6882
2096.32	18.8273
2097.77	19.4964
2099.23	19.797
2100.68	20.4532
2102.14	21.0166
2103.59	21.7707
2105.05	21.8984
2106.5	22.3694
2107.95	22.3497
2109.41	23.0477
2110.86	23.3545
2112.31	24.3928
2113.76	25.6192
2115.21	26.1587
2116.67	26.6546
2118.12	27.5498
2119.57	28.244
2121.02	29.0496
2122.47	29.4314
2123.92	30.3094
2125.37	30.7616
2126.82	31.2044
2128.27	32.1526
2129.72	33.2056
2131.17	34.1269
2132.62	34.6356
