#Acq. time (s)=	45
#Accumulations=	2
#Range (cm-¹)=	200...3150
#Windows=	2
#Auto scanning=	Off
#Autofocus=	Off
#Macrospot=	Off
#AutoExposure=	Off
#Spike filter=	Multiple accum.
#Delay time (s)=	0
#Binning=	1
#Readout mode=	Signal
#DeNoise=	Off
#ICS correction=	On
#Dark correction=	Off
#Inst. Process=	Off
#Detector Gain=	Best Dynamic Range
#Detector ADC=	20 kHz       
#Detector temperature (°C)=	-69.85
#Instrument=	LabRAM HR Evol
#Detector=	Synapse
#Objective=	x100
#Grating=	600 gr/mm
#ND Filter=	100%
#Laser (nm)=	532 
#Hole=	100.021
#Range=	Auto
#Laser Pol.=	No
#Raman. Pol.=	No
#Laser Pol. (°)=	-0.0007625
#Raman Pol. (°)=	89.9995
#Collection=	Microscope
#StageXY=	Marzhauser
#StageZ=	Marzhauser
#X (µm)=	-5108.9
#Y (µm)=	1501.7
#Z (µm)=	63.1
#Full time(mm:ss)=	3:18
#Project=	
#Sample=	
#Site=	
#Title=	Thy_50_12_07_2x_45s_532 nm_x100_100%_600 gr_mm
#Remark=	
#Date=	07.07.2022 09:44
#Acquired=	07.07.2022 09:44:53
#Base:Fit=	10.08.2022 10:03:08
#Base:Fit=	10.08.2022 10:03:15
#Base:Fit=	10.08.2022 10:03:19
#Base:Fit=	10.08.2022 10:04:29
#Base:Sub=	10.08.2022 10:04:45
#Filter:Polynom=	16.08.2022 10:20:24
#AxisType[0]=Intens
#AxisUnit[0]=Cnt
#AxisType[1]=Spectr
#AxisUnit[1]=1/cm
200.43	68.3583
202.246	63.7421
204.061	59.3483
205.875	53.9632
207.688	48.9726
209.501	43.8799
211.316	39.4244
213.129	35.1607
214.941	32.148
216.753	28.929
218.566	25.6547
220.377	23.5749
222.188	22.2789
223.999	19.713
225.809	15.7865
227.618	15.2835
229.43	12.6044
231.239	11.0626
233.047	9.4371
234.855	7.99704
236.663	7.08671
238.471	7.66925
240.278	6.82436
242.087	6.88628
243.894	7.2429
245.7	6.99516
247.506	6.81729
249.311	6.16077
251.116	5.81573
252.921	5.49674
254.725	5.0349
256.529	5.90323
258.333	7.93924
260.136	9.57046
261.939	11.0047
263.744	10.5551
265.546	11.1279
267.348	11.3249
269.15	10.435
270.951	10.1387
272.752	9.72873
274.552	9.29806
276.353	11.6002
278.152	12.9199
279.952	13.202
281.751	14.1878
283.55	12.565
285.348	12.0343
287.146	11.9897
288.942	11.8704
290.739	12.8374
292.536	12.8687
294.333	13.1808
296.129	13.7164
297.925	14.3702
299.721	14.5569
301.516	16.0619
303.311	16.6994
305.106	17.2144
306.9	17.1885
308.694	17.7308
310.486	17.9796
312.279	17.6939
314.072	15.8691
315.864	14.3537
317.656	15.5401
319.448	15.2699
321.24	16.2648
323.029	16.8028
324.819	17.3303
326.61	17.8257
328.4	17.4025
330.19	16.3372
331.977	17.1187
333.766	16.0049
335.555	15.4844
337.343	14.477
339.131	13.612
340.917	13.9435
342.704	13.9162
344.491	13.8634
346.277	13.7786
348.062	14.4694
349.848	14.0592
351.633	13.4511
353.416	12.218
355.201	12.0778
356.986	11.2952
358.77	10.3966
360.552	9.97891
362.335	9.78989
364.118	9.21383
365.899	8.86203
367.682	6.58944
369.464	7.24291
371.243	7.3688
373.025	6.5851
374.806	7.9626
376.585	8.91608
378.365	8.94117
380.143	10.0286
381.923	9.90827
383.702	9.03519
385.479	8.12478
387.258	8.60206
389.034	7.73152
390.812	7.34112
392.59	7.1351
394.365	6.90772
396.142	7.1401
397.916	6.50939
399.693	6.32467
401.467	5.83148
403.242	5.81254
405.015	6.71089
406.79	8.01467
408.565	8.34234
410.337	8.08367
412.111	7.94577
413.882	7.82017
415.656	8.36394
417.426	8.36575
419.197	8.44281
420.969	9.23625
422.739	9.59314
424.51	10.6318
426.279	11.0898
428.05	12.2583
429.819	13.1218
431.589	13.2764
433.356	14.3148
435.124	14.769
436.893	14.5281
438.66	14.2223
440.428	14.5242
442.194	15.0077
443.96	15.511
445.727	17.1766
447.492	16.9705
449.259	17.3403
451.023	18.0801
452.787	18.3761
454.553	19.3219
456.316	19.5595
458.079	20.7978
459.844	20.5938
461.606	21.1813
463.368	22.2342
465.132	22.1313
466.893	22.6516
468.654	23.7725
470.415	24.239
472.177	23.6961
473.937	24.8846
475.696	26.1476
477.456	26.4674
479.217	27.6867
480.975	29.2748
482.733	30.1416
484.491	30.5388
486.251	30.5716
488.008	31.0127
489.765	30.8806
491.522	31.8365
493.278	32.203
495.036	31.5071
496.791	31.3146
498.546	31.3251
500.301	31.0673
502.056	31.7642
503.81	32.1291
505.566	31.6311
507.319	32.059
509.073	33.744
510.825	34.3993
512.578	34.4041
514.33	35.1691
516.082	35.6169
517.833	35.5701
519.587	35.9308
521.337	36.7869
523.088	36.3538
524.838	36.8154
526.588	38.1067
528.337	39.1999
530.087	38.5061
531.835	37.9474
533.584	38.2684
535.332	37.2893
537.08	36.724
538.827	37.2912
540.574	36.2623
542.321	36.3911
544.068	35.8907
545.814	35.8006
547.56	35.5738
549.305	36.0318
551.05	35.4843
552.795	35.0507
554.54	34.4039
556.284	34.3113
558.027	32.6509
559.771	32.5779
561.514	31.4483
563.257	30.7503
564.999	28.4773
566.742	27.0901
568.481	24.7945
570.223	22.2298
571.964	20.2867
573.705	18.5079
575.445	17.182
577.185	15.8512
578.925	15.3361
580.665	13.6874
582.402	11.6024
584.141	9.86426
585.879	9.78104
587.617	9.19259
589.355	9.00283
591.092	8.36212
592.828	7.79595
594.564	6.51994
596.301	6.54944
598.037	5.78632
599.773	5.89333
601.506	6.99035
603.242	7.5058
604.976	7.93882
606.711	8.76734
608.443	9.18051
610.177	8.68085
611.91	9.14052
613.644	9.332
615.374	8.98069
617.107	8.58466
618.839	9.05339
620.569	9.20842
622.3	8.23964
624.032	7.70152
625.761	8.47373
627.491	9.07607
629.221	10.4742
630.949	10.9268
632.679	10.5576
634.408	10.9663
636.135	11.3616
637.863	11.0496
639.592	10.6302
641.318	10.9769
643.045	12.4117
644.77	12.0681
646.497	12.385
648.224	11.6227
649.948	11.8754
651.674	10.9513
653.398	11.464
655.123	11.2503
656.846	11.4016
658.57	11.9725
660.293	12.3378
662.017	12.165
663.738	11.818
665.462	12.7428
667.185	12.021
668.905	11.4953
670.628	11.8616
672.348	12.6135
674.067	12.8404
675.789	13.7255
677.508	14.2167
679.228	13.7713
680.947	14.069
682.667	16.3336
684.385	17.01
686.104	18.0883
687.821	19.8589
689.538	20.8279
691.256	21.7072
692.972	21.9212
694.69	23.27
696.406	23.8553
698.121	24.0522
699.837	25.3674
701.552	26.319
703.268	27.5296
704.982	29.3007
706.695	30.8174
708.41	31.5915
710.123	32.9836
711.836	35.0243
713.55	36.6864
715.262	37.5402
716.973	38.4329
718.685	39.377
720.398	41.2741
722.108	42.1352
723.818	42.3827
725.53	43.9373
727.24	45.2796
728.949	46.4813
730.658	47.1289
732.369	47.9828
734.077	48.5462
735.785	48.7533
737.493	48.7331
739.2	48.1976
740.909	49.6921
742.616	49.7211
744.322	50.0635
746.028	50.4402
747.734	50.5453
749.441	50.8346
751.146	51.6643
752.851	51.7359
754.555	52.1026
756.26	53.3006
757.963	53.9295
759.667	55.368
761.372	55.1505
763.075	54.2859
764.777	54.5065
766.479	56.4755
768.181	57.5168
769.883	57.5372
771.584	58.9842
773.285	59.7862
774.986	59.9982
776.686	59.4488
778.386	60.062
780.085	60.2733
781.785	60.725
783.484	60.8619
785.182	61.7467
786.881	62.4237
788.579	63.5776
790.276	64.0752
791.974	64.7166
793.671	64.7883
795.367	66.5046
797.064	68.4943
798.76	70.4693
800.456	70.9361
802.151	71.823
803.846	73.6957
805.541	74.3012
807.236	74.3683
808.93	75.5826
810.624	78.0598
812.317	78.716
814.01	79.943
815.703	81.3089
817.394	81.6283
819.086	82.2551
820.778	83.8155
822.47	84.0227
824.161	85.8868
825.852	87.9113
827.543	87.7947
829.231	87.4369
830.921	87.465
832.611	86.6852
834.3	87.3652
835.989	87.9262
837.676	87.5651
839.364	87.2662
841.053	87.0721
842.74	85.6835
844.426	84.4751
846.113	83.716
847.8	83.7105
849.486	83.6818
851.171	81.7818
852.857	79.9685
854.542	79.0538
856.227	79.054
857.911	77.6579
859.595	77.6761
861.279	76.6433
862.961	76.1358
864.645	75.2897
866.329	75.0831
868.01	73.2912
869.692	73.8642
871.375	74.8766
873.055	74.2837
874.737	73.1862
876.418	73.1606
878.097	71.7838
879.778	71.4129
881.457	70.3018
883.137	69.2274
884.817	67.6195
886.495	66.6576
888.174	66.3195
889.851	64.8115
891.53	62.9042
893.206	61.9436
894.884	61.5773
896.562	61.055
898.237	60.3087
899.914	59.714
901.589	58.5315
903.265	57.2584
904.94	56.4049
906.615	54.9588
908.289	53.3771
909.964	50.8563
911.637	49.1325
913.31	46.5233
914.984	46.2924
916.656	45.5672
918.33	45.4163
920.001	43.8821
921.674	42.4053
923.345	40.9245
925.015	40.1167
926.687	38.2473
928.357	37.5785
930.028	36.6191
931.698	34.2855
933.366	32.212
935.037	30.2986
936.705	30.7722
938.373	31.3894
940.043	32.3283
941.71	31.6406
943.379	31.2403
945.046	29.0753
946.712	29.2648
948.378	28.8833
950.046	29.026
951.711	29.1386
953.376	30.8735
955.043	30.9648
956.708	31.1202
958.372	30.3609
960.036	29.4357
961.701	29.6211
963.364	31.4929
965.027	33.5977
966.69	35.59
968.354	38.3962
970.016	40.3817
971.678	42.9062
973.339	44.4884
975	44.9586
976.661	47.8473
978.324	51.3148
979.984	53.6539
981.644	54.8797
983.303	56.9629
984.962	57.3981
986.621	58.5244
988.282	60.3084
989.94	61.2302
991.598	62.3214
993.256	63.8013
994.913	65.5774
996.57	66.1842
998.227	68.1276
999.884	67.6816
1001.54	68.6623
1003.2	68.4812
1004.85	68.5477
1006.51	67.9757
1008.16	68.3684
1009.82	68.8152
1011.47	69.6734
1013.12	69.9947
1014.78	70.9847
1016.43	72.8323
1018.08	73.6335
1019.74	76.1813
1021.39	76.9701
1023.04	77.6255
1024.69	77.4366
1026.34	77.1829
1028	77.6903
1029.65	79.4679
1031.3	80.3301
1032.95	81.0703
1034.6	81.1354
1036.25	82.1414
1037.9	81.7098
1039.55	80.3535
1041.19	80.4663
1042.84	81.4174
1044.49	83.1006
1046.14	84.677
1047.79	84.1019
1049.43	83.4753
1051.08	82.9903
1052.73	81.0852
1054.37	78.9232
1056.02	76.6418
1057.66	74.3517
1059.31	73.2834
1060.95	71.6308
1062.6	68.9667
1064.24	67.1399
1065.88	64.3791
1067.53	60.5821
1069.17	59.1565
1070.81	56.9373
1072.46	54.5128
1074.1	52.9073
1075.74	49.8579
1077.38	47.2922
1079.02	44.4115
1080.66	42.2369
1082.3	39.3448
1083.94	38.5128
1085.58	36.4135
1087.22	35.823
1088.86	35.0393
1090.5	35.4643
1092.14	36.0405
1093.78	35.1062
1095.42	35.5334
1097.05	36.9816
1098.69	37.8795
1100.33	38.083
1101.97	39.2722
1103.6	39.2855
1105.24	40.6966
1106.87	40.7894
1108.51	39.7465
1110.15	41.357
1111.78	41.4063
1113.41	41.148
1115.05	40.7742
1116.68	40.8691
1118.31	40.7003
1119.95	39.5325
1121.58	39.3462
1123.21	40.2878
1124.85	39.1374
1126.48	38.1145
1128.11	37.3704
1129.74	35.0698
1131.37	33.9986
1133	33.799
1134.63	31.6035
1136.26	31.4321
1137.89	29.8513
1139.52	28.508
1141.15	27.2058
1142.78	25.4736
1144.41	23.9697
1146.04	22.5936
1147.66	21.4759
1149.29	19.2924
1150.92	17.5274
1152.55	15.1278
1154.17	12.9082
1155.8	10.8341
1157.43	7.42225
1159.05	6.39513
1160.68	4.64257
1162.3	3.07647
1163.93	1.3342
1165.55	0.48351
1167.17	1.06729
1168.8	1.10751
1170.42	0.359561
1172.05	0.882781
1173.67	0.736985
1175.29	1.4156
1176.91	2.53447
1178.54	3.30331
1180.16	3.15752
1181.78	2.81169
1183.4	3.22251
1185.02	3.30297
1186.64	3.35512
1188.26	3.6831
1189.88	4.59265
1191.5	6.01298
1193.12	5.96351
1194.74	5.90898
1196.36	7.77376
1197.97	8.25426
1199.59	9.15295
1201.21	10.0976
1202.83	12.1627
1204.44	14.2992
1206.06	16.7983
1207.68	18.9648
1209.29	21.6132
1210.91	23.8534
1212.52	27.069
1214.14	31.0754
1215.75	34.0249
1217.37	37.2096
1218.98	39.5111
1220.6	42.0823
1222.21	44.6806
1223.82	48.3531
1225.44	52.0278
1227.05	54.6954
1228.66	57.3872
1230.27	59.6074
1231.88	63.3557
1233.49	66.9864
1235.1	71.1789
1236.72	73.7212
1238.33	77.5587
1239.94	81.6343
1241.55	84.6598
1243.16	88.1288
1244.76	91.8384
1246.37	96.1431
1247.98	100.449
1249.59	102.921
1251.2	105.521
1252.8	108.509
1254.41	111.447
1256.02	114.145
1257.63	117.305
1259.23	120.794
1260.84	123.054
1262.44	126.176
1264.05	129.811
1265.66	132.972
1267.26	137.303
1268.87	140.586
1270.47	143.52
1272.07	145.493
1273.68	147.568
1275.28	151.248
1276.88	154.133
1278.48	156.777
1280.09	159.941
1281.69	162.249
1283.29	164.022
1284.89	167.321
1286.49	168.531
1288.09	168.785
1289.69	170.09
1291.3	170.823
1292.9	171.757
1294.49	172.18
1296.09	171.518
1297.69	170.616
1299.29	169.616
1300.89	168.149
1302.49	167.788
1304.09	167.033
1305.68	164.937
1307.28	162.964
1308.88	161.271
1310.47	160.915
1312.07	159.288
1313.66	157.706
1315.26	156.686
1316.86	154.112
1318.45	152.655
1320.05	149.286
1321.64	147.758
1323.23	144.451
1324.83	141.235
1326.42	139.151
1328.01	135.693
1329.61	132.283
1331.2	128.753
1332.79	125.319
1334.38	122.748
1335.98	119.807
1337.57	118.175
1339.16	116.012
1340.75	112.693
1342.34	110.267
1343.93	107.571
1345.52	104.253
1347.11	102.32
1348.7	99.2566
1350.29	96.3963
1351.87	93.3515
1353.46	91.4157
1355.05	89.3339
1356.64	85.6817
1358.23	83.2202
1359.81	80.6253
1361.4	78.753
1362.99	76.7952
1364.57	75.8432
1366.16	72.825
1367.74	71.8718
1369.33	71.048
1370.91	68.9265
1372.5	67.3073
1374.08	66.5258
1375.67	65.5036
1377.25	64.9689
1378.83	62.937
1380.42	63.0211
1382	62.1832
1383.58	61.9344
1385.16	61.4836
1386.75	61.6705
1388.33	62.4733
1389.91	64.0315
1391.49	64.4195
1393.07	65.8396
1394.65	65.8202
1396.23	65.3594
1397.81	64.8745
1399.39	65.7465
1400.97	67.8393
1402.55	68.817
1404.13	71.2012
1405.7	72.2449
1407.28	73.7871
1408.86	77.113
1410.44	80.2496
1412.01	83.9491
1413.59	88.6599
1415.17	93.2569
1416.74	97.9236
1418.32	102.825
1419.89	107.688
1421.47	113.885
1423.05	120.901
1424.62	126.913
1426.19	135.651
1427.77	142.181
1429.34	147.926
1430.92	155.198
1432.49	161.479
1434.06	167.53
1435.63	173.768
1437.2	180.159
1438.78	186.477
1440.35	191.166
1441.92	194.887
1443.49	198.613
1445.06	201.074
1446.63	202.907
1448.2	202.939
1449.77	203.216
1451.34	202.194
1452.91	201.663
1454.48	198.255
1456.05	195.002
1457.62	190.479
1459.18	186.695
1460.75	180.933
1462.32	174.929
1463.89	168.131
1465.45	161.803
1467.02	154.408
1468.59	146.557
1470.15	138.243
1471.72	130.729
1473.28	121.489
1474.85	112.559
1476.41	104.25
1477.98	97.2557
1479.54	89.4438
1481.11	82.0863
1482.67	74.158
1484.23	66.7569
1485.8	61.8711
1487.36	56.2162
1488.92	50.3039
1490.48	46.8325
1492.05	42.4591
1493.61	39.179
1495.17	36.3976
1496.73	34.0782
1498.29	32.4615
1499.85	31.6234
1501.41	30.7928
1502.97	30.7059
1504.53	31.0486
1506.09	29.5018
1507.65	28.9434
1509.2	29.5312
1510.76	29.8303
1512.32	31.509
1513.88	32.43
1515.44	33.9671
1516.99	35.7224
1518.55	37.4272
1520.1	39.4425
1521.66	40.2875
1523.22	42.1426
1524.77	44.6786
1526.33	46.4416
1527.88	48.1196
1529.44	48.4125
1530.99	51.4013
1532.55	52.6096
1534.1	54.2219
1535.65	55.1648
1537.21	57.5805
1538.76	59.1355
1540.31	61.433
1541.86	64.0931
1543.42	65.9763
1544.97	68.4174
1546.52	70.622
1548.07	72.2101
1549.62	73.9142
1551.17	74.8687
1552.72	77.0986
1554.27	79.4339
1555.82	80.8776
1557.37	82.0913
1558.92	83.9512
1560.47	84.9052
1562.02	86.8479
1563.57	88.1023
1565.11	90.35
1566.66	94.1667
1568.21	97.4654
1569.75	99.07
1571.3	102.44
1572.85	104.274
1574.39	106.901
1575.94	109.66
1577.49	112.436
1579.03	114.776
1580.58	116.866
1582.12	117.787
1583.67	119.433
1585.21	122.525
1586.75	124.502
1588.3	126.681
1589.84	128.666
1591.38	130.29
1592.93	132.041
1594.47	134.565
1596.01	134.865
1597.55	134.7
1599.09	135.662
1600.63	136.614
1602.18	136.58
1603.72	135.219
1605.26	134.965
1606.8	135.521
1608.34	136.539
1609.87	136.201
1611.41	136.069
1612.95	137.476
1614.49	139.235
1616.03	139.668
1617.57	140.468
1619.11	141.486
1620.64	142.688
1622.18	143.971
1623.72	144.758
1625.25	146.075
1626.79	147.669
1628.32	150.163
1629.86	151.536
1631.4	152.998
1632.93	154.54
1634.47	156.809
1636	160.26
1637.53	163.756
1639.07	167.19
1640.6	170.825
1642.14	176.089
1643.67	179.569
1645.2	181.883
1646.73	184.779
1648.27	186.718
1649.8	187.431
1651.33	189.39
1652.86	190.387
1654.39	191.92
1655.92	192.132
1657.45	192.274
1658.98	192.351
1660.51	191.187
1662.04	189.746
1663.57	186.797
1665.1	183.876
1666.63	181.468
1668.16	177.291
1669.69	173.532
1671.21	168.82
1672.74	162.454
1674.27	156.908
1675.79	152.4
1677.32	146.009
1678.85	139.819
1680.37	133.538
1681.9	126.775
1683.42	120.467
1684.95	114.265
1686.47	108.141
1688	101.978
1689.52	96.2978
1691.05	90.0626
1692.57	84.0957
1694.1	79.2463
1695.62	73.7921
1697.14	68.7409
1698.66	63.5356
1700.19	58.6181
1701.71	54.3663
1703.23	50.9667
1704.75	47.4326
1706.27	44.1072
1707.79	42.0061
1709.32	39.24
1710.83	36.9525
1712.35	35.3405
1713.88	33.0571
1715.39	31.4628
1716.91	30.8497
1718.43	30.0539
1719.95	28.3438
1721.47	27.9468
1722.99	27.0589
1724.5	25.8301
1726.02	25.7548
1727.54	25.4711
1729.06	25.271
1730.57	25.2226
1732.09	24.3251
1733.61	23.9732
1735.12	23.2663
1736.64	21.9055
1738.15	21.3538
1739.67	20.0387
1741.18	19.0273
1742.7	19.2364
1744.21	17.4651
1745.72	16.6985
1747.24	15.1376
1748.75	14.1111
1750.26	13.2117
1751.78	12.3815
1753.29	10.8992
1754.8	10.3099
1756.31	9.25172
1757.82	7.88797
1759.34	7.88225
1760.85	7.17812
1762.36	6.1865
1763.87	5.66527
1765.38	5.33662
1766.89	5.09625
1768.4	4.76538
1769.91	4.38624
1771.41	2.96002
1772.92	3.03165
1774.43	2.26342
1775.94	2.46608
1777.45	2.97101
1778.96	3.02239
1780.46	2.45861
1781.97	2.45156
1783.48	2.27238
1784.98	2.62722
1786.49	2.50154
1788	2.93939
1789.5	3.15075
1791.01	3.75454
1792.51	3.96204
1794.01	4.21816
1795.52	3.91378
1797.02	3.97901
1798.53	3.7045
1800.03	3.68311
1801.54	3.76359
1803.04	3.40523
1804.54	3.82722
1806.04	3.19975
1807.54	3.01842
1809.05	2.5814
1810.55	2.50227
1812.05	1.97023
1813.55	1.62688
1815.05	1.20929
1816.55	1.67346
1818.05	1.22208
1819.55	0.562615
1821.05	0.587521
1822.55	0.733831
1824.05	0.528763
1825.55	0.270377
1827.05	0.0309893
1828.55	-0.21249
1830.04	-0.192397
1831.54	-0.162933
1833.04	-0.016374
1834.54	-0.421022
1836.03	-0.740251
1837.53	-0.575371
1839.03	-0.0936406
1840.52	0.108548
1842.02	0.732593
1843.51	0.548909
1845.01	0.360885
1846.5	0.252656
1848	0.929278
1849.49	1.02526
1850.99	0.861862
1852.48	0.95061
1853.97	1.38813
1855.47	1.05399
1856.96	0.955722
1858.45	1.02784
1859.94	0.911814
1861.44	0.288634
1862.93	0.309509
1864.42	0.913031
1865.91	1.16644
1867.4	1.50391
1868.89	1.93754
1870.38	0.853622
1871.87	0.735812
1873.36	0.736567
1874.85	0.765819
1876.34	0.337738
1877.83	0.704058
1879.32	0.409914
1880.81	0.378536
1882.3	0.846937
1882.56	1.2334
1884.06	0.935137
1885.55	0.577445
1887.04	1.07491
1888.54	0.895994
1890.03	0.0414097
1891.52	-0.349969
1893.02	0.396173
1894.51	0.263371
1896	0.718328
1897.49	0.277835
1898.99	0.418729
1900.48	0.332446
1901.97	0.0807902
1903.46	1.2218
1904.95	1.48222
1906.44	1.85854
1907.93	2.24249
1909.42	2.1396
1910.91	2.0628
1912.4	1.93557
1913.89	1.43236
1915.38	1.81965
1916.86	1.61883
1918.35	1.48553
1919.84	1.73445
1921.33	1.60401
1922.82	1.02181
1924.3	0.958124
1925.79	1.57831
1927.28	1.82156
1928.76	1.32445
1930.25	1.47318
1931.74	1.74145
1933.22	2.40042
1934.71	2.01643
1936.19	2.4315
1937.67	3.31135
1939.16	3.08498
1940.64	2.76646
1942.13	2.50417
1943.61	1.96882
1945.09	1.64987
1946.58	1.73421
1948.06	1.7662
1949.54	2.08057
1951.03	2.59792
1952.51	2.66372
1953.99	2.50186
1955.47	1.31796
1956.95	1.05994
1958.43	-0.0734976
1959.91	0.532538
1961.39	0.803641
1962.87	0.162485
1964.35	0.267369
1965.83	0.600336
1967.31	0.872454
1968.79	0.279739
1970.27	1.04914
1971.75	-0.0809307
1973.22	0.501486
1974.7	0.290543
1976.18	1.08801
1977.66	1.44167
1979.13	0.788545
1980.61	1.14635
1982.09	0.447874
1983.56	0.39109
1985.04	0.495719
1986.52	1.03461
1987.99	0.799001
1989.47	1.48677
1990.94	0.974554
1992.41	0.755842
1993.89	0.951917
1995.36	0.839662
1996.84	1.35778
1998.31	2.16033
1999.78	2.57078
2001.26	3.47069
2002.73	3.48372
2004.2	4.09891
2005.67	4.58881
2007.15	4.89028
2008.62	4.65309
2010.09	5.38997
2011.56	5.90491
2013.03	5.74011
2014.5	4.78028
2015.97	4.12371
2017.44	3.64478
2018.91	3.26054
2020.38	3.56005
2021.85	3.9185
2023.32	4.56039
2024.79	4.7352
2026.25	4.48567
2027.72	3.84376
2029.19	3.94687
2030.66	4.45195
2032.13	4.71065
2033.59	5.60106
2035.06	5.96713
2036.53	6.51638
2037.99	6.7028
2039.46	6.45081
2040.92	7.32616
2042.39	8.16982
2043.85	9.57205
2045.32	9.67391
2046.78	11.1505
2048.25	11.5535
2049.71	12.7723
2051.18	12.8493
2052.64	13.5274
2054.1	14.7129
2055.56	14.9235
2057.03	16.4855
2058.49	16.4644
2059.95	17.6276
2061.42	18.7653
2062.88	20.1804
2064.34	21.1184
2065.8	22.8705
2067.26	24.7672
2068.72	26.6504
2070.18	28.8411
2071.64	30.6199
2073.1	32.0535
2074.56	33.5386
2076.02	34.6398
2077.48	36.592
2078.94	37.3251
2080.39	38.8148
2081.85	40.1632
2083.31	41.6142
2084.77	43.4768
2086.22	45.1203
2087.68	46.8277
2089.14	49.0287
2090.6	51.6718
2092.05	55.0238
2093.51	58.0455
2094.96	60.5857
2096.42	63.5099
2097.87	66.6045
2099.33	68.6994
2100.78	70.6623
2102.24	74.289
2103.69	77.7513
2105.15	81.3933
2106.6	84.9867
2108.05	88.3068
2109.51	91.1572
2110.96	93.8836
2112.41	97.8325
2113.86	101.255
2115.32	105.664
2116.77	108.984
2118.22	112.629
2119.67	116.704
