#Acq. time (s)=	45
#Accumulations=	2
#Range (cm-¹)=	200...3150
#Windows=	2
#Auto scanning=	Off
#Autofocus=	Off
#Macrospot=	Off
#AutoExposure=	Off
#Spike filter=	Multiple accum.
#Delay time (s)=	0
#Binning=	1
#Readout mode=	Signal
#DeNoise=	Off
#ICS correction=	On
#Dark correction=	Off
#Inst. Process=	Off
#Detector Gain=	Best Dynamic Range
#Detector ADC=	20 kHz       
#Detector temperature (°C)=	-69.85
#Instrument=	LabRAM HR Evol
#Detector=	Synapse
#Objective=	x100
#Grating=	600 gr/mm
#ND Filter=	100%
#Laser (nm)=	532 
#Hole=	100.021
#Range=	Auto
#Laser Pol.=	No
#Raman. Pol.=	No
#Laser Pol. (°)=	-0.0007625
#Raman Pol. (°)=	89.9995
#Collection=	Microscope
#StageXY=	Marzhauser
#StageZ=	Marzhauser
#X (µm)=	-2351.5
#Y (µm)=	260.4
#Z (µm)=	521.65
#Full time(mm:ss)=	3:18
#Project=	
#Sample=	
#Site=	
#Title=	Thy_10_08_49_2x_45s_532 nm_x100_100%_600 gr_mm
#Remark=	
#Date=	06.07.2022 15:22
#Acquired=	06.07.2022 15:22:42
#Base:Fit=	10.08.2022 09:46:25
#Base:Sub=	10.08.2022 09:46:49
#Filter:Polynom=	16.08.2022 10:24:56
#AxisType[0]=Intens
#AxisUnit[0]=Cnt
#AxisType[1]=Spectr
#AxisUnit[1]=1/cm
200.398	10.7724
202.213	10.4789
204.027	10.285
205.843	10.2161
207.657	10.2066
209.47	9.85628
211.283	9.47683
213.097	8.47408
214.909	7.61212
216.721	7.81111
218.533	8.22032
220.344	8.20301
222.157	7.35909
223.967	6.8439
225.777	6.44948
227.587	6.16002
229.396	5.40576
231.205	4.55688
233.016	3.9863
234.824	3.10748
236.632	2.07638
238.439	1.66337
240.247	2.30182
242.053	1.89633
243.86	1.38646
245.666	1.072
247.474	1.08082
249.279	2.26551
251.085	2.31204
252.889	3.17026
254.694	3.34028
256.498	3.48138
258.301	2.28519
260.105	2.54303
261.908	1.87474
263.71	2.23116
265.513	2.16522
267.315	2.80938
269.116	3.53039
270.918	3.53481
272.718	3.50028
274.519	3.671
276.319	3.87964
278.119	4.8694
279.918	5.11767
281.718	6.67446
283.516	7.73784
285.315	9.1546
287.113	10.2469
288.911	12.0311
290.708	12.3838
292.505	12.8518
294.302	13.3217
296.098	14.1171
297.894	14.6775
299.69	14.98
301.485	16.3625
303.278	16.0285
305.073	17.9337
306.867	19.8027
308.661	19.5527
310.454	20.2562
312.247	20.492
314.04	19.8356
315.833	19.2664
317.623	19.4319
319.415	19.5753
321.206	19.4383
322.997	19.0217
324.788	18.5983
326.579	19.0949
328.367	20.6146
330.156	20.836
331.946	20.7063
333.735	19.9381
335.523	20.4934
337.31	21.658
339.098	20.927
340.885	18.8258
342.673	18.2222
344.458	16.4728
346.244	14.8602
348.03	13.0213
349.816	12.6481
351.6	12.1371
353.385	11.7136
355.17	11.2586
356.953	10.9824
358.737	10.2809
360.521	9.74951
362.304	9.10114
364.085	9.09994
365.868	9.84401
367.65	10.3624
369.431	11.3935
371.212	13.3407
372.994	12.8253
374.773	11.8796
376.554	11.2309
378.332	11.3749
380.112	10.9908
381.892	11.1513
383.669	10.9885
385.448	11.4548
387.225	11.4021
389.003	11.2613
390.781	11.5594
392.557	10.192
394.334	11.4591
396.109	11.1739
397.885	10.0333
399.66	10.5921
401.436	9.81608
403.211	8.53405
404.984	9.54256
406.759	9.98151
408.532	9.76326
410.306	9.02052
412.078	8.99599
413.851	8.74942
415.623	9.50978
417.395	8.98748
419.166	7.61529
420.938	6.75449
422.708	5.53988
424.477	6.73815
426.248	6.17237
428.017	4.93447
429.788	4.74567
431.556	4.29478
433.326	3.60963
435.093	2.86587
436.86	3.28626
438.629	4.07226
440.395	4.22063
442.163	3.97276
443.929	4.3052
445.694	4.74826
447.461	5.33344
449.226	6.29012
450.99	6.60394
452.756	8.20671
454.52	9.33049
456.285	9.80993
458.048	10.5754
459.811	10.2651
461.573	10.2462
463.337	10.496
465.099	11.111
466.86	12.6143
468.623	13.4252
470.384	14.0964
472.144	14.6229
473.906	15.9072
475.666	16.2664
477.425	16.1823
479.184	17.1457
480.944	17.2162
482.703	19.1296
484.461	20.3909
486.218	21.6453
487.975	22.6098
489.734	22.9234
491.491	23.2881
493.247	24.6133
495.003	24.6015
496.759	24.6271
498.516	24.1068
500.271	24.2427
502.025	24.0338
503.779	25.0305
505.533	25.2708
507.287	25.5915
509.042	25.7958
510.795	26.3878
512.547	26.655
514.299	25.297
516.051	24.9076
517.803	23.7459
519.554	22.4357
521.305	22.3032
523.055	21.943
524.805	22.3288
526.555	21.8209
528.307	21.159
530.056	21.6909
531.805	22.3967
533.553	22.1204
535.301	21.5282
537.049	20.5691
538.797	19.6323
540.544	20.1542
542.291	18.8827
544.037	19.0269
545.783	19.1166
547.529	18.7171
549.275	18.7203
551.02	17.6685
552.765	17.5217
554.509	16.6822
556.253	15.6229
557.997	15.9476
559.738	15.4453
561.482	15.4134
563.224	15.1646
564.967	13.996
566.709	14.1491
568.451	13.8378
570.192	13.2955
571.933	12.9229
573.674	12.3381
575.415	10.9754
577.153	9.07292
578.893	8.14999
580.632	7.16929
582.371	5.60231
584.11	4.98575
585.849	5.00334
587.587	4.40325
589.323	3.82763
591.06	4.16035
592.797	3.39158
594.534	3.39415
596.271	2.83822
598.005	2.68797
599.741	3.60119
601.476	3.65255
603.211	4.85801
604.944	5.55839
606.679	6.17869
608.413	6.1903
610.147	6.93702
611.878	7.98267
613.611	9.21305
615.344	9.75973
617.077	10.0444
618.807	10.9018
620.539	10.5557
622.27	10.3327
623.999	11.2264
625.73	13.0247
627.461	13.7832
629.189	14.2432
630.919	16.0511
632.648	15.9059
634.376	15.5573
636.105	16.2031
637.833	16.3155
639.559	16.5682
641.287	16.1908
643.013	16.7209
644.74	17.8634
646.467	19.0393
648.192	19.7189
649.918	19.4056
651.642	18.9194
653.368	20.4465
655.091	20.2504
656.816	19.553
658.538	19.2562
660.263	19.0818
661.987	18.5133
663.708	17.8772
665.432	18.6834
667.153	19.1584
668.875	19.4391
670.596	19.7992
672.318	19.4291
674.037	19.1785
675.759	20.0443
677.478	20.5834
679.196	21.824
680.917	23.2957
682.635	23.8321
684.355	25.3102
686.072	26.4195
687.791	26.8548
689.508	27.4668
691.224	27.5679
692.942	27.2055
694.658	28.4937
696.376	30.3149
698.091	30.9307
699.805	30.9762
701.522	31.4069
703.236	32.3687
704.95	33.6103
706.665	34.2643
708.379	35.8894
710.093	38.0999
711.806	39.5595
713.518	39.2185
715.23	39.878
716.943	40.9454
718.655	41.0974
720.366	42.247
722.078	43.5996
723.788	43.6023
725.498	43.9832
727.208	45.639
728.919	48.0559
730.628	49.934
732.337	50.9243
734.045	51.4102
735.755	51.7759
737.463	53.1034
739.17	53.5827
740.877	53.7942
742.584	54.8001
744.292	54.406
745.998	55.1713
747.704	55.9732
749.409	56.101
751.114	56.6188
752.819	57.8217
754.526	58.4798
756.23	58.4152
757.934	59.2817
759.637	60.1005
761.34	60.8285
763.043	61.5488
764.746	62.8753
766.448	62.6758
768.152	62.9288
769.853	62.4417
771.554	62.3748
773.255	62.7638
774.956	62.9026
776.656	63.0356
778.356	62.9895
780.056	64.0719
781.755	63.5926
783.454	63.9792
785.153	64.7546
786.851	65.9348
788.549	67.0353
790.247	68.2876
791.944	69.8947
793.641	70.5085
795.338	70.5347
797.034	71.5178
798.73	71.0066
800.426	72.6194
802.121	74.174
803.817	74.736
805.511	76.1743
807.206	76.2654
808.9	76.4807
810.592	77.2204
812.286	78.8331
813.979	79.5514
815.672	80.5097
817.364	80.3528
819.057	81.0837
820.748	82.1755
822.44	82.6853
824.129	82.5167
825.82	82.6485
827.511	82.54
829.201	81.8845
830.891	82.7767
832.581	83.1652
834.269	82.7405
835.958	82.3349
837.646	81.3465
839.335	79.6867
841.023	77.838
842.709	77.3732
844.396	75.237
846.084	73.2211
847.77	71.3613
849.455	70.0646
851.141	67.2717
852.827	65.1809
854.513	63.1878
856.196	62.2832
857.881	61.2772
859.566	60.0165
861.248	58.1195
862.932	56.1431
864.616	55.0702
866.297	54.0187
867.98	53.532
869.663	52.6945
871.343	51.6629
873.026	51.4304
874.707	49.8619
876.387	48.8496
878.068	48.0834
879.747	48.0432
881.428	48.6922
883.108	48.0327
884.786	48.3731
886.465	48.6734
888.143	48.8557
889.822	48.7401
891.498	48.0936
893.177	48.421
894.855	49.007
896.53	50.3841
898.208	51.2834
899.883	50.6512
901.56	50.7555
903.234	51.9768
904.91	52.6896
906.584	52.2428
908.26	52.8393
909.933	52.9448
911.608	53.5869
913.28	53.6155
914.955	52.9955
916.627	52.4777
918.298	50.9402
919.972	50.3731
921.643	49.2364
923.315	47.8169
924.986	46.7895
926.656	45.7838
928.328	44.1694
929.997	43.6788
931.668	43.5901
933.337	42.1676
935.006	40.3904
936.676	40.1237
938.344	39.5427
940.012	38.9848
941.681	37.0632
943.348	35.3094
945.014	33.87
946.683	32.8128
948.349	32.5595
950.015	31.3186
951.682	30.8537
953.347	30.0415
955.012	29.6317
956.676	27.8697
958.343	25.4917
960.006	24.6829
961.67	25.4207
963.333	27.1235
964.998	28.3425
966.661	28.9105
968.323	29.829
969.985	32.3952
971.649	32.977
973.31	34.3293
974.971	36.1774
976.632	37.9439
978.293	38.6584
979.953	39.657
981.615	39.3884
983.274	39.6336
984.933	41.7082
986.592	41.8004
988.251	41.6772
989.909	41.9367
991.567	41.6793
993.225	41.6841
994.884	40.8528
996.541	40.0278
998.198	38.8364
999.855	38.5658
1001.51	37.0666
1003.17	36.2496
1004.82	33.956
1006.48	32.7528
1008.13	32.9523
1009.79	31.6694
1011.44	30.6712
1013.1	29.6235
1014.75	28.384
1016.4	26.4919
1018.06	26.6723
1019.71	25.2204
1021.36	23.9853
1023.01	22.3431
1024.66	20.4757
1026.32	20.5214
1027.97	20.3566
1029.62	18.6149
1031.27	16.4621
1032.92	15.2931
1034.57	14.5558
1036.22	12.2137
1037.87	10.8924
1039.52	8.94611
1041.16	9.5304
1042.81	10.9357
1044.46	12.9204
1046.11	14.5033
1047.76	15.0258
1049.4	15.0967
1051.05	15.2591
1052.7	15.8028
1054.34	15.4555
1055.99	17.0331
1057.63	16.4623
1059.28	16.0702
1060.92	16.1868
1062.57	16.6156
1064.21	16.8286
1065.85	17.6541
1067.5	17.819
1069.14	17.3939
1070.78	16.9987
1072.43	17.2946
1074.07	17.133
1075.71	17.9799
1077.35	18.5377
1078.99	18.4987
1080.63	18.2103
1082.27	17.7379
1083.91	17.336
1085.55	18.7441
1087.19	18.9492
1088.83	20.1578
1090.47	20.721
1092.11	20.4481
1093.75	20.7611
1095.39	21.3174
1097.03	21.9822
1098.66	22.4935
1100.3	22.5857
1101.94	21.9758
1103.57	22.8191
1105.21	23.4537
1106.84	23.9959
1108.48	24.301
1110.11	24.1775
1111.75	22.1234
1113.38	21.3365
1115.02	21.0965
1116.65	19.639
1118.29	18.5538
1119.92	18.5485
1121.55	18.1928
1123.19	18.7752
1124.82	18.5438
1126.45	17.4465
1128.08	16.5696
1129.71	15.7011
1131.34	14.7436
1132.97	13.7431
1134.6	13.3885
1136.23	13.0055
1137.86	12.1487
1139.49	9.88314
1141.12	9.81462
1142.75	9.8135
1144.38	9.22706
1146.01	8.64549
1147.64	7.85812
1149.26	6.62549
1150.89	6.04448
1152.52	5.44571
1154.15	4.8001
1155.77	4.69997
1157.4	3.71833
1159.02	3.15352
1160.65	1.42795
1162.27	1.59575
1163.9	1.53364
1165.52	1.71428
1167.15	2.05314
1168.77	1.74581
1170.39	2.26942
1172.02	2.20058
1173.64	2.06002
1175.26	2.05831
1176.89	2.26749
1178.51	2.59085
1180.13	2.83729
1181.75	2.781
1183.37	3.77611
1184.99	4.13139
1186.61	4.2832
1188.23	4.73088
1189.85	5.00569
1191.47	5.56014
1193.09	4.8665
1194.71	5.95774
1196.33	7.5299
1197.94	8.58376
1199.56	9.80463
1201.18	11.399
1202.8	12.4321
1204.41	13.9918
1206.03	14.2244
1207.65	14.4327
1209.26	16.4698
1210.88	18.3493
1212.49	19.8097
1214.11	21.2384
1215.72	23.7751
1217.34	26.3014
1218.95	28.9051
1220.57	31.3121
1222.18	34.2917
1223.79	36.9064
1225.41	38.7967
1227.02	40.079
1228.63	41.9118
1230.24	44.3361
1231.85	46.7444
1233.47	47.5093
1235.08	48.6581
1236.69	50.7623
1238.3	52.3193
1239.91	55.0209
1241.52	56.7889
1243.13	58.1246
1244.74	58.5788
1246.34	59.3253
1247.95	60.5414
1249.56	61.207
1251.17	61.0712
1252.78	60.0198
1254.38	60.2979
1255.99	60.3817
1257.6	59.876
1259.2	60.1396
1260.81	60.1401
1262.42	59.7
1264.02	60.6235
1265.63	60.4244
1267.23	60.7969
1268.84	60.4102
1270.44	59.9899
1272.04	60.62
1273.65	60.9189
1275.25	61.5844
1276.85	62.2073
1278.46	61.8228
1280.06	63.3002
1281.66	64.7342
1283.26	65.3851
1284.86	67.7973
1286.46	68.2948
1288.07	70.29
1289.67	72.7497
1291.27	75.5062
1292.87	77.6068
1294.47	79.5927
1296.06	80.7542
1297.66	81.9496
1299.26	83.4233
1300.86	84.2604
1302.46	84.9587
1304.06	85.8744
1305.65	88.1358
1307.25	89.6534
1308.85	92.0287
1310.44	92.4485
1312.04	92.3437
1313.64	93.0584
1315.23	94.9346
1316.83	95.9705
1318.42	97.3085
1320.02	97.1911
1321.61	96.5502
1323.2	95.3555
1324.8	94.8888
1326.39	95.1275
1327.99	95.0551
1329.58	92.979
1331.17	92.0627
1332.76	90.6508
1334.36	90.6964
1335.95	89.9315
1337.54	89.4598
1339.13	88.6248
1340.72	87.5789
1342.31	86.1888
1343.9	84.481
1345.49	82.1321
1347.08	80.8259
1348.67	79.2694
1350.26	79.1832
1351.85	78.5428
1353.43	77.1226
1355.02	75.5159
1356.61	74.0253
1358.2	72.3258
1359.78	71.1387
1361.37	68.8299
1362.96	66.79
1364.54	65.9631
1366.13	64.3142
1367.71	62.862
1369.3	61.0698
1370.88	59.6042
1372.47	57.1342
1374.05	54.6126
1375.64	53.0316
1377.22	51.937
1378.8	50.543
1380.39	48.9695
1381.97	47.8075
1383.55	47.1966
1385.13	47.2715
1386.72	46.46
1388.3	45.1684
1389.88	43.8845
1391.46	43.5101
1393.04	43.2237
1394.62	42.0125
1396.2	41.1233
1397.78	40.4221
1399.36	38.4174
1400.94	38.3184
1402.52	37.9421
1404.1	38.0956
1405.68	38.4317
1407.25	38.7435
1408.83	38.7793
1410.41	41.5485
1411.98	43.0527
1413.56	45.1899
1415.14	47.4064
1416.71	49.2319
1418.29	50.4162
1419.87	53.0464
1421.44	55.4359
1423.02	58.9996
1424.59	63.1514
1426.16	67.1252
1427.74	70.7346
1429.31	73.7309
1430.89	76.6118
1432.46	78.521
1434.03	81.2574
1435.6	83.5862
1437.18	86.9884
1438.75	88.8787
1440.32	91.4308
1441.89	93.3345
1443.46	94.9789
1445.03	96.1937
1446.6	97.0849
1448.17	96.9288
1449.74	96.6239
1451.31	96.5885
1452.88	95.8512
1454.45	94.6964
1456.02	93.0688
1457.59	91.8487
1459.16	89.3069
1460.72	86.5834
1462.29	84.1455
1463.86	81.1366
1465.43	77.7412
1466.99	73.629
1468.56	70.3465
1470.13	65.6291
1471.69	61.7542
1473.26	58.1023
1474.82	53.7053
1476.38	49.3575
1477.95	44.9739
1479.51	41.3844
1481.08	37.7411
1482.64	34.4077
1484.2	31.7432
1485.77	29.0777
1487.33	26.5308
1488.89	24.3689
1490.46	20.9435
1492.02	19.1941
1493.58	17.8915
1495.14	16.3006
1496.7	15.9771
1498.26	16.3124
1499.82	16.194
1501.38	16.2128
1502.94	15.5477
1504.5	15.9798
1506.06	15.9833
1507.62	15.9119
1509.18	16.0692
1510.73	15.8047
1512.29	16.6792
1513.85	16.5293
1515.41	17.5431
1516.96	16.7128
1518.52	17.9551
1520.08	18.6886
1521.63	19.1764
1523.19	20.3015
1524.75	21.9826
1526.3	21.9339
1527.85	23.3277
1529.41	23.9889
1530.96	25.2561
1532.52	25.9891
1534.07	26.6403
1535.62	28.1468
1537.18	28.3943
1538.73	30.6016
1540.28	32.71
1541.84	34.7305
1543.39	36.7677
1544.94	38.7568
1546.49	40.4178
1548.04	43.4731
1549.59	47.3956
1551.14	49.3589
1552.69	50.9089
1554.25	53.7366
1555.79	56.6418
1557.34	59.7532
1558.89	62.5864
1560.44	64.5198
1561.99	66.6305
1563.54	69.1213
1565.08	71.2073
1566.63	73.0715
1568.18	75.8485
1569.73	79.4197
1571.27	80.5921
1572.82	83.5169
1574.37	86.6261
1575.91	87.9386
1577.46	90.3489
1579	91.9603
1580.55	93.721
1582.09	96.0116
1583.64	96.9984
1585.18	98.1047
1586.73	99.0662
1588.27	100.147
1589.81	100.337
1591.35	100.544
1592.9	100.754
1594.44	99.5106
1595.98	98.7075
1597.52	98.2973
1599.06	97.6173
1600.61	96.9542
1602.15	95.7696
1603.69	93.8377
1605.23	92.2692
1606.77	90.348
1608.31	89.0545
1609.85	87.3968
1611.39	85.5664
1612.93	85.2837
1614.46	83.9055
1616	82.7906
1617.54	81.3611
1619.08	80.3467
1620.61	79.7828
1622.15	80.5757
1623.69	81.3518
1625.23	81.4622
1626.76	81.1055
1628.3	80.5162
1629.83	81.1457
1631.37	82.3165
1632.9	83.4694
1634.44	83.8498
1635.97	83.5992
1637.51	82.6932
1639.04	83.6122
1640.57	85.1976
1642.11	86.2061
1643.64	88.7076
1645.17	91.3637
1646.71	93.1948
1648.24	94.9103
1649.77	98.2315
1651.3	100.639
1652.83	102.394
1654.36	104.975
1655.89	105.895
1657.42	107.944
1658.96	108.804
1660.48	109.303
1662.01	109.962
1663.54	109.661
1665.07	108.458
1666.6	107.369
1668.13	105.794
1669.66	103.996
1671.19	101.548
1672.71	99.7959
1674.24	98.3489
1675.77	95.2371
1677.29	92.3699
1678.82	89.6325
1680.35	86.2079
1681.87	82.4495
1683.4	78.6076
1684.92	75.3789
1686.45	72.3303
1687.97	67.6237
1689.5	64.1084
1691.02	59.7043
1692.54	56.0946
1694.07	52.6149
1695.59	49.327
1697.11	46.0636
1698.64	42.8225
1700.16	38.8407
1701.68	34.8131
1703.2	32.9986
1704.72	29.7092
1706.25	26.3875
1707.77	23.5896
1709.29	20.8218
1710.81	17.9164
1712.33	15.5379
1713.85	13.662
1715.37	13.5422
1716.89	12.512
1718.41	12.0923
1719.92	11.4424
1721.44	10.5164
1722.96	10.1383
1724.48	9.73986
1725.99	9.67613
1727.51	9.90296
1729.03	9.34305
1730.55	9.14499
1732.06	8.77415
1733.58	8.93756
1735.09	8.74602
1736.61	8.6267
1738.13	8.4525
1739.64	7.83002
1741.15	6.9648
1742.67	6.4197
1744.18	5.30649
1745.7	5.12346
1747.21	4.7292
1748.72	4.2466
1750.24	4.04771
1751.75	3.91825
1753.26	3.96847
1754.77	3.4199
1756.29	2.75193
1757.8	2.82408
1759.31	2.3107
1760.82	2.24659
1762.33	1.60209
1763.84	1.27502
1765.35	1.07677
1766.86	0.652034
1768.37	0.367981
1769.88	-0.491038
1771.39	-0.934676
1772.9	-1.10544
1774.4	-0.93481
1775.91	-1.5312
1777.42	-2.08201
1778.93	-1.80409
1780.44	-2.50042
1781.94	-2.52166
1783.45	-1.92682
1784.96	-1.85923
1786.46	-2.29065
1787.97	-1.98799
1789.47	-2.68157
1790.98	-2.30511
1792.48	-2.23377
1793.99	-2.03402
1795.49	-1.82643
1797	-1.20681
1798.5	-0.601791
1800.01	-0.868247
1801.51	-0.313354
1803.01	0.238395
1804.51	0.252743
1806.02	0.720016
1807.52	0.97172
1809.02	1.45806
1810.52	1.71685
1812.02	1.51459
1813.52	1.72838
1815.02	1.67686
1816.53	1.71532
1818.03	1.43228
1819.52	1.76938
1821.02	2.25257
1822.52	2.67102
1824.02	2.92093
1825.52	3.5138
1827.02	3.8876
1828.52	4.23591
1830.02	4.43948
1831.51	4.1226
1833.01	4.3576
1834.51	4.19247
1836.01	4.07188
1837.5	3.91647
1839	4.34526
1840.49	3.91986
1841.99	3.79217
1843.49	3.56566
1844.98	3.72377
1846.48	3.76638
1847.97	4.10497
1849.47	3.84731
1850.96	3.09646
1852.45	3.67208
1853.95	3.65144
1855.44	3.03488
1856.93	2.4747
1858.42	3.12367
1859.92	3.37972
1861.41	4.17039
1862.9	4.84621
1864.39	4.10133
1865.88	4.55531
1867.38	4.32896
1868.87	4.20084
1870.36	4.06153
1871.85	4.18958
1873.34	4.06581
1874.83	3.63667
1876.32	4.43702
1877.81	4.53322
1879.29	4.15427
1880.78	3.88551
1882.27	3.66319
1882.53	3.90169
1884.03	4.23769
1885.52	4.41842
1887.01	4.79543
1888.51	5.41505
1890	5.70569
1891.5	5.84681
1892.99	6.45582
1894.48	6.71098
1895.97	7.17679
1897.47	7.43565
1898.96	8.10297
1900.45	8.94546
1901.94	9.60597
1903.43	9.18499
1904.92	9.50782
1906.41	10.5054
1907.9	11.0434
1909.39	11.3479
1910.88	11.3082
1912.37	11.6489
1913.86	11.1384
1915.35	11.295
1916.84	11.3906
1918.33	10.8109
1919.81	10.7164
1921.3	10.2661
1922.79	10.2618
1924.28	10.5885
1925.76	11.1931
1927.25	10.909
1928.73	11.8022
1930.22	11.9685
1931.71	13.1083
1933.19	13.1698
1934.68	13.1696
1936.16	12.7662
1937.65	12.4717
1939.13	12.6366
1940.62	12.3416
1942.1	12.2522
1943.58	11.9944
1945.07	12.0155
1946.55	11.2321
1948.03	11.165
1949.51	11.5394
1951	10.6654
1952.48	10.2353
1953.96	10.5145
1955.44	11.6192
1956.92	11.5589
1958.4	11.2887
1959.88	11.6268
1961.36	11.8311
1962.84	11.9588
1964.32	12.0453
1965.8	12.6023
1967.28	12.7578
1968.76	13.7104
1970.24	13.9163
1971.72	14.4554
1973.2	15.028
1974.67	15.6422
1976.15	15.59
1977.63	16.2335
1979.1	17.0798
1980.58	17.4646
1982.06	17.9543
1983.54	17.6513
1985.01	17.8403
1986.49	18.6446
1987.96	18.3872
1989.44	18.6103
1990.91	18.9441
1992.39	19.0827
1993.86	19.8533
1995.33	19.9408
1996.81	20.7966
1998.28	20.943
1999.75	21.5673
2001.23	21.9445
2002.7	22.7157
2004.17	22.5334
2005.65	23.0263
2007.12	22.6718
2008.59	22.6052
2010.06	22.5413
2011.53	22.2484
2013	22.5753
2014.47	22.495
2015.94	22.8085
2017.41	22.9199
2018.88	23.0723
2020.35	22.6391
2021.82	23.0959
2023.29	23.2016
2024.76	23.275
2026.23	23.7843
2027.69	23.8093
2029.16	23.7095
2030.63	22.6616
2032.1	22.7377
2033.56	22.7114
2035.03	22.9071
2036.5	23.3674
2037.96	23.1007
2039.43	23.3052
2040.89	22.887
2042.36	23.079
2043.83	23.0883
2045.29	23.9368
2046.75	24.3046
2048.22	24.5979
2049.68	24.4512
2051.15	24.9633
2052.61	24.6048
2054.07	24.9498
2055.54	24.7373
2057	24.3533
2058.46	24.9375
2059.92	24.5207
2061.39	23.956
2062.85	24.4011
2064.31	24.8851
2065.77	24.7487
2067.23	24.6518
2068.69	24.1168
2070.15	24.6326
2071.61	24.3848
2073.07	25.2883
2074.53	25.5987
2075.99	25.6606
2077.45	25.0182
2078.91	24.8912
2080.37	24.6216
2081.82	25.4197
2083.28	25.8406
2084.74	25.7821
2086.2	26.0935
2087.65	26.0638
2089.11	26.9009
2090.57	26.6779
2092.02	26.6358
2093.48	26.7915
2094.94	27.1913
2096.39	27.435
2097.85	27.1923
2099.3	27.4061
2100.76	26.9611
2102.21	26.9834
2103.66	27.741
2105.12	28.354
2106.57	28.8165
2108.03	29.1726
2109.48	29.5536
2110.93	29.5821
2112.38	29.7517
2113.84	30.2779
2115.29	30.9807
2116.74	31.427
2118.19	32.1257
2119.64	32.2247
2121.09	32.2729
2122.54	32.6359
2123.99	33.5994
2125.45	34.2793
2126.89	35.3839
2128.34	35.5752
2129.79	37.0302
2131.24	38.5034
