#Acq. time (s)=	45
#Accumulations=	2
#Range (cm-¹)=	200...3150
#Windows=	2
#Auto scanning=	Off
#Autofocus=	Off
#Macrospot=	Off
#AutoExposure=	Off
#Spike filter=	Multiple accum.
#Delay time (s)=	0
#Binning=	1
#Readout mode=	Signal
#DeNoise=	Off
#ICS correction=	On
#Dark correction=	Off
#Inst. Process=	Off
#Detector Gain=	Best Dynamic Range
#Detector ADC=	20 kHz       
#Detector temperature (°C)=	-69.85
#Instrument=	LabRAM HR Evol
#Detector=	Synapse
#Objective=	x100
#Grating=	600 gr/mm
#ND Filter=	100%
#Laser (nm)=	532 
#Hole=	100.021
#Range=	Auto
#Laser Pol.=	No
#Raman. Pol.=	No
#Laser Pol. (°)=	-0.0007625
#Raman Pol. (°)=	89.9995
#Collection=	Microscope
#StageXY=	Marzhauser
#StageZ=	Marzhauser
#X (µm)=	2205.8
#Y (µm)=	1214.6
#Z (µm)=	442.15
#Full time(mm:ss)=	3:18
#Project=	
#Sample=	
#Site=	
#Title=	Thy_10_08_27_2x_45s_532 nm_x100_100%_600 gr_mm
#Remark=	
#Date=	05.07.2022 16:09
#Acquired=	05.07.2022 16:09:39
#Base:Fit=	10.08.2022 09:46:25
#Base:Sub=	10.08.2022 09:46:49
#Filter:Polynom=	16.08.2022 10:24:56
#AxisType[0]=Intens
#AxisUnit[0]=Cnt
#AxisType[1]=Spectr
#AxisUnit[1]=1/cm
200.43	2.7231
202.244	2.18913
204.059	2.13297
205.873	2.50195
207.688	2.54827
209.501	2.79286
211.314	3.16242
213.127	3.05663
214.941	3.45635
216.753	3.7471
218.564	4.97066
220.375	5.65342
222.186	6.52087
223.999	7.18157
225.809	7.00062
227.618	7.44426
229.428	8.13984
231.236	9.31069
233.045	9.68958
234.855	8.77157
236.663	9.17958
238.471	9.71362
240.278	10.908
242.085	10.1519
243.891	10.8419
245.698	10.894
247.503	11.5669
249.309	12.129
251.116	13.329
252.921	13.1136
254.725	12.7895
256.529	13.6498
258.333	14.9286
260.136	15.0989
261.939	14.8825
263.742	14.3863
265.544	15.4009
267.346	15.2257
269.148	16.001
270.949	16.6089
272.75	15.3429
274.55	15.4571
276.351	15.9338
278.15	15.4785
279.95	16.0088
281.749	15.6215
283.548	15.1342
285.346	15.1968
287.144	15.8692
288.942	16.2372
290.739	17.1766
292.536	17.7366
294.333	18.4475
296.129	18.9579
297.925	20.6181
299.721	21.4565
301.514	21.5048
303.309	22.2999
305.104	23.7247
306.898	24.2323
308.692	25.1981
310.486	26.017
312.279	26.1103
314.072	26.4494
315.862	26.679
317.654	27.6196
319.446	28.0899
321.238	27.9187
323.029	26.5198
324.819	26.0411
326.608	26.154
328.398	26.1634
330.188	26.3922
331.977	25.7228
333.766	26.9816
335.553	26.5252
337.341	27.3475
339.129	27.6968
340.917	28.346
342.704	27.3765
344.489	27.3796
346.275	26.9626
348.062	26.1163
349.845	24.301
351.631	23.2672
353.416	21.8868
355.201	20.8283
356.984	19.8992
358.768	19.194
360.552	17.0604
362.333	16.2777
364.116	15.6312
365.899	14.8389
367.68	13.6467
369.462	13.1583
371.243	12.7303
373.023	12.0345
374.804	12.0279
376.585	11.9496
378.363	12.0839
380.143	12.3561
381.923	11.993
383.7	12.7592
385.479	13.2443
387.256	12.2807
389.034	11.5933
390.812	11.2128
392.588	11.8268
394.365	12.3544
396.14	12.2736
397.916	12.5591
399.691	12.7572
401.467	12.1211
403.24	11.7205
405.015	10.8613
406.788	9.74784
408.563	9.4928
410.335	9.2286
412.109	9.23751
413.88	9.46065
415.654	9.37545
417.424	10.6585
419.197	10.5741
420.967	11.0882
422.739	11.1423
424.508	11.5603
426.279	11.537
428.048	12.0264
429.819	12.2767
431.587	10.9173
433.356	9.88371
435.124	9.30362
436.891	9.21395
438.66	9.42502
440.426	9.36332
442.194	8.934
443.96	8.5185
445.725	8.49654
447.492	7.50439
449.257	7.44359
451.021	7.98186
452.787	7.74398
454.551	8.0925
456.314	9.45672
458.079	10.6175
459.842	10.9898
461.604	10.6303
463.368	10.8367
465.13	11.5116
466.891	12.2412
468.654	13.1742
470.415	13.4383
472.175	13.4986
473.935	13.2801
475.696	11.8356
477.456	13.6216
479.215	14.0541
480.973	14.7387
482.733	15.7429
484.491	15.4237
486.249	15.7565
488.006	15.5472
489.765	15.5807
491.522	14.8093
493.278	15.5316
495.034	16.856
496.789	18.7968
498.544	19.4311
500.301	19.6451
502.056	19.7176
503.81	20.4406
505.564	21.653
507.317	21.5174
509.071	22.3342
510.825	21.8767
512.578	22.0809
514.33	21.4309
516.082	22.2778
517.833	21.482
519.585	19.7639
521.335	20.0418
523.086	20.5783
524.836	20.5301
526.586	19.8322
528.335	18.7799
530.085	17.2924
531.835	16.6195
533.584	17.2635
535.332	17.0621
537.08	16.9768
538.827	16.8367
540.574	16.9391
542.321	16.5672
544.068	16.8009
545.814	15.1016
547.56	14.7916
549.305	13.0825
551.05	12.0419
552.795	11.406
554.54	10.1323
556.282	9.34702
558.025	8.54894
559.769	8.08708
561.512	7.62947
563.255	7.81717
564.997	8.67945
566.739	7.98746
568.481	8.22415
570.223	7.66011
571.964	6.72837
573.705	6.2026
575.443	5.98115
577.183	5.76117
578.923	5.20763
580.663	6.32903
582.402	6.49591
584.141	6.6132
585.879	5.82866
587.615	5.73121
589.353	5.79117
591.09	6.52116
592.828	6.20969
594.564	5.53661
596.299	4.69929
598.035	4.45775
599.771	4.2423
601.506	4.70789
603.242	4.34942
604.974	4.27665
606.709	3.60937
608.443	4.29709
610.177	4.34826
611.908	4.96269
613.642	5.67728
615.374	6.01221
617.105	6.10776
618.837	7.40329
620.569	7.58622
622.3	7.17252
624.03	7.10959
625.761	7.47694
627.491	7.37867
629.219	7.04927
630.949	7.93493
632.677	7.83107
634.406	9.189
636.135	9.16774
637.861	9.36979
639.59	10.4302
641.318	11.5735
643.043	12.5456
644.77	12.8056
646.495	13.5361
648.222	13.8598
649.948	14.5477
651.672	14.5206
653.398	14.4268
655.121	15.1076
656.846	15.0944
658.569	15.6838
660.293	15.2306
662.015	15.8742
663.738	15.6611
665.46	15.9277
667.183	16.768
668.903	17.396
670.626	17.9429
672.346	18.022
674.067	18.3878
675.787	19.0039
677.508	19.397
679.226	18.7521
680.947	19.2356
682.665	19.7543
684.385	21.4069
686.102	21.475
687.821	22.575
689.538	21.9153
691.254	22.9476
692.972	23.0806
694.688	23.7704
696.406	24.4668
698.121	25.4408
699.835	25.2756
701.552	25.3026
703.266	25.0538
704.98	26.1387
706.695	26.0814
708.409	26.9546
710.121	27.9083
711.836	28.5528
713.548	29.5294
715.26	30.409
716.973	31.8754
718.685	33.1741
720.396	34.9115
722.108	35.8677
723.818	36.1786
725.528	37.6193
727.238	38.8069
728.949	39.2686
730.658	39.9752
732.367	42.7028
734.075	43.3981
735.785	44.1609
737.493	45.7872
739.2	46.3724
740.907	47.9621
742.614	49.1744
744.322	50.0884
746.028	50.59
747.734	51.8909
749.439	52.7712
751.144	53.6048
752.849	55.1427
754.555	56.3675
756.26	57.2984
757.963	58.5442
759.667	59.9073
761.37	61.1616
763.073	62.6133
764.775	63.8507
766.477	64.9014
768.179	65.221
769.883	65.4847
771.584	65.7861
773.285	66.6648
774.986	66.3669
776.686	67.2946
778.386	67.6004
780.085	68.0281
781.785	68.2411
783.484	68.4309
785.182	68.3917
786.881	68.7985
788.579	68.5676
790.276	69.0609
791.974	68.4385
793.671	69.1904
795.367	69.6148
797.064	69.5368
798.76	69.8628
800.456	71.4322
802.151	72.5402
803.846	72.6763
805.541	73.6066
807.234	73.1018
808.928	73.1352
810.622	73.69
812.315	73.2345
814.008	73.0768
815.701	73.3819
817.394	74.5528
819.086	73.2792
820.778	72.9313
822.468	73.1939
824.159	72.3651
825.85	72.8282
827.541	71.9652
829.231	70.6181
830.921	69.3976
832.609	68.8735
834.298	68.7164
835.987	67.8484
837.676	67.3433
839.364	66.2665
841.051	65.5739
842.738	65.3859
844.426	64.7376
846.113	63.3082
847.798	62.2094
849.484	59.8292
851.171	58.2091
852.857	56.9788
854.54	56.0815
856.226	56.1628
857.911	54.1401
859.593	52.6982
861.278	52.4475
862.961	51.3935
864.645	49.7826
866.327	47.7266
868.01	47.5429
869.692	47.4246
871.373	46.9
873.055	47.4752
874.735	47.7009
876.416	47.3946
878.097	47.1307
879.776	46.9966
881.457	46.8564
883.135	47.7359
884.815	48.1908
886.495	47.8486
888.172	47.7399
889.851	48.2579
891.528	47.915
893.206	48.5836
894.882	48.6284
896.56	48.0167
898.237	48.9445
899.912	49.2189
901.589	49.8511
903.263	49.1259
904.94	49.5955
906.614	50.109
908.289	50.0742
909.962	49.7988
911.635	49.2783
913.31	48.538
914.982	47.985
916.656	47.7213
918.328	47.5749
920.001	47.063
921.672	45.7664
923.345	44.931
925.015	44.7052
926.685	44.2505
928.357	43.0404
930.026	42.2687
931.698	41.0039
933.366	39.6427
935.035	39.5042
936.705	38.9224
938.373	37.8701
940.041	36.7618
941.71	34.2526
943.377	34.3463
945.044	34.2223
946.712	33.3183
948.378	32.7971
950.044	31.949
951.709	32.3983
953.376	32.2413
955.041	31.4254
956.706	30.1373
958.372	28.1747
960.036	25.823
961.699	24.3474
963.362	24.6619
965.027	25.082
966.69	25.6374
968.352	25.4408
970.014	26.1668
971.676	26.1313
973.339	24.6447
975	23.4475
976.661	25.0816
978.322	25.5585
979.982	26.6372
981.642	28.3956
983.303	28.9405
984.962	29.8785
986.621	29.6939
988.28	30.0258
989.938	29.8115
991.596	29.0786
993.254	28.9507
994.911	29.1213
996.57	28.8581
998.227	28.7896
999.884	29.0958
1001.54	28.9658
1003.2	29.1647
1004.85	28.1335
1006.51	29.2842
1008.16	29.3944
1009.82	28.8631
1011.47	28.4721
1013.12	27.352
1014.78	26.4226
1016.43	25.8557
1018.08	25.7148
1019.74	25.3402
1021.39	24.0734
1023.04	23.0502
1024.69	23.1693
1026.34	23.158
1028	22.0456
1029.65	20.9449
1031.3	18.8048
1032.95	16.5537
1034.6	15.9269
1036.25	14.3243
1037.9	12.6639
1039.54	11.0755
1041.19	9.6555
1042.84	8.63669
1044.49	7.64913
1046.14	8.36715
1047.78	6.96115
1049.43	5.6833
1051.08	4.82808
1052.72	4.31851
1054.37	4.23609
1056.02	2.54304
1057.66	3.29094
1059.31	4.51569
1060.95	3.77416
1062.6	3.26162
1064.24	2.798
1065.88	1.78074
1067.53	1.28656
1069.17	0.555733
1070.81	1.35598
1072.45	1.72805
1074.1	3.10098
1075.74	3.36716
1077.38	4.23103
1079.02	4.57046
1080.66	4.4836
1082.3	4.78761
1083.94	5.37303
1085.58	6.29384
1087.22	6.03829
1088.86	7.22535
1090.5	7.72891
1092.14	8.35909
1093.78	9.95032
1095.42	12.0119
1097.05	14.2059
1098.69	15.5299
1100.33	16.9354
1101.96	18.8671
1103.6	19.4562
1105.24	20.5789
1106.87	21.7543
1108.51	22.2554
1110.14	22.9358
1111.78	23.3939
1113.41	22.4991
1115.05	23.0595
1116.68	23.4305
1118.31	23.5408
1119.95	23.5671
1121.58	22.2898
1123.21	21.2339
1124.85	20.8163
1126.48	20.6897
1128.11	20.622
1129.74	19.4017
1131.37	20.51
1133	20.4514
1134.63	20.2027
1136.26	18.9021
1137.89	16.6579
1139.52	16.6515
1141.15	15.7116
1142.78	14.6286
1144.41	13.6596
1146.04	13.1318
1147.66	12.0988
1149.29	11.7587
1150.92	10.4901
1152.55	10.3771
1154.17	9.17967
1155.8	8.40228
1157.43	6.6859
1159.05	5.82836
1160.68	4.61773
1162.3	3.57617
1163.93	2.92633
1165.55	2.26188
1167.17	1.88279
1168.8	2.027
1170.42	3.13231
1172.05	3.49408
1173.67	4.25851
1175.29	6.03478
1176.91	6.23754
1178.54	6.68071
1180.16	7.14023
1181.78	7.33239
1183.4	7.40391
1185.02	7.37379
1186.64	7.41286
1188.26	7.98643
1189.88	9.08196
1191.5	9.71857
1193.12	10.4988
1194.74	10.6524
1196.36	12.0002
1197.97	12.8417
1199.59	14.8298
1201.21	15.6106
1202.83	17.4945
1204.44	20.2874
1206.06	23.0934
1207.68	25.5127
1209.29	26.8731
1210.91	29.6538
1212.52	31.633
1214.14	33.4396
1215.75	35.8602
1217.37	37.5955
1218.98	39.7075
1220.59	41.9106
1222.21	42.7204
1223.82	45.0588
1225.43	46.7769
1227.05	48.432
1228.66	50.2928
1230.27	52.0023
1231.88	53.9031
1233.49	56.1714
1235.1	57.5128
1236.72	59.2704
1238.33	59.8059
1239.94	60.6926
1241.55	60.4536
1243.16	60.382
1244.76	60.2887
1246.37	60.757
1247.98	61.4925
1249.59	62.1252
1251.2	62.1928
1252.8	62.3286
1254.41	62.4205
1256.02	61.6989
1257.62	59.7109
1259.23	59.7048
1260.84	59.3651
1262.44	58.64
1264.05	58.4685
1265.66	58.711
1267.26	58.9992
1268.86	59.286
1270.47	58.3595
1272.07	57.7756
1273.67	58.2879
1275.28	58.3383
1276.88	59.1837
1278.48	61.1429
1280.09	63.0098
1281.69	63.6991
1283.29	65.4399
1284.89	66.1836
1286.49	66.6489
1288.09	67.2643
1289.69	68.6275
1291.29	70.1557
1292.89	71.5383
1294.49	73.6415
1296.09	75.7205
1297.69	76.2649
1299.29	77.8587
1300.89	79.3843
1302.49	81.518
1304.08	83.6941
1305.68	83.9793
1307.28	85.2412
1308.88	86.9318
1310.47	88.4582
1312.07	89.555
1313.66	89.8479
1315.26	90.502
1316.85	90.6611
1318.45	89.9512
1320.04	90.0566
1321.64	89.4965
1323.23	89.9435
1324.83	89.5428
1326.42	89.8529
1328.01	89.8232
1329.61	89.7365
1331.2	88.4043
1332.79	88.0621
1334.38	86.3176
1335.97	84.9794
1337.56	84.134
1339.16	83.4763
1340.75	83.6334
1342.34	82.351
1343.93	81.2113
1345.52	80.3506
1347.11	78.9168
1348.7	76.4913
1350.29	75.2869
1351.87	75.2343
1353.46	74.6427
1355.05	73.7552
1356.64	74.1225
1358.22	73.8108
1359.81	72.5316
1361.4	70.9227
1362.98	70.3468
1364.57	68.8366
1366.16	68.2455
1367.74	67.8384
1369.33	66.996
1370.91	65.938
1372.5	65.5401
1374.08	64.8347
1375.67	63.7276
1377.25	62.7639
1378.83	62.3381
1380.41	61.7817
1382	61.4424
1383.58	60.3733
1385.16	59.368
1386.74	59.11
1388.33	58.7623
1389.91	57.0248
1391.49	55.4928
1393.07	53.8771
1394.65	52.1766
1396.23	51.391
1397.81	50.651
1399.39	50.017
1400.97	49.3255
1402.55	49.4316
1404.13	49.3702
1405.7	50.2201
1407.28	49.9153
1408.86	49.9929
1410.44	51.2649
1412.01	52.756
1413.59	53.3626
1415.17	55.3807
1416.74	57.8273
1418.32	59.6035
1419.89	62.6527
1421.47	63.9115
1423.04	66.1983
1424.62	68.722
1426.19	70.7988
1427.77	73.6517
1429.34	77.1866
1430.91	80.7972
1432.49	83.6576
1434.06	87.0017
1435.63	89.2996
1437.2	91.6026
1438.78	94.2263
1440.35	95.5791
1441.92	97.9721
1443.49	99.3884
1445.06	101.196
1446.63	101.98
1448.2	103.369
1449.77	103.098
1451.34	103.282
1452.91	102.276
1454.48	101.55
1456.05	101.266
1457.62	100.125
1459.18	99.107
1460.75	97.4601
1462.32	94.8016
1463.89	91.5799
1465.45	87.7931
1467.02	83.8322
1468.59	80.1099
1470.15	76.6116
1471.72	73.4254
1473.28	70.1625
1474.85	67.917
1476.41	64.6762
1477.98	61.7913
1479.54	58.4242
1481.1	55.7377
1482.67	51.9126
1484.23	49.3777
1485.79	46.4496
1487.36	44.1887
1488.92	42.0367
1490.48	38.9741
1492.04	37.1647
1493.61	35.8503
1495.17	33.7758
1496.73	31.8718
1498.29	31.3452
1499.85	29.7736
1501.41	29.2863
1502.97	28.4917
1504.53	28.4989
1506.09	28.4731
1507.65	28.1701
1509.2	27.9903
1510.76	27.4347
1512.32	27.7883
1513.88	27.3478
1515.43	28.445
1516.99	28.8322
1518.55	29.0738
1520.1	30.3799
1521.66	31.2232
1523.22	32.3645
1524.77	33.1511
1526.33	35.1765
1527.88	35.2185
1529.44	37.8637
1530.99	39.5323
1532.54	42.1865
1534.1	43.9297
1535.65	45.813
1537.21	47.6347
1538.76	49.5874
1540.31	51.3053
1541.86	52.8449
1543.42	54.7485
1544.97	57.0337
1546.52	59.3394
1548.07	61.7749
1549.62	64.5289
1551.17	66.7102
1552.72	68.9983
1554.27	71.2539
1555.82	73.4999
1557.37	76.2855
1558.92	78.9769
1560.47	80.4091
1562.02	82.1109
1563.56	84.7095
1565.11	86.9201
1566.66	89.2889
1568.21	91.1488
1569.75	92.8841
1571.3	94.6031
1572.85	95.1342
1574.39	97.1026
1575.94	99.0683
1577.49	100.08
1579.03	100.918
1580.57	101.22
1582.12	101.993
1583.66	102.349
1585.21	102.421
1586.75	101.987
1588.3	102.701
1589.84	103.298
1591.38	103.374
1592.92	103.603
1594.47	103.482
1596.01	102.385
1597.55	101.794
1599.09	101.004
1600.63	100.036
1602.17	98.8611
1603.71	98.0497
1605.25	95.6394
1606.79	94.84
1608.33	93.9414
1609.87	92.9478
1611.41	91.6371
1612.95	91.3992
1614.49	90.7369
1616.03	89.5438
1617.57	88.6911
1619.1	87.4315
1620.64	87.486
1622.18	88.0698
1623.72	87.5057
1625.25	88.22
1626.79	88.8295
1628.32	88.5335
1629.86	88.15
1631.39	88.7879
1632.93	89.3502
1634.46	90.0886
1636	89.3348
1637.53	89.095
1639.07	90.4316
1640.6	92.29
1642.13	92.5993
1643.67	92.704
1645.2	93.5239
1646.73	94.9414
1648.26	95.3555
1649.8	95.5314
1651.33	97.4505
1652.86	97.7631
1654.39	97.7714
1655.92	97.2852
1657.45	97.6731
1658.98	97.6272
1660.51	97.8576
1662.04	97.0437
1663.57	96.2557
1665.1	95.1502
1666.63	93.8427
1668.16	91.6727
1669.68	89.7309
1671.21	87.8027
1672.74	85.6779
1674.27	84.0755
1675.79	81.7831
1677.32	79.859
1678.85	76.982
1680.37	74.6502
1681.9	73.2601
1683.42	71.4727
1684.95	69.6273
1686.47	66.8044
1688	64.8985
1689.52	62.7035
1691.05	59.9817
1692.57	57.8512
1694.09	56.0456
1695.62	53.8103
1697.14	51.5735
1698.66	49.4689
1700.18	46.2541
1701.71	44.614
1703.23	41.9312
1704.75	39.9662
1706.27	39.0758
1707.79	38.0892
1709.31	36.8894
1710.83	35.5485
1712.35	33.9563
1713.87	33.5538
1715.39	33.566
1716.91	32.581
1718.43	32.0656
1719.95	31.5319
1721.47	31.8118
1722.99	31.7274
1724.5	30.5673
1726.02	29.9731
1727.54	30.0556
1729.06	29.4477
1730.57	29.1102
1732.09	28.4844
1733.61	28.509
1735.12	28.0053
1736.64	28.2413
1738.15	27.729
1739.67	27.6541
1741.18	26.6928
1742.7	27.4678
1744.21	26.987
1745.72	27.0567
1747.24	26.7873
1748.75	26.5228
1750.26	25.8528
1751.77	25.5303
1753.29	24.6759
1754.8	23.2844
1756.31	23.1004
1757.82	22.9566
1759.33	21.767
1760.84	21.5706
1762.36	20.6536
1763.87	20.0769
1765.38	18.9132
1766.89	18.19
1768.4	17.5738
1769.91	16.2067
1771.41	15.5504
1772.92	14.561
1774.43	14.2517
1775.94	13.6174
1777.45	13.4085
1778.95	12.8361
1780.46	12.2801
1781.97	11.7104
1783.48	10.6045
1784.98	10.1748
1786.49	9.58563
1787.99	9.36105
1789.5	9.83896
1791.01	9.45758
1792.51	8.71455
1794.01	8.77753
1795.52	7.95062
1797.02	7.3174
1798.53	6.82823
1800.03	5.91922
1801.53	5.16684
1803.04	5.20542
1804.54	4.49779
1806.04	3.8815
1807.54	3.45938
1809.05	3.35557
1810.55	3.0897
1812.05	2.89813
1813.55	2.83255
1815.05	2.53086
1816.55	1.68591
1818.05	1.9734
1819.55	1.32325
1821.05	1.33303
1822.55	1.17624
1824.05	0.75202
1825.55	0.533839
1827.05	0.357225
1828.55	-0.22888
1830.04	0.218869
1831.54	0.971213
1833.04	1.60621
1834.54	1.70525
1836.03	1.54158
1837.53	1.36984
1839.03	1.90406
1840.52	2.05248
1842.02	1.66297
1843.51	1.41252
1845.01	0.883376
1846.5	0.834241
1848	0.739885
1849.49	1.58928
1850.99	1.88669
1852.48	2.09382
1853.97	2.4956
1855.47	2.53189
1856.96	3.03622
1858.45	3.3393
1859.94	4.08336
1861.44	4.44242
1862.93	5.07993
1864.42	5.83247
1865.91	5.43648
1867.4	5.3841
1868.89	5.5247
1870.38	5.18563
1871.87	5.34449
1873.36	5.71778
1874.85	5.57864
1876.34	5.47469
1877.83	5.61672
1879.32	5.70665
1880.81	6.3191
1882.3	6.32884
1882.57	6.75324
1884.07	7.47901
1885.56	7.60773
1887.06	7.94529
1888.55	8.04697
1890.04	7.70955
1891.54	8.09303
1893.03	8.92022
1894.52	8.89746
1896.02	9.07815
1897.51	9.50843
1899	9.57985
1900.49	9.91619
1901.98	10.4006
1903.47	10.7
1904.96	10.1373
1906.45	10.4545
1907.94	9.4505
1909.43	8.63268
1910.92	8.95807
1912.41	7.90553
1913.9	7.16276
1915.39	6.51413
1916.88	6.37766
1918.37	6.07216
1919.85	6.42409
1921.34	6.56597
1922.83	6.40988
1924.32	5.80358
1925.8	5.35054
1927.29	5.2947
1928.78	4.74322
1930.26	4.65642
1931.75	5.07448
1933.23	4.90511
1934.72	4.93879
1936.2	4.95249
1937.69	5.45796
1939.17	4.25136
1940.66	4.09222
1942.14	3.59205
1943.63	3.15328
1945.11	3.42752
1946.59	4.23592
1948.07	4.66719
1949.56	4.91383
1951.04	5.49829
1952.52	6.00838
1954	5.65109
1955.48	5.11907
1956.96	5.42796
1958.45	5.10357
1959.93	5.01267
1961.41	5.72403
1962.89	5.90602
1964.37	5.8245
1965.85	6.38797
1967.32	6.28212
1968.8	5.98466
1970.28	6.49379
1971.76	6.94549
1973.24	6.17869
1974.72	6.78877
1976.19	6.70569
1977.67	6.38843
1979.15	6.33266
1980.63	6.29847
1982.1	5.63588
1983.58	6.28147
1985.05	6.81859
1986.53	5.81932
1988	6.78098
1989.48	7.13315
1990.95	7.15117
1992.43	7.93677
1993.9	8.10918
1995.38	7.69778
1996.85	8.2253
1998.32	9.23467
1999.8	9.47389
2001.27	9.39985
2002.74	9.78057
2004.22	10.149
2005.69	10.4378
2007.16	10.3654
2008.63	10.8805
2010.1	10.4944
2011.57	10.6499
2013.04	10.5815
2014.51	11.2676
2015.98	11.5992
2017.45	11.9893
2018.92	12.6952
2020.39	13.9131
2021.86	13.513
2023.33	13.5839
2024.8	14.5503
2026.27	14.5038
2027.74	13.8869
2029.2	14.7952
2030.67	15.3854
2032.14	15.5864
2033.61	15.7688
2035.07	15.6001
2036.54	15.0315
2038.01	14.4507
2039.47	13.8816
2040.94	14.0716
2042.4	14.1263
2043.87	13.5547
2045.33	13.7504
2046.8	12.9698
2048.26	12.9361
2049.72	12.5702
2051.19	12.258
2052.65	12.0318
2054.12	12.1772
2055.58	13.0692
2057.04	13.0722
2058.5	13.1089
2059.97	12.5818
2061.43	12.5561
2062.89	12.3085
2064.35	11.9623
2065.81	12.0814
2067.27	11.3322
2068.73	11.2505
2070.19	11.6944
2071.65	12.0852
2073.11	11.1186
2074.57	10.3753
2076.03	10.3915
2077.49	10.0183
2078.95	10.6897
2080.41	11.5743
2081.87	11.7137
2083.32	11.6576
2084.78	12.5947
2086.24	12.699
2087.7	13.2466
2089.15	13.2742
2090.61	13.7938
2092.07	14.3329
2093.52	15.6567
2094.98	15.7646
2096.43	16.2944
2097.89	16.8318
2099.34	16.8827
2100.8	16.9536
2102.25	17.5556
2103.71	17.3907
2105.16	17.7711
2106.61	17.7613
2108.07	18.637
2109.52	18.5272
2110.97	18.3445
2112.43	18.8923
2113.88	19.4673
2115.33	19.5646
2116.78	19.9453
2118.23	20.4021
2119.68	20.6455
2121.13	21.6422
2122.59	22.938
2124.04	23.3414
2125.49	24.0953
2126.94	25.1294
2128.39	25.5993
2129.83	25.6725
2131.28	25.8019
2132.73	25.8025
2134.18	25.7709
2135.63	26.5142
2137.08	27.4137
