#Acq. time (s)=	45
#Accumulations=	2
#Range (cm-¹)=	200...3150
#Windows=	2
#Auto scanning=	Off
#Autofocus=	Off
#Macrospot=	Off
#AutoExposure=	Off
#Spike filter=	Multiple accum.
#Delay time (s)=	0
#Binning=	1
#Readout mode=	Signal
#DeNoise=	Off
#ICS correction=	On
#Dark correction=	Off
#Inst. Process=	Off
#Detector Gain=	Best Dynamic Range
#Detector ADC=	20 kHz       
#Detector temperature (°C)=	-69.85
#Instrument=	LabRAM HR Evol
#Detector=	Synapse
#Objective=	x100
#Grating=	600 gr/mm
#ND Filter=	100%
#Laser (nm)=	532 
#Hole=	100.021
#Range=	Auto
#Laser Pol.=	No
#Raman. Pol.=	No
#Laser Pol. (°)=	-0.0007625
#Raman Pol. (°)=	89.9995
#Collection=	Microscope
#StageXY=	Marzhauser
#StageZ=	Marzhauser
#X (µm)=	1984.8
#Y (µm)=	-49.2
#Z (µm)=	425.1
#Full time(mm:ss)=	3:18
#Project=	
#Sample=	
#Site=	
#Title=	Thy_40_11_17_2x_45s_532 nm_x100_100%_600 gr_mm
#Remark=	
#Date=	05.07.2022 11:05
#Acquired=	05.07.2022 11:05:55
#Base:Fit=	10.08.2022 10:01:35
#Base:Sub=	10.08.2022 10:01:52
#Filter:Polynom=	16.08.2022 10:21:53
#AxisType[0]=Intens
#AxisUnit[0]=Cnt
#AxisType[1]=Spectr
#AxisUnit[1]=1/cm
200.43	17.9536
202.244	21.4801
204.059	22.9529
205.873	24.0933
207.688	25.0282
209.501	25.3153
211.314	25.0608
213.127	24.5301
214.941	23.9655
216.753	22.9434
218.564	21.2375
220.375	20.1889
222.186	18.9837
223.999	17.5775
225.809	16.472
227.618	15.853
229.428	16.1331
231.236	15.1381
233.045	13.9368
234.855	12.2997
236.663	11.177
238.471	9.9379
240.278	8.93617
242.085	8.47061
243.891	8.40295
245.698	8.26508
247.503	7.67826
249.309	7.08467
251.116	5.34932
252.921	4.30826
254.725	4.72237
256.529	5.1486
258.333	5.16298
260.136	5.65409
261.939	6.46549
263.742	7.08918
265.544	7.40939
267.346	6.64892
269.148	5.49492
270.949	6.53007
272.75	6.25879
274.55	5.32026
276.351	6.66033
278.15	7.75712
279.95	9.58129
281.749	8.78753
283.548	9.85505
285.346	9.6816
287.144	9.45731
288.942	9.62829
290.739	11.1088
292.536	10.5758
294.333	10.6997
296.129	10.9562
297.925	10.5354
299.721	10.9589
301.514	10.6974
303.309	10.782
305.104	10.7692
306.898	11.4541
308.692	12.0884
310.486	13.2337
312.279	13.9096
314.072	14.219
315.862	14.8732
317.654	14.4947
319.446	14.3583
321.238	13.8715
323.029	14.1378
324.819	13.6487
326.608	13.8841
328.398	14.4305
330.188	14.0079
331.977	15.0869
333.766	16.0021
335.553	16.2817
337.341	15.5319
339.129	15.7235
340.917	15.0957
342.704	16.002
344.489	16.0463
346.275	15.1343
348.062	14.4874
349.845	13.6507
351.631	13.4363
353.416	13.2696
355.201	12.3447
356.984	11.3755
358.768	10.4824
360.552	10.4455
362.333	8.87869
364.116	8.31086
365.899	8.31394
367.68	7.33108
369.462	7.22419
371.243	6.07346
373.023	5.57802
374.804	4.23646
376.585	4.14953
378.363	5.10601
380.143	4.43857
381.923	4.40908
383.7	5.00221
385.479	5.70214
387.256	5.55572
389.034	5.51991
390.812	5.79419
392.588	7.28178
394.365	8.94877
396.14	9.15488
397.916	9.32516
399.691	9.44793
401.467	9.8146
403.24	9.79677
405.015	10.2193
406.788	11.2591
408.563	13.1716
410.335	13.8358
412.109	13.6508
413.88	13.5345
415.654	14.3956
417.424	14.9137
419.197	14.8063
420.967	16.1813
422.739	15.8177
424.508	15.7515
426.279	14.4106
428.048	14.732
429.819	14.0683
431.587	13.4761
433.356	12.5122
435.124	10.6642
436.891	10.7497
438.66	10.8265
440.426	10.9326
442.194	9.90156
443.96	8.49328
445.725	8.73179
447.492	7.90367
449.257	8.13974
451.021	7.471
452.787	7.39069
454.551	7.5679
456.314	7.43582
458.079	7.40275
459.842	7.48025
461.604	7.49505
463.368	7.89724
465.13	8.63678
466.891	9.5753
468.654	10.0785
470.415	11.1332
472.175	11.9968
473.935	12.2746
475.696	13.1405
477.456	14.494
479.215	16.719
480.973	17.9102
482.733	19.1829
484.491	19.3
486.249	20.9917
488.006	22.261
489.765	23.6145
491.522	24.6479
493.278	26.5552
495.034	28.3312
496.789	28.9841
498.544	28.9061
500.301	29.6915
502.056	32.0593
503.81	32.7771
505.564	33.0265
507.317	33.8598
509.071	34.7422
510.825	35.1512
512.578	35.6401
514.33	34.7622
516.082	35.5169
517.833	35.0235
519.585	34.3312
521.335	33.9783
523.086	32.6235
524.836	32.9975
526.586	32.7652
528.335	30.7618
530.085	30.0619
531.835	29.2643
533.584	28.6871
535.332	28.2615
537.08	27.7555
538.827	27.5409
540.574	26.5738
542.321	25.7847
544.068	23.9367
545.814	23.1084
547.56	22.2187
549.305	20.4275
551.05	19.4845
552.795	18.2237
554.54	17.8243
556.282	16.5291
558.025	14.7566
559.769	13.9393
561.512	12.224
563.255	11.6983
564.997	10.497
566.739	10.2002
568.481	8.87049
570.223	7.61621
571.964	6.96615
573.705	6.35592
575.443	6.37976
577.183	5.72095
578.923	6.03432
580.663	5.82606
582.402	5.02257
584.141	5.23787
585.879	4.84852
587.615	5.20598
589.353	5.89241
591.09	5.44764
592.828	6.57494
594.564	6.82912
596.299	6.49521
598.035	6.48669
599.771	6.529
601.506	5.64555
603.242	6.39447
604.974	6.17838
606.709	7.40492
608.443	8.0683
610.177	8.2086
611.908	9.61873
613.642	10.4379
615.374	10.601
617.105	11.9081
618.837	12.6682
620.569	13.8495
622.3	16.0983
624.03	16.2668
625.761	16.1919
627.491	16.3516
629.219	16.6231
630.949	17.4447
632.677	19.171
634.406	19.7647
636.135	19.3561
637.861	19.5784
639.59	19.6748
641.318	19.6611
643.043	18.7517
644.77	19.5899
646.495	20.745
648.222	21.363
649.948	22.1406
651.672	22.0444
653.398	24.214
655.121	23.8909
656.846	24.9834
658.569	24.9442
660.293	24.7079
662.015	25.72
663.738	24.8832
665.46	24.7724
667.183	24.0892
668.903	24.3772
670.626	25.2768
672.346	24.7675
674.067	24.8118
675.787	24.7603
677.508	25.207
679.226	25.7981
680.947	25.2493
682.665	26.3716
684.385	26.2102
686.102	26.9155
687.821	27.7714
689.538	29.5376
691.254	30.4056
692.972	32.1789
694.688	33.1644
696.406	33.1608
698.121	34.2033
699.835	34.6922
701.552	34.2198
703.266	35.3578
704.98	36.5478
706.695	36.8967
708.409	38.3097
710.121	38.6657
711.836	40.3477
713.548	43.1642
715.26	44.1345
716.973	45.6919
718.685	46.5433
720.396	46.1852
722.108	46.4537
723.818	46.7055
725.528	47.2972
727.238	48.0921
728.949	49.0403
730.658	50.7265
732.367	51.0163
734.075	51.8374
735.785	52.6076
737.493	52.6899
739.2	54.3443
740.907	53.7139
742.614	54.5798
744.322	54.5962
746.028	55.755
747.734	55.9629
749.439	56.2939
751.144	57.1808
752.849	58.2942
754.555	60.7268
756.26	62.2689
757.963	63.5518
759.667	65.2463
761.37	66.4499
763.073	69.2746
764.775	71.2504
766.477	72.4043
768.179	73.2806
769.883	75.0832
771.584	78.6038
773.285	81.2019
774.986	82.7258
776.686	84.1854
778.386	85.8495
780.085	86.665
781.785	86.9092
783.484	88.9194
785.182	89.4466
786.881	90.0388
788.579	92.8794
790.276	93.912
791.974	94.8694
793.671	97.0204
795.367	97.6421
797.064	98.9339
798.76	99.1313
800.456	98.2654
802.151	98.3718
803.846	97.6485
805.541	96.8562
807.234	96.7895
808.928	96.4409
810.622	96.3894
812.315	96.6607
814.008	96.1852
815.701	97.0264
817.394	95.9575
819.086	94.6826
820.778	93.9113
822.468	92.2142
824.159	92.1517
825.85	90.0778
827.541	89.284
829.231	88.6599
830.921	87.8577
832.609	87.3795
834.298	87.0652
835.987	85.7425
837.676	86.1076
839.364	85.902
841.051	83.7563
842.738	83.4119
844.426	81.8499
846.113	79.8947
847.798	78.5876
849.484	77.6292
851.171	76.5825
852.857	75.6559
854.54	76.2663
856.226	74.994
857.911	73.8292
859.593	71.6093
861.278	69.4467
862.961	68.3826
864.645	65.2788
866.327	64.5183
868.01	63.4031
869.692	63.5493
871.373	62.045
873.055	61.8913
874.735	60.1181
876.416	58.6416
878.097	59.3904
879.776	59.4028
881.457	59.072
883.135	58.061
884.815	57.2654
886.495	56.5029
888.172	55.7013
889.851	56.1589
891.528	56.4995
893.206	55.4837
894.882	54.7688
896.56	54.0606
898.237	52.9644
899.912	52.4009
901.589	50.5943
903.263	50.8845
904.94	51.5112
906.614	51.5443
908.289	52.7894
909.962	52.2589
911.635	52.66
913.31	52.2953
914.982	52.1124
916.656	51.6253
918.328	51.9157
920.001	51.4123
921.672	52.0049
923.345	51.3491
925.015	50.5434
926.685	49.9486
928.357	48.387
930.026	48.1777
931.698	48.0154
933.366	48.9438
935.035	48.453
936.705	48.5797
938.373	48.5288
940.041	47.4977
941.71	46.3583
943.377	44.0391
945.044	42.1793
946.712	40.5752
948.378	38.957
950.044	39.7952
951.709	40.6975
953.376	43.1989
955.041	42.984
956.706	45.6367
958.372	45.7046
960.036	46.6553
961.699	49.0054
963.362	49.6644
965.027	51.229
966.69	52.497
968.352	52.2814
970.014	53.1663
971.676	54.1534
973.339	54.1861
975	54.4606
976.661	54.8665
978.322	56.3084
979.982	58.3394
981.642	59.5511
983.303	59.5079
984.962	60.3725
986.621	61.2368
988.28	60.6629
989.938	60.788
991.596	60.7245
993.254	59.8015
994.911	59.8547
996.57	60.3244
998.227	60.5824
999.884	60.3531
1001.54	60.3695
1003.2	59.0109
1004.85	59.1104
1006.51	58.0569
1008.16	57.5132
1009.82	56.8248
1011.47	56.5129
1013.12	55.6408
1014.78	54.7352
1016.43	54.5966
1018.08	53.0571
1019.74	51.0728
1021.39	49.5843
1023.04	47.8335
1024.69	46.6373
1026.34	45.8647
1028	45.7542
1029.65	46.0944
1031.3	46.8693
1032.95	48.3592
1034.6	49.6775
1036.25	49.4214
1037.9	47.9095
1039.54	47.1681
1041.19	45.8592
1042.84	46.7057
1044.49	47.5506
1046.14	47.4076
1047.78	46.9732
1049.43	44.9054
1051.08	43.3995
1052.72	43.7594
1054.37	42.9028
1056.02	41.761
1057.66	41.6307
1059.31	41.6649
1060.95	41.3272
1062.6	41.0811
1064.24	40.3802
1065.88	39.6433
1067.53	39.4286
1069.17	40.2166
1070.81	40.8203
1072.45	41.355
1074.1	42.0132
1075.74	42.1909
1077.38	42.8977
1079.02	42.8411
1080.66	42.2862
1082.3	42.2112
1083.94	42.162
1085.58	42.9349
1087.22	42.8202
1088.86	42.9968
1090.5	42.7351
1092.14	41.9347
1093.78	40.6359
1095.42	40.1736
1097.05	39.6897
1098.69	38.4978
1100.33	37.6854
1101.96	36.9111
1103.6	38.2651
1105.24	37.8055
1106.87	37.2194
1108.51	36.4428
1110.14	35.6968
1111.78	34.5721
1113.41	33.5405
1115.05	32.5218
1116.68	30.634
1118.31	28.6187
1119.95	27.7527
1121.58	26.8252
1123.21	26.7605
1124.85	26.2492
1126.48	23.4217
1128.11	21.5593
1129.74	20.811
1131.37	18.9866
1133	18.4322
1134.63	16.8596
1136.26	16.1804
1137.89	15.669
1139.52	14.8844
1141.15	14.5706
1142.78	13.7926
1144.41	13.2269
1146.04	13.0428
1147.66	11.4329
1149.29	10.1092
1150.92	10.5484
1152.55	9.23739
1154.17	8.33775
1155.8	8.82957
1157.43	7.97659
1159.05	7.65305
1160.68	6.27968
1162.3	5.536
1163.93	5.33124
1165.55	5.03642
1167.17	4.43317
1168.8	3.38419
1170.42	3.71502
1172.05	3.88457
1173.67	3.33523
1175.29	3.81494
1176.91	4.56818
1178.54	4.87005
1180.16	5.59455
1181.78	6.94628
1183.4	7.68602
1185.02	8.62343
1186.64	8.04385
1188.26	8.74605
1189.88	10.5684
1191.5	11.8758
1193.12	13.913
1194.74	15.6028
1196.36	16.5179
1197.97	17.755
1199.59	19.3954
1201.21	22.488
1202.83	24.5591
1204.44	27.1538
1206.06	27.4723
1207.68	29.368
1209.29	32.5352
1210.91	35.5494
1212.52	37.6453
1214.14	40.0592
1215.75	41.6115
1217.37	44.5185
1218.98	46.1764
1220.59	48.0915
1222.21	51.2005
1223.82	53.6233
1225.43	56.2006
1227.05	58.3327
1228.66	60.198
1230.27	62.9405
1231.88	65.8036
1233.49	68.2931
1235.1	71.3883
1236.72	74.3945
1238.33	76.2371
1239.94	78.7104
1241.55	81.5466
1243.16	83.9596
1244.76	85.9115
1246.37	87.6508
1247.98	89.5683
1249.59	90.9105
1251.2	92.289
1252.8	93.136
1254.41	93.1341
1256.02	94.9308
1257.62	94.7206
1259.23	95.9662
1260.84	96.5927
1262.44	97.9584
1264.05	98.7347
1265.66	100.214
1267.26	101.491
1268.86	103.155
1270.47	105.879
1272.07	107.603
1273.67	109.175
1275.28	109.022
1276.88	109.385
1278.48	111.093
1280.09	112.649
1281.69	113.721
1283.29	114.658
1284.89	115.942
1286.49	115.97
1288.09	118.205
1289.69	118.247
1291.29	119.564
1292.89	119.765
1294.49	119.329
1296.09	119.947
1297.69	120.42
1299.29	120.74
1300.89	120.297
1302.49	120.708
1304.08	120.531
1305.68	120.061
1307.28	120.672
1308.88	120.548
1310.47	120.838
1312.07	121.775
1313.66	122.815
1315.26	123.03
1316.85	124.002
1318.45	123.887
1320.04	123.241
1321.64	122.753
1323.23	121.17
1324.83	120.123
1326.42	118.79
1328.01	117.55
1329.61	115.454
1331.2	114.05
1332.79	112.118
1334.38	111.115
1335.97	109.797
1337.56	107.162
1339.16	105.883
1340.75	103.958
1342.34	102.9
1343.93	100.578
1345.52	98.2776
1347.11	95.5049
1348.7	93.5165
1350.29	92.2063
1351.87	89.1602
1353.46	86.4344
1355.05	83.6497
1356.64	82.5474
1358.22	81.0114
1359.81	77.4978
1361.4	74.7216
1362.98	73.1723
1364.57	70.5402
1366.16	68.03
1367.74	66.6855
1369.33	64.1821
1370.91	62.2418
1372.5	59.5817
1374.08	56.7293
1375.67	54.9185
1377.25	52.2833
1378.83	51.1193
1380.41	50.6033
1382	49.6959
1383.58	48.3845
1385.16	48.036
1386.74	48.9365
1388.33	49.0282
1389.91	49.5412
1391.49	50.0818
1393.07	48.6479
1394.65	49.2093
1396.23	49.2633
1397.81	47.6438
1399.39	46.2607
1400.97	45.7724
1402.55	45.1023
1404.13	45.1293
1405.7	45.5891
1407.28	45.4825
1408.86	44.8224
1410.44	45.703
1412.01	47.1747
1413.59	49.3035
1415.17	50.3686
1416.74	51.8732
1418.32	54.2697
1419.89	56.883
1421.47	59.5867
1423.04	62.1574
1424.62	64.7887
1426.19	68.6515
1427.77	72.2848
1429.34	76.1465
1430.91	79.6584
1432.49	83.4424
1434.06	85.9348
1435.63	89.8641
1437.2	91.7492
1438.78	94.1709
1440.35	97.5864
1441.92	100.952
1443.49	103.154
1445.06	105.811
1446.63	107.967
1448.2	108.499
1449.77	108.497
1451.34	108.886
1452.91	109.133
1454.48	110.023
1456.05	110.269
1457.62	110.59
1459.18	109.446
1460.75	107.049
1462.32	105.269
1463.89	103.375
1465.45	100.18
1467.02	96.3242
1468.59	92.2161
1470.15	88.0051
1471.72	83.7509
1473.28	80.5812
1474.85	75.1973
1476.41	70.122
1477.98	66.2659
1479.54	62.1568
1481.1	58.6446
1482.67	54.8335
1484.23	50.5068
1485.79	45.8836
1487.36	42.4773
1488.92	40.7731
1490.48	37.6741
1492.04	33.7365
1493.61	30.2673
1495.17	27.7703
1496.73	25.5249
1498.29	24.6881
1499.85	22.9942
1501.41	21.7788
1502.97	21.025
1504.53	20.6936
1506.09	20.1127
1507.65	20.6354
1509.2	20.3928
1510.76	20.0018
1512.32	19.2277
1513.88	19.7148
1515.43	19.1935
1516.99	20.1396
1518.55	20.5183
1520.1	20.8703
1521.66	21.0275
1523.22	22.2261
1524.77	22.729
1526.33	22.4138
1527.88	23.3471
1529.44	25.4047
1530.99	26.6257
1532.54	27.5152
1534.1	28.0797
1535.65	28.938
1537.21	29.7145
1538.76	31.4667
1540.31	33.5259
1541.86	35.3322
1543.42	37.4345
1544.97	40.8508
1546.52	43.2965
1548.07	46.4606
1549.62	48.585
1551.17	50.292
1552.72	52.1031
1554.27	54.1226
1555.82	57.3643
1557.37	58.7372
1558.92	61.0806
1560.47	62.1775
1562.02	64.5532
1563.56	67.7436
1565.11	69.736
1566.66	71.9198
1568.21	72.9617
1569.75	74.9365
1571.3	77.8469
1572.85	80.6427
1574.39	83.1333
1575.94	85.4784
1577.49	87.3812
1579.03	90.0441
1580.57	91.5158
1582.12	93.5227
1583.66	95.5984
1585.21	96.2169
1586.75	95.847
1588.3	96.4369
1589.84	97.0797
1591.38	97.2228
1592.92	97.5325
1594.47	98.3238
1596.01	97.934
1597.55	97.552
1599.09	96.6695
1600.63	97.0218
1602.17	96.5102
1603.71	95.5705
1605.25	95.5196
1606.79	95.2812
1608.33	94.7406
1609.87	94.2327
1611.41	94.5472
1612.95	94.5981
1614.49	95.7161
1616.03	96.5173
1617.57	97.2018
1619.1	97.5828
1620.64	98.6373
1622.18	100.016
1623.72	101.106
1625.25	102.037
1626.79	103.4
1628.32	106.672
1629.86	109.216
1631.39	111.367
1632.93	113.796
1634.46	115.175
1636	118.439
1637.53	120.568
1639.07	125.037
1640.6	127.152
1642.13	128.917
1643.67	131.923
1645.2	134.74
1646.73	137.546
1648.26	139.795
1649.8	142.084
1651.33	143.252
1652.86	144.753
1654.39	146.995
1655.92	148.024
1657.45	148.509
1658.98	149.064
1660.51	148.494
1662.04	147.018
1663.57	147.039
1665.1	145.853
1666.63	143.691
1668.16	141.648
1669.68	139.646
1671.21	137.457
1672.74	134.06
1674.27	130.235
1675.79	127.252
1677.32	124.14
1678.85	119.635
1680.37	114.501
1681.9	109.974
1683.42	105.205
1684.95	100.413
1686.47	95.4306
1688	90.3176
1689.52	85.2907
1691.05	80.5555
1692.57	74.6413
1694.09	70.2398
1695.62	65.7654
1697.14	61.0291
1698.66	58.1443
1700.18	54.9877
1701.71	50.4244
1703.23	47.1923
1704.75	43.5293
1706.27	39.3272
1707.79	36.114
1709.31	33.2167
1710.83	30.7966
1712.35	28.649
1713.87	26.1612
1715.39	24.5432
1716.91	21.91
1718.43	20.3176
1719.95	18.6406
1721.47	17.6174
1722.99	16.0145
1724.5	14.837
1726.02	13.7123
1727.54	12.5197
1729.06	12.1558
1730.57	11.4726
1732.09	10.9344
1733.61	9.77692
1735.12	8.58837
1736.64	8.30775
1738.15	8.09552
1739.67	7.94893
1741.18	7.21388
1742.7	7.00382
1744.21	7.0775
1745.72	6.68456
1747.24	6.28872
1748.75	5.99447
1750.26	4.99523
1751.77	4.45385
1753.29	3.40102
1754.8	3.21159
1756.31	2.6724
1757.82	2.58108
1759.33	2.36263
1760.84	1.80861
1762.36	1.59824
1763.87	0.822563
1765.38	0.814192
1766.89	0.262383
1768.4	0.0581641
1769.91	0.211782
1771.41	-0.229714
1772.92	-0.478383
1774.43	-0.0305891
1775.94	-0.427051
1777.45	-1.44841
1778.95	-1.01911
1780.46	-0.812523
1781.97	-1.07434
1783.48	-0.939729
1784.98	-1.07213
1786.49	-0.810647
1787.99	-0.63745
1789.5	-0.0803636
1791.01	-0.0309401
1792.51	-0.261835
1794.01	-0.440029
1795.52	-0.465371
1797.02	0.317147
1798.53	0.284378
1800.03	0.292619
1801.53	0.242719
1803.04	0.488842
1804.54	0.699864
1806.04	1.03556
1807.54	0.784226
1809.05	0.330968
1810.55	0.860209
1812.05	1.51332
1813.55	1.63163
1815.05	1.42578
1816.55	1.74554
1818.05	2.23753
1819.55	2.1547
1821.05	2.28338
1822.55	2.13786
1824.05	2.34374
1825.55	2.31764
1827.05	2.9236
1828.55	3.55928
1830.04	4.04353
1831.54	3.86714
1833.04	4.15996
1834.54	4.54182
1836.03	4.70928
1837.53	5.02625
1839.03	5.08316
1840.52	5.1749
1842.02	4.56036
1843.51	4.5943
1845.01	5.13167
1846.5	5.62875
1848	5.51266
1849.49	5.47224
1850.99	5.12284
1852.48	5.16924
1853.97	5.30058
1855.47	5.18797
1856.96	5.80273
1858.45	5.70699
1859.94	5.90728
1861.44	6.29444
1862.93	6.22553
1864.42	5.57132
1865.91	5.02591
1867.4	4.48818
1868.89	5.09445
1870.38	4.9144
1871.87	5.11698
1873.36	5.14664
1874.85	4.99722
1876.34	4.88553
1877.83	4.63235
1879.32	4.43555
1880.81	4.20899
1882.3	3.7196
1882.57	4.30001
1884.07	4.24054
1885.56	3.98881
1887.06	3.92659
1888.55	3.62323
1890.04	3.02772
1891.54	2.54859
1893.03	1.45262
1894.52	1.48846
1896.02	1.54361
1897.51	1.70751
1899	1.26217
1900.49	1.56073
1901.98	1.61632
1903.47	1.93425
1904.96	1.75057
1906.45	1.55563
1907.94	1.86556
1909.43	2.02406
1910.92	2.73654
1912.41	3.10069
1913.9	3.11006
1915.39	3.33406
1916.88	4.0024
1918.37	4.52568
1919.85	3.75632
1921.34	3.47039
1922.83	3.63432
1924.32	4.49906
1925.8	4.72345
1927.29	4.9481
1928.78	4.30026
1930.26	3.73574
1931.75	3.33538
1933.23	3.80328
1934.72	3.56185
1936.2	3.15544
1937.69	3.11971
1939.17	3.46711
1940.66	3.43995
1942.14	4.30917
1943.63	4.02757
1945.11	4.34242
1946.59	4.38718
1948.07	3.9828
1949.56	3.93138
1951.04	3.91583
1952.52	4.2358
1954	4.25498
1955.48	4.30251
1956.96	4.40571
1958.45	3.91569
1959.93	3.13634
1961.41	2.98456
1962.89	2.05506
1964.37	2.19647
1965.85	2.60831
1967.32	2.74387
1968.8	3.57124
1970.28	3.32687
1971.76	3.35431
1973.24	3.5846
1974.72	4.59449
1976.19	4.07446
1977.67	4.45777
1979.15	4.68246
1980.63	5.50929
1982.1	6.64943
1983.58	7.05293
1985.05	7.33683
1986.53	7.63016
1988	7.33676
1989.48	7.43097
1990.95	7.39971
1992.43	7.18803
1993.9	7.27695
1995.38	8.06128
1996.85	7.97504
1998.32	7.25316
1999.8	6.0508
2001.27	5.74677
2002.74	5.53259
2004.22	6.42767
2005.69	6.80845
2007.16	6.4392
2008.63	5.78191
2010.1	6.05401
2011.57	6.15831
2013.04	5.94962
2014.51	6.08265
2015.98	6.36005
2017.45	6.14113
2018.92	5.85891
2020.39	5.23857
2021.86	4.49795
2023.33	4.49243
2024.8	4.79601
2026.27	5.04748
2027.74	4.66405
2029.2	4.8648
2030.67	4.64241
2032.14	4.72801
2033.61	4.73243
2035.07	5.55243
2036.54	6.16264
2038.01	6.9099
2039.47	7.0545
2040.94	7.39993
2042.4	7.4548
2043.87	8.33138
2045.33	9.04539
2046.8	10.2269
2048.26	10.9477
2049.72	11.9894
2051.19	13.3149
2052.65	14.1756
2054.12	14.592
2055.58	15.4107
2057.04	16.0771
2058.5	17.3021
2059.97	17.4786
2061.43	17.7864
2062.89	19.021
2064.35	20.2506
2065.81	20.7214
2067.27	21.7644
2068.73	21.8744
2070.19	22.1114
2071.65	22.1961
2073.11	23.163
2074.57	23.6955
2076.03	25.0259
2077.49	25.5026
2078.95	25.8608
2080.41	26.9551
2081.87	27.7251
2083.32	29.1749
2084.78	29.0858
2086.24	29.9097
2087.7	30.5589
2089.15	30.8787
2090.61	31.4089
2092.07	31.9097
2093.52	32.8476
2094.98	33.5109
2096.43	34.9161
2097.89	36.5885
2099.34	37.754
2100.8	39.6705
2102.25	40.7879
2103.71	42.0079
2105.16	44.0079
2106.61	46.1403
2108.07	47.8246
2109.52	49.8761
2110.97	51.5742
2112.43	53.7426
2113.88	56.8051
2115.33	58.7835
2116.78	61.7836
2118.23	63.5105
2119.68	67.1153
2121.13	69.6336
2122.59	72.7387
2124.04	75.237
2125.49	78.0146
2126.94	81.6048
2128.39	85.3489
2129.83	88.9555
2131.28	91.7784
2132.73	94.5217
