#Acq. time (s)=	45
#Accumulations=	2
#Range (cm-¹)=	200...3150
#Windows=	2
#Auto scanning=	Off
#Autofocus=	Off
#Macrospot=	Off
#AutoExposure=	Off
#Spike filter=	Multiple accum.
#Delay time (s)=	0
#Binning=	1
#Readout mode=	Signal
#DeNoise=	Off
#ICS correction=	On
#Dark correction=	Off
#Inst. Process=	Off
#Detector Gain=	Best Dynamic Range
#Detector ADC=	20 kHz       
#Detector temperature (°C)=	-69.85
#Instrument=	LabRAM HR Evol
#Detector=	Synapse
#Objective=	x100
#Grating=	600 gr/mm
#ND Filter=	100%
#Laser (nm)=	532 
#Hole=	100.021
#Range=	Auto
#Laser Pol.=	No
#Raman. Pol.=	No
#Laser Pol. (°)=	-0.0007625
#Raman Pol. (°)=	89.9995
#Collection=	Microscope
#StageXY=	Marzhauser
#StageZ=	Marzhauser
#X (µm)=	8965.3
#Y (µm)=	-3049.1
#Z (µm)=	-54.85
#Full time(mm:ss)=	3:19
#Project=	
#Sample=	
#Site=	
#Title=	Thy_00_07_40_2x_45s_532 nm_x100_100%_600 gr_mm
#Remark=	
#Date=	28.06.2022 13:01
#Acquired=	28.06.2022 13:01:17
#Base:Fit=	10.08.2022 10:07:56
#Base:Sub=	10.08.2022 10:08:40
#Filter:Polynom=	16.08.2022 10:26:06
#AxisType[0]=Intens
#AxisUnit[0]=Cnt
#AxisType[1]=Spectr
#AxisUnit[1]=1/cm
200.407	0.0815877
202.221	2.66158
204.035	5.04941
205.849	6.43375
207.665	7.74279
209.478	9.12437
211.291	10.6413
213.104	10.755
214.916	12.0309
216.73	13.1727
218.541	13.3355
220.352	12.6143
222.163	12.8553
223.973	12.2752
225.785	11.6794
227.595	11.1919
229.404	11.5389
231.213	12.1171
233.022	12.2458
234.83	11.9868
236.638	12.5997
238.448	13.3183
240.255	13.5196
242.062	12.5796
243.868	11.5327
245.675	11.2576
247.48	10.5213
249.286	10.4341
251.091	10.0032
252.896	9.24792
254.702	9.36811
256.506	9.74002
258.31	9.05819
260.113	8.31151
261.916	7.32468
263.719	6.71296
265.521	5.64855
267.323	6.19462
269.125	5.75413
270.926	5.51502
272.727	5.50888
274.527	4.75518
276.328	4.36974
278.127	4.72572
279.927	4.3054
281.726	4.17999
283.525	3.85249
285.323	3.92036
287.121	3.76681
288.919	3.99248
290.716	3.45552
292.513	2.90608
294.31	2.26718
296.104	2.18479
297.9	2.23403
299.696	1.59524
301.491	1.78053
303.286	1.71312
305.081	2.87739
306.875	2.70874
308.669	2.05097
310.463	1.99381
312.256	2.3383
314.047	2.80917
315.839	3.52726
317.631	4.12781
319.423	4.89169
321.215	5.63565
323.006	6.0517
324.794	5.99877
326.585	7.55427
328.375	6.95564
330.165	6.30485
331.954	5.87095
333.741	6.64588
335.53	7.11517
337.318	7.0106
339.106	7.62931
340.894	7.64033
342.679	7.55849
344.466	7.00828
346.253	7.84729
348.039	7.34816
349.823	7.22123
351.608	7.43728
353.393	8.24711
355.176	8.59894
356.961	8.34211
358.745	7.27359
360.529	7.27577
362.31	7.74805
364.093	6.61267
365.876	7.14491
367.657	7.26642
369.439	6.34645
371.221	6.52087
373	6.68988
374.781	6.86121
376.56	7.00797
378.34	7.03865
380.12	5.72434
381.898	5.19538
383.677	5.32886
385.456	5.43795
387.233	5.64665
389.011	5.19243
390.787	6.29212
392.565	5.43651
394.34	4.88795
396.117	4.6236
397.894	4.63324
399.668	4.97281
401.444	5.53569
403.217	6.01551
404.993	5.45508
406.766	5.81289
408.54	6.80308
410.312	8.01062
412.086	7.96682
413.858	8.81863
415.631	9.18981
417.402	8.97465
419.174	9.82453
420.944	9.5544
422.716	10.0186
424.486	9.75858
426.257	10.3079
428.025	10.5437
429.794	11.3241
431.564	10.6601
433.332	10.201
435.101	10.7431
436.868	9.96224
438.637	10.4967
440.403	10.5844
442.169	10.4721
443.937	9.78569
445.703	9.25462
447.468	9.18306
449.234	10.2432
450.999	10.1427
452.765	9.10688
454.528	9.88602
456.292	10.0524
458.057	10.235
459.819	10.2341
461.582	9.41353
463.344	7.93139
465.107	6.98635
466.868	6.17656
468.629	4.94338
470.392	5.44117
472.152	5.1195
473.912	3.99629
475.672	4.04154
477.433	4.02335
479.192	3.72762
480.951	3.62557
482.709	3.97212
484.469	4.47038
486.226	5.38597
487.984	5.82224
489.74	6.16642
491.499	5.87899
493.255	6.51663
495.011	7.5503
496.767	7.15658
498.522	7.78151
500.277	8.34768
502.033	9.4419
503.788	9.03855
505.541	9.73311
507.295	9.31655
509.048	9.63911
510.801	11.4299
512.553	11.1887
514.308	11.6731
516.06	11.2981
517.811	11.2687
519.562	10.4006
521.313	10.3601
523.063	10.2281
524.814	10.7175
526.563	11.404
528.313	10.9243
530.062	11.1545
531.811	11.0154
533.559	11.1288
535.308	11.627
537.055	11.618
538.803	11.0373
540.55	10.853
542.297	10.8829
544.043	9.90814
545.789	9.09205
547.535	7.71175
549.281	7.21671
551.026	6.53698
552.771	6.32633
554.515	6.42028
556.259	5.63138
558.003	6.25011
559.747	5.04649
561.49	5.05702
563.233	4.98078
564.975	4.95737
566.717	4.5354
568.459	4.86413
570.2	4.23098
571.942	4.45192
573.68	3.55106
575.421	2.76344
577.161	1.79445
578.901	1.2924
580.64	1.08874
582.379	0.920681
584.118	1.22412
585.855	2.76904
587.593	3.17068
589.331	3.1753
591.068	3.33222
592.805	2.69687
594.54	2.60414
596.277	3.51572
598.013	3.36882
599.749	2.67354
601.484	2.65535
603.217	2.32388
604.952	2.47561
606.687	2.38835
608.421	2.37082
610.153	2.92366
611.886	3.07159
613.619	3.42634
615.35	4.71425
617.083	5.22763
618.815	5.99036
620.547	6.50781
622.276	6.83074
624.008	7.11723
625.738	7.65347
627.467	8.05599
629.197	7.67882
630.927	8.41005
632.655	8.61601
634.384	8.84842
636.113	9.13867
637.839	9.96773
639.568	10.5353
641.293	11.2911
643.021	12.1977
644.748	13.5662
646.473	14.2339
648.2	16.0629
649.924	16.2843
651.65	17.7741
653.376	18.7155
655.099	18.9393
656.824	19.3506
658.546	20.5143
660.271	20.3643
661.993	21.0873
663.716	21.6056
665.438	23.0023
667.161	23.9524
668.881	24.7895
670.604	25.8075
672.324	26.5467
674.045	26.7483
675.765	26.9328
677.486	26.7735
679.204	26.5757
680.925	27.7184
682.643	28.0907
684.361	29.0228
686.08	29.5271
687.797	29.0854
689.516	29.7716
691.232	30.1545
692.95	30.4388
694.666	31.1481
696.382	31.8089
698.099	32.278
699.813	33.9971
701.528	34.6143
703.244	34.1342
704.958	33.8072
706.673	34.3135
708.387	34.7237
710.099	34.7096
711.814	35.056
713.526	34.979
715.238	35.5269
716.949	36.2181
718.663	35.4809
720.374	35.7098
722.084	36.1876
723.796	37.3089
725.506	38.0247
727.216	38.6828
728.925	39.2936
730.636	40.1855
732.345	40.599
734.053	40.677
735.761	40.2011
737.471	41.2747
739.178	41.1295
740.885	41.4085
742.592	42.2637
744.298	43.4745
746.006	43.7245
747.712	44.9424
749.417	45.9283
751.122	48.0803
752.827	49.3336
754.532	50.0214
756.236	51.7412
757.942	52.4286
759.645	53.2508
761.348	55.0697
763.051	56.5163
764.753	58.5444
766.456	59.9529
768.158	61.4274
769.859	63.4109
771.56	64.2234
773.261	64.0735
774.964	65.7743
776.664	67.2033
778.364	67.7013
780.064	68.5703
781.763	69.5294
783.462	70.4523
785.16	70.8525
786.859	70.7804
788.557	70.9759
790.255	72.6163
791.952	74.314
793.649	74.2063
795.346	74.2624
797.042	74.4078
798.738	74.9646
800.434	75.8113
802.127	75.4998
803.823	75.5964
805.517	76.0313
807.212	76.0893
808.906	75.5979
810.6	75.5231
812.293	74.6633
813.987	74.1946
815.68	73.3958
817.372	72.5681
819.064	71.7095
820.754	71.2027
822.446	71.6166
824.137	72.0282
825.828	72.2499
827.519	72.2179
829.209	72.3401
830.897	71.949
832.587	71.4828
834.276	71.2028
835.966	72.5094
837.654	72.1203
839.341	71.1479
841.029	70.645
842.717	70.5876
844.404	70.6885
846.091	69.8102
847.776	68.9895
849.463	68.4413
851.149	67.2864
852.833	66.4827
854.519	64.9894
856.204	63.6537
857.889	61.5163
859.572	61.0554
861.256	60.0751
862.94	58.2836
864.622	57.1911
866.305	56.0509
867.988	54.5233
869.669	52.7706
871.351	51.994
873.033	52.1632
874.713	52.167
876.395	49.5219
878.074	48.4151
879.755	47.7911
881.435	47.287
883.114	47.9596
884.794	47.1275
886.471	46.5367
888.15	45.8426
889.829	45.1871
891.506	44.7468
893.184	45.1329
894.861	45.5769
896.538	44.2557
898.214	44.1705
899.891	43.5832
901.566	45.2717
903.242	45.4333
904.916	46.319
906.592	46.9568
908.266	46.4165
909.941	46.1746
911.614	46.5966
913.288	46.493
914.961	46.8241
916.635	47.2065
918.306	47.5151
919.979	47.173
921.651	45.9997
923.321	46.1725
924.994	46.2327
926.664	46.7637
928.336	46.1979
930.005	45.6758
931.674	46.1263
933.345	45.7359
935.014	45.9902
936.682	45.2545
938.352	44.4554
940.019	44.0636
941.687	42.8596
943.356	41.8259
945.022	41.252
946.689	39.9887
948.357	39.5203
950.022	39.0711
951.688	38.1197
953.355	38.2012
955.02	37.7384
956.684	36.6334
958.348	34.5195
960.014	32.8446
961.678	32.797
963.341	32.9561
965.004	33.8759
966.669	34.3647
968.331	34.6179
969.993	34.9719
971.655	35.7237
973.316	37.0467
974.979	37.9509
976.64	39.2242
978.3	38.2025
979.961	37.8369
981.62	39.2597
983.28	39.9995
984.941	40.2106
986.6	38.5203
988.259	38.1526
989.917	37.0659
991.575	35.8222
993.233	36.1189
994.89	34.9215
996.547	34.9207
998.204	34.5183
999.86	33.3539
1001.52	32.7274
1003.17	31.4843
1004.83	32.042
1006.49	32.0254
1008.14	31.2375
1009.79	31.8168
1011.45	31.0658
1013.1	30.8615
1014.76	30.6902
1016.41	30.3553
1018.06	29.6497
1019.72	27.6996
1021.37	26.5352
1023.02	25.4622
1024.67	24.3533
1026.32	24.0482
1027.97	23.594
1029.62	23.0174
1031.27	22.905
1032.92	21.6502
1034.57	20.1172
1036.22	19.1543
1037.87	17.6484
1039.52	17.1945
1041.17	17.2871
1042.82	17.2468
1044.47	18.584
1046.11	18.9314
1047.76	19.1143
1049.41	18.9751
1051.06	19.1931
1052.7	19.5838
1054.35	20.3588
1055.99	19.8227
1057.64	19.6225
1059.28	19.5446
1060.93	19.2081
1062.57	20.0778
1064.22	19.8005
1065.86	18.9303
1067.5	17.5826
1069.15	17.387
1070.79	16.8395
1072.43	15.7477
1074.08	15.5024
1075.72	15.6207
1077.36	15.1638
1079	15.546
1080.64	15.2154
1082.28	15.3648
1083.92	15.1448
1085.56	14.682
1087.2	16.0049
1088.84	15.5857
1090.48	15.9018
1092.12	16.8321
1093.76	16.0551
1095.39	17.1894
1097.03	16.8485
1098.67	16.3564
1100.31	15.7025
1101.94	16.0413
1103.58	16.915
1105.22	17.4585
1106.85	19.1262
1108.49	18.4792
1110.12	17.7811
1111.76	17.2732
1113.39	16.6858
1115.03	15.6575
1116.66	15.3172
1118.29	15.2042
1119.93	15.3535
1121.56	14.6445
1123.19	13.7686
1124.82	13.0615
1126.46	12.8564
1128.09	11.8349
1129.72	12.559
1131.35	12.2125
1132.98	11.6711
1134.61	12.3008
1136.24	11.6853
1137.87	10.871
1139.5	11.6698
1141.13	12.1288
1142.76	11.8803
1144.39	10.5129
1146.01	9.23713
1147.64	8.80723
1149.27	8.48981
1150.9	8.16255
1152.53	6.57846
1154.15	5.86224
1155.78	5.33287
1157.4	5.0811
1159.03	5.21176
1160.65	4.79727
1162.28	4.61027
1163.9	3.9273
1165.53	2.75721
1167.15	2.27915
1168.78	3.15416
1170.4	3.85411
1172.02	4.84836
1173.65	5.35397
1175.27	5.56717
1176.89	6.35092
1178.51	5.73418
1180.14	5.76418
1181.76	6.12098
1183.38	7.56292
1185	7.95759
1186.62	8.101
1188.24	8.78663
1189.86	7.3537
1191.48	7.86589
1193.1	7.94027
1194.71	8.48356
1196.33	10.6567
1197.95	11.3542
1199.57	12.6572
1201.19	14.2851
1202.8	15.0069
1204.42	16.9081
1206.04	19.0671
1207.65	20.3992
1209.27	21.4057
1210.88	22.7291
1212.5	23.3099
1214.12	24.8713
1215.73	27.0302
1217.35	27.8167
1218.96	28.9307
1220.57	30.8978
1222.19	30.8338
1223.8	30.2843
1225.41	30.9223
1227.03	31.3335
1228.64	32.1964
1230.25	33.2053
1231.86	33.3777
1233.47	33.4729
1235.08	33.9475
1236.69	34.6755
1238.31	36.4633
1239.92	36.8486
1241.52	37.506
1243.13	37.5636
1244.74	37.9295
1246.35	38.677
1247.96	40.2066
1249.57	41.3113
1251.18	41.2099
1252.78	39.8429
1254.39	39.2006
1256	39.6619
1257.6	39.2786
1259.21	39.004
1260.82	39.5247
1262.42	40.0188
1264.03	40.4031
1265.63	39.8862
1267.24	39.3213
1268.84	39.609
1270.45	39.1068
1272.05	39.5787
1273.65	40.2716
1275.26	41.1107
1276.86	43.4114
1278.46	42.839
1280.06	44.5901
1281.67	45.3227
1283.27	46.1995
1284.87	47.3245
1286.47	48.3826
1288.07	48.5148
1289.67	49.4301
1291.27	50.4325
1292.87	51.2372
1294.47	52.4294
1296.07	53.0857
1297.67	53.0293
1299.27	53.6822
1300.87	54.5234
1302.47	54.7799
1304.06	56.5339
1305.66	58.7254
1307.26	59.4174
1308.85	61.3385
1310.45	62.9378
1312.05	64.3083
1313.64	66.2823
1315.24	67.4924
1316.83	68.8881
1318.43	70.0765
1320.02	70.7566
1321.62	71.5776
1323.21	71.0597
1324.8	71.5994
1326.4	72.1359
1327.99	71.8629
1329.59	71.2455
1331.18	70.7641
1332.77	69.9568
1334.36	69.9583
1335.95	70.6089
1337.54	70.0352
1339.14	69.4148
1340.73	68.1452
1342.32	66.886
1343.91	65.9153
1345.5	64.8593
1347.09	64.3074
1348.67	64.5448
1350.26	63.0454
1351.85	61.8546
1353.44	60.192
1355.03	58.3853
1356.62	57.127
1358.2	54.2464
1359.79	53.2174
1361.38	51.8256
1362.96	50.488
1364.55	49.3339
1366.14	48.4715
1367.72	46.9789
1369.31	45.929
1370.89	44.5823
1372.48	44.0257
1374.06	42.9507
1375.64	41.8883
1377.23	41.4076
1378.81	40.8761
1380.39	41.2658
1381.98	41.0024
1383.56	40.9289
1385.14	40.9831
1386.72	39.8743
1388.3	40.0529
1389.89	40.8683
1391.47	40.8383
1393.05	40.2702
1394.63	39.047
1396.21	37.9204
1397.79	38.1518
1399.37	38.2086
1400.95	37.7024
1402.52	37.0344
1404.1	37.4782
1405.68	37.8624
1407.26	38.2707
1408.84	39.0653
1410.42	39.7744
1411.99	40.3612
1413.57	42.1741
1415.15	44.2799
1416.72	45.3764
1418.3	46.9241
1419.87	48.208
1421.45	50.5457
1423.02	52.3071
1424.6	54.001
1426.17	56.4888
1427.75	57.5431
1429.32	58.1633
1430.89	59.4831
1432.47	60.9753
1434.04	63.0043
1435.61	65.1097
1437.18	67.2966
1438.76	69.9735
1440.33	71.765
1441.9	73.9062
1443.47	75.8834
1445.04	76.8529
1446.61	77.8569
1448.18	78.2173
1449.75	78.3379
1451.32	79.0364
1452.89	79.491
1454.46	79.465
1456.03	79.3142
1457.6	78.5028
1459.16	77.9028
1460.73	76.3964
1462.3	75.2111
1463.87	72.8375
1465.43	69.6682
1467	67.8148
1468.56	65.5579
1470.13	61.6666
1471.7	57.9279
1473.26	54.3766
1474.83	51.1948
1476.39	48.2629
1477.96	44.2168
1479.52	41.5934
1481.08	39.6864
1482.65	37.0599
1484.21	34.9586
1485.77	32.6198
1487.34	29.8504
1488.9	27.3915
1490.46	24.7229
1492.02	23.6346
1493.58	22.3424
1495.15	20.7848
1496.71	18.6599
1498.27	17.1733
1499.83	16.0764
1501.39	15.3594
1502.95	14.7939
1504.51	14.5427
1506.07	13.8666
1507.63	13.7688
1509.18	14.3541
1510.74	14.5451
1512.3	14.0254
1513.86	13.8303
1515.41	14.8315
1516.97	15.0591
1518.53	15.4134
1520.08	16.534
1521.64	16.2418
1523.2	16.1866
1524.75	16.1137
1526.31	16.1396
1527.86	17.7626
1529.42	18.7891
1530.97	19.6267
1532.52	20.46
1534.08	21.2209
1535.63	21.9765
1537.19	22.2233
1538.74	22.44
1540.29	22.1419
1541.84	22.6927
1543.4	23.3515
1544.95	24.6552
1546.5	25.318
1548.05	26.3568
1549.6	27.5342
1551.15	28.6573
1552.7	29.8602
1554.25	31.3791
1555.8	32.4914
1557.35	34.2701
1558.9	35.3398
1560.45	36.0449
1562	37.6508
1563.54	38.561
1565.09	39.8044
1566.64	41.4696
1568.19	42.4795
1569.73	43.6715
1571.28	45.3875
1572.83	46.4495
1574.37	47.4049
1575.92	49.7882
1577.47	50.9315
1579.01	52.427
1580.56	53.5981
1582.1	55.1074
1583.64	55.8474
1585.19	56.3529
1586.73	57.2643
1588.28	57.0172
1589.82	57.6877
1591.36	58.6028
1592.9	59.8244
1594.45	59.0873
1595.99	59.1912
1597.53	58.6261
1599.07	58.0128
1600.61	58.0118
1602.15	57.5668
1603.69	58.4147
1605.23	58.6827
1606.77	58.2852
1608.31	57.6409
1609.85	57.1959
1611.39	56.2341
1612.93	55.3392
1614.47	54.2475
1616.01	54.5065
1617.55	54.5549
1619.08	54.7136
1620.62	54.7626
1622.16	54.5609
1623.7	54.6091
1625.23	54.8485
1626.77	54.6581
1628.3	54.0187
1629.84	54.697
1631.37	54.8505
1632.91	55.4442
1634.44	56.1639
1635.98	56.4766
1637.51	56.9036
1639.05	57.5611
1640.58	57.606
1642.11	58.4629
1643.65	59.016
1645.18	59.2676
1646.71	59.804
1648.24	60.7946
1649.78	61.399
1651.31	62.7568
1652.84	63.3583
1654.37	63.6416
1655.9	63.6489
1657.43	64.1205
1658.96	64.7936
1660.49	64.0355
1662.02	64.0623
1663.55	64.1522
1665.08	63.3633
1666.61	63.4274
1668.14	62.521
1669.66	61.6898
1671.19	59.7469
1672.72	58.8321
1674.25	56.9717
1675.77	55.5781
1677.3	53.9132
1678.83	51.6428
1680.35	48.9074
1681.88	45.9643
1683.4	43.6568
1684.93	41.3696
1686.45	40.2169
1687.98	38.2618
1689.5	36.3815
1691.03	34.9851
1692.55	33.0944
1694.07	29.802
1695.6	28.0548
1697.12	25.7312
1698.64	23.3019
1700.17	22.0782
1701.69	19.6507
1703.21	18.3332
1704.73	16.7089
1706.25	15.958
1707.77	14.5181
1709.29	12.9234
1710.81	11.1071
1712.33	9.9372
1713.85	9.67291
1715.37	9.0832
1716.89	7.77433
1718.41	7.84483
1719.93	7.18711
1721.45	6.51821
1722.97	6.53018
1724.49	7.49359
1726	7.96824
1727.52	7.97787
1729.04	7.4129
1730.55	7.4923
1732.07	7.55415
1733.59	8.28453
1735.1	8.61077
1736.62	8.67614
1738.13	9.60546
1739.65	9.97154
1741.16	10.0405
1742.68	10.3894
1744.19	9.90841
1745.7	9.78191
1747.22	10.0852
1748.73	10.1108
1750.24	9.81705
1751.76	9.718
1753.27	9.59222
1754.78	8.8602
1756.29	8.06834
1757.8	8.70445
1759.31	9.17067
1760.83	9.24426
1762.34	8.81838
1763.85	8.12016
1765.36	7.91799
1766.87	6.84077
1768.38	5.90198
1769.89	4.9827
1771.39	5.60973
1772.9	5.02807
1774.41	5.34711
1775.92	4.9734
1777.43	4.85761
1778.94	4.90235
1780.44	4.30765
1781.95	4.26905
1783.46	3.57826
1784.96	3.37994
1786.47	4.01544
1787.97	3.73793
1789.48	3.51024
1790.99	2.97078
1792.49	3.11765
1794	3.51017
1795.5	3.24826
1797	3.63478
1798.51	3.97446
1800.01	4.19194
1801.51	3.64374
1803.02	3.89891
1804.52	4.6853
1806.02	4.95661
1807.53	5.47571
1809.03	5.84771
1810.53	5.8703
1812.03	5.81595
1813.53	5.33847
1815.03	5.479
1816.53	5.41313
1818.03	5.34403
1819.53	5.4955
1821.03	5.84305
1822.53	5.33921
1824.03	5.03632
1825.53	5.29651
1827.03	5.13534
1828.53	4.9018
1830.02	4.38393
1831.52	4.08096
1833.02	4.13084
1834.52	4.03069
1836.01	3.75465
1837.51	3.37074
1839.01	3.29112
1840.5	3.14126
1842	2.48563
1843.49	2.63335
1844.99	2.40546
1846.48	2.57305
1847.98	1.67088
1849.47	1.42005
1850.97	1.3287
1852.46	2.01798
1853.95	1.35312
1855.45	1.76394
1856.94	1.18207
1858.43	0.726056
1859.93	0.493619
1861.42	0.116724
1862.91	0.33591
1864.4	-0.332869
1865.89	0.0129714
1867.38	-0.184875
1868.87	-0.082622
1870.36	-0.587494
1871.85	0.545579
1873.34	0.847975
1874.83	1.11555
1876.32	0.590704
1877.81	0.712792
1879.3	0.797782
1880.79	0.0806439
1882.28	0.101391
1882.52	0.606593
1884.02	0.246204
1885.51	0.402027
1887.01	1.01219
1888.5	1.49806
1889.99	1.26211
1891.49	1.31708
1892.98	1.43974
1894.47	1.24507
1895.97	1.80581
1897.46	2.49542
1898.95	2.90748
1900.44	3.45209
1901.93	3.55656
1903.42	3.93554
1904.91	3.91774
1906.4	4.34139
1907.89	4.2021
1909.38	3.56019
1910.87	3.76306
1912.36	4.3483
1913.85	4.44194
1915.34	5.19371
1916.83	5.18016
1918.32	4.74192
1919.8	4.43309
1921.29	4.39526
1922.78	5.28817
1924.27	5.22702
1925.75	4.87647
1927.24	4.99164
1928.73	4.33911
1930.21	3.46464
1931.7	4.50899
1933.18	4.29422
1934.67	4.44946
1936.15	4.55528
1937.64	3.51816
1939.12	3.79744
1940.61	3.43511
1942.09	3.59021
1943.57	3.3073
1945.06	4.37037
1946.54	3.95415
1948.02	3.58481
1949.51	2.76987
1950.99	3.32581
1952.47	3.26759
1953.95	3.75073
1955.43	4.25256
1956.91	4.5762
1958.4	3.6661
1959.88	3.55489
1961.36	3.16349
1962.84	3.25462
1964.32	3.16284
1965.8	3.7111
1967.27	3.36501
1968.75	3.65318
1970.23	4.20725
1971.71	4.16084
1973.19	4.36642
1974.67	4.07536
1976.14	3.71864
1977.62	3.84971
1979.1	3.69038
1980.58	4.00902
1982.05	3.65471
1983.53	4.07378
1985	4.77724
1986.48	4.60594
1987.95	4.63221
1989.43	4.51604
1990.9	4.14713
1992.38	4.00067
1993.85	4.48691
1995.33	4.55099
1996.8	4.70314
1998.27	4.74616
1999.75	5.2452
2001.22	6.04274
2002.69	6.01929
2004.16	6.70602
2005.64	6.39372
2007.11	5.43394
2008.58	5.55857
2010.05	6.50186
2011.52	6.5518
2012.99	7.02367
2014.46	7.18122
2015.93	6.94144
2017.4	7.02754
2018.87	7.42376
2020.34	6.88532
2021.81	6.94779
2023.28	7.1729
2024.75	7.22992
2026.22	7.11799
2027.69	6.71271
2029.15	6.14369
2030.62	6.20562
2032.09	6.03378
2033.56	6.13111
2035.02	5.49935
2036.49	5.76127
2037.96	5.142
2039.42	5.33982
2040.89	4.87927
2042.35	5.31235
2043.82	4.84118
2045.28	4.69094
2046.75	4.47701
2048.21	4.21278
2049.67	4.65885
2051.14	5.00864
2052.6	5.14593
2054.07	4.78937
2055.53	4.76129
2056.99	5.2592
2058.45	5.20245
2059.92	4.68793
2061.38	5.40087
2062.84	5.57073
2064.3	5.69999
2065.76	5.363
2067.22	6.1323
2068.68	6.09613
2070.14	7.3757
2071.6	7.89196
2073.06	8.24474
2074.52	8.07683
2075.98	7.49014
2077.44	6.80184
2078.9	6.56002
2080.36	7.77507
2081.82	8.25086
2083.27	8.60243
2084.73	8.08063
2086.19	7.74597
2087.65	6.99057
2089.1	6.6518
2090.56	6.52043
2092.02	6.37449
2093.47	6.33743
2094.93	6.63531
2096.38	6.28599
2097.84	5.46759
2099.29	5.63894
2100.75	4.91276
2102.2	5.54758
2103.66	5.12288
2105.11	4.35435
2106.56	3.41803
2108.02	2.89309
2109.47	2.92128
2110.92	2.9188
2112.38	3.45978
2113.83	2.70235
2115.28	2.33926
2116.73	1.83153
2118.18	2.41254
2119.63	2.97269
2121.09	2.89837
2122.54	3.1897
2123.99	3.00091
2125.44	2.49391
2126.89	2.02808
2128.34	3.0039
2129.79	3.11691
2131.23	2.41955
2132.68	1.83043
2134.13	2.18664
