#Acq. time (s)=	45
#Accumulations=	2
#Range (cm-¹)=	200...3150
#Windows=	2
#Auto scanning=	Off
#Autofocus=	Off
#Macrospot=	Off
#AutoExposure=	Off
#Spike filter=	Multiple accum.
#Delay time (s)=	0
#Binning=	1
#Readout mode=	Signal
#DeNoise=	Off
#ICS correction=	On
#Dark correction=	Off
#Inst. Process=	Off
#Detector Gain=	Best Dynamic Range
#Detector ADC=	20 kHz       
#Detector temperature (°C)=	-69.85
#Instrument=	LabRAM HR Evol
#Detector=	Synapse
#Objective=	x100
#Grating=	600 gr/mm
#ND Filter=	100%
#Laser (nm)=	532 
#Hole=	100.021
#Range=	Auto
#Laser Pol.=	No
#Raman. Pol.=	No
#Laser Pol. (°)=	-0.0007625
#Raman Pol. (°)=	89.9995
#Collection=	Microscope
#StageXY=	Marzhauser
#StageZ=	Marzhauser
#X (µm)=	-5086.5
#Y (µm)=	1500.5
#Z (µm)=	62.65
#Full time(mm:ss)=	3:18
#Project=	
#Sample=	
#Site=	
#Title=	Thy_50_12_04_2x_45s_532 nm_x100_100%_600 gr_mm
#Remark=	
#Date=	07.07.2022 09:26
#Acquired=	07.07.2022 09:26:26
#Base:Fit=	10.08.2022 10:03:08
#Base:Fit=	10.08.2022 10:03:15
#Base:Fit=	10.08.2022 10:03:19
#Base:Fit=	10.08.2022 10:04:29
#Base:Sub=	10.08.2022 10:04:45
#Filter:Polynom=	16.08.2022 10:20:24
#AxisType[0]=Intens
#AxisUnit[0]=Cnt
#AxisType[1]=Spectr
#AxisUnit[1]=1/cm
200.43	52.415
202.246	49.9466
204.061	46.5129
205.875	44.5761
207.688	42.3139
209.501	39.8209
211.316	37.1137
213.129	34.2924
214.941	30.9408
216.753	29.1521
218.566	25.8224
220.377	23.6468
222.188	21.5922
223.999	18.7008
225.809	18.0242
227.618	17.0008
229.43	15.1779
231.239	14.002
233.047	12.8537
234.855	12.1643
236.663	10.1389
238.471	9.15008
240.278	7.57814
242.087	6.60627
243.894	6.45293
245.7	5.90637
247.506	5.27559
249.311	4.52187
251.116	3.61807
252.921	3.18887
254.725	3.76114
256.529	4.10328
258.333	3.58643
260.136	3.04562
261.939	2.8289
263.744	3.1671
265.546	2.89904
267.348	1.92821
269.15	2.17608
270.951	2.22714
272.752	1.99944
274.552	1.96646
276.353	2.35092
278.152	3.61053
279.952	4.71031
281.751	5.62632
283.55	4.80476
285.348	4.91843
287.146	4.61259
288.942	4.24224
290.739	5.27498
292.536	5.08038
294.333	5.61506
296.129	4.46201
297.925	4.2479
299.721	3.33679
301.516	2.14447
303.311	2.46792
305.106	3.03452
306.9	3.6362
308.694	3.70676
310.486	4.94208
312.279	5.29074
314.072	5.26781
315.864	6.04903
317.656	5.40473
319.448	5.95153
321.24	5.78644
323.029	6.36648
324.819	5.73503
326.61	6.08316
328.4	6.71144
330.19	7.12053
331.977	8.02911
333.766	8.38762
335.555	8.77176
337.343	8.62985
339.131	9.10364
340.917	9.4361
342.704	9.39968
344.491	9.0497
346.277	8.82649
348.062	8.45033
349.848	8.22969
351.633	8.83499
353.416	7.90684
355.201	8.02664
356.986	7.99592
358.77	8.8546
360.552	9.17001
362.335	8.48629
364.118	8.83924
365.899	7.86792
367.682	7.5986
369.464	7.67092
371.243	7.27987
373.025	6.54451
374.806	7.24942
376.585	7.81403
378.365	8.7968
380.143	8.66071
381.923	7.31964
383.702	7.78351
385.479	6.92593
387.258	6.68213
389.034	6.80306
390.812	7.27602
392.59	8.40107
394.365	7.74484
396.142	7.81721
397.916	7.36284
399.693	6.27558
401.467	5.61609
403.242	6.19313
405.015	5.80581
406.79	6.11203
408.565	7.00544
410.337	5.76206
412.111	5.75152
413.882	5.0863
415.656	6.21347
417.426	5.75209
419.197	5.35369
420.969	5.15313
422.739	4.71256
424.51	4.81985
426.279	3.8277
428.05	3.42068
429.819	1.81656
431.589	0.746166
433.356	-0.506208
435.124	0.0853165
436.893	0.242909
438.66	0.551121
440.428	0.0307773
442.194	-0.159993
443.96	1.227
445.727	1.15432
447.492	0.666341
449.259	-0.307544
451.023	0.340228
452.787	1.44591
454.553	0.962959
456.316	2.50176
458.079	3.21359
459.844	3.62574
461.606	4.23923
463.368	5.60867
465.132	5.72558
466.893	5.73668
468.654	6.35867
470.415	7.28125
472.177	8.85661
473.937	8.65033
475.696	9.01353
477.456	10.1009
479.217	10.4056
480.975	11.1047
482.733	11.4854
484.491	12.8862
486.251	13.6001
488.008	15.1899
489.765	16.8059
491.522	18.459
493.278	18.0776
495.036	18.8408
496.791	19.782
498.546	20.4101
500.301	21.1625
502.056	21.9487
503.81	22.7463
505.566	22.8124
507.319	22.7127
509.073	23.6432
510.825	23.9048
512.578	24.0668
514.33	23.2018
516.082	22.4695
517.833	23.237
519.587	23.6328
521.337	24.6283
523.088	26.089
524.838	26.4775
526.588	26.7193
528.337	26.2529
530.087	26.8226
531.835	27.1257
533.584	26.2453
535.332	26.6462
537.08	26.7049
538.827	26.4431
540.574	24.5694
542.321	23.0292
544.068	22.9099
545.814	21.5627
547.56	20.9967
549.305	19.7875
551.05	19.4151
552.795	17.7578
554.54	16.3804
556.284	16.1379
558.027	15.2819
559.771	14.7185
561.514	13.154
563.257	12.8613
564.999	12.9204
566.742	12.5763
568.481	12.8673
570.223	11.2266
571.964	11.2639
573.705	11.5632
575.445	11.7641
577.185	11.5102
578.925	11.3242
580.665	10.9733
582.402	10.9357
584.141	11.6378
585.879	10.7731
587.617	9.85681
589.355	9.67156
591.092	9.99224
592.828	9.15944
594.564	9.59568
596.301	9.72834
598.037	9.31988
599.773	8.67873
601.506	8.60008
603.242	9.59594
604.976	11.0157
606.711	11.3389
608.443	11.4908
610.177	11.0873
611.91	11.8552
613.644	11.3049
615.374	11.0601
617.107	11.5109
618.839	11.2798
620.569	10.844
622.3	10.7173
624.032	10.065
625.761	10.1491
627.491	10.2891
629.221	10.4252
630.949	10.6958
632.679	10.768
634.408	11.532
636.135	11.7268
637.863	12.2035
639.592	12.373
641.318	13.2713
643.045	14.509
644.77	15.4987
646.497	16.4984
648.224	17.3023
649.948	18.6806
651.674	19.6798
653.398	20.4386
655.123	22.0704
656.846	22.4065
658.57	24.9501
660.293	27.3308
662.017	28.2706
663.738	27.8799
665.462	28.3475
667.185	29.3328
668.905	29.7342
670.628	31.7027
672.348	32.267
674.067	33.5739
675.789	34.3078
677.508	34.9483
679.228	35.2625
680.947	36.5167
682.667	37.1142
684.385	37.4478
686.104	38.3592
687.821	39.5484
689.538	39.7576
691.256	40.106
692.972	41.0126
694.69	41.6525
696.406	42.77
698.121	42.5693
699.837	41.9744
701.552	42.2889
703.268	42.1543
704.982	42.3595
706.695	42.938
708.41	43.9012
710.123	43.6702
711.836	43.9964
713.55	43.8854
715.262	43.9334
716.973	44.045
718.685	44.5791
720.398	44.9248
722.108	44.3219
723.818	45.1075
725.53	46.9032
727.24	46.8778
728.949	47.6891
730.658	48.6038
732.369	48.8666
734.077	49.3828
735.785	51.3291
737.493	52.4132
739.2	54.0947
740.909	55.2088
742.616	55.8693
744.322	56.5864
746.028	57.8608
747.734	57.797
749.441	59.3191
751.146	62.6718
752.851	65.0452
754.555	66.9219
756.26	69.2339
757.963	69.5987
759.667	70.4381
761.372	72.835
763.075	74.8999
764.777	77.3525
766.479	78.9201
768.181	80.7045
769.883	81.4612
771.584	83.1696
773.285	85.3158
774.986	86.1729
776.686	87.6316
778.386	88.1901
780.085	88.6934
781.785	88.8019
783.484	89.297
785.182	89.5427
786.881	90.8747
788.579	91.0429
790.276	92.187
791.974	93.2845
793.671	93.2353
795.367	93.6215
797.064	94.5288
798.76	94.1152
800.456	94.1341
802.151	94.0645
803.846	94.6644
805.541	94.7906
807.236	94.4581
808.93	94.4791
810.624	94.2932
812.317	92.2927
814.01	92.017
815.703	91.7419
817.394	92.1027
819.086	92.9673
820.778	93.9682
822.47	92.1629
824.161	92.3439
825.852	91.0566
827.543	91.916
829.231	91.5151
830.921	91.5538
832.611	90.9376
834.3	91.4796
835.989	90.2886
837.676	89.3232
839.364	88.8292
841.053	87.8541
842.74	87.0349
844.426	87.3423
846.113	87.233
847.8	85.9335
849.486	84.0668
851.171	82.5718
852.857	81.3689
854.542	80.1545
856.227	79.8315
857.911	79.2665
859.595	77.0884
861.279	76.4747
862.961	75.6556
864.645	75.2851
866.329	74.7502
868.01	74.0264
869.692	73.3373
871.375	73.2165
873.055	72.0559
874.737	71.7399
876.418	70.839
878.097	70.1929
879.778	70.3843
881.457	68.9049
883.137	68.5487
884.817	68.4936
886.495	67.573
888.174	66.7583
889.851	65.6009
891.53	64.7124
893.206	63.4814
894.884	63.7785
896.562	62.9871
898.237	63.4432
899.914	63.5396
901.589	63.7299
903.265	63.9006
904.94	62.9689
906.615	62.4493
908.289	62.0456
909.964	60.2098
911.637	59.9988
913.31	58.8997
914.984	58.3084
916.656	58.4509
918.33	58.9681
920.001	58.0929
921.674	57.8648
923.345	56.0174
925.015	55.0995
926.687	55.0418
928.357	54.8387
930.028	53.6187
931.698	53.023
933.366	51.5522
935.037	51.3603
936.705	49.954
938.373	49.4242
940.043	49.0961
941.71	48.065
943.379	46.8782
945.046	46.9492
946.712	46.142
948.378	45.3147
950.046	46.1134
951.711	45.8822
953.376	45.9388
955.043	45.3242
956.708	45.423
958.372	44.581
960.036	45.1479
961.701	45.79
963.364	45.3296
965.027	45.0508
966.69	45.195
968.354	45.6452
970.016	45.4172
971.678	46.1155
973.339	46.7106
975	46.895
976.661	46.3579
978.324	46.9833
979.984	47.0006
981.644	47.4151
983.303	47.4299
984.962	48.3956
986.621	48.1878
988.282	47.7256
989.94	47.8529
991.598	46.2777
993.256	45.9285
994.913	46.345
996.57	46.9801
998.227	46.9395
999.884	46.5234
1001.54	46.336
1003.2	44.3155
1004.85	43.2709
1006.51	43.0693
1008.16	44.0331
1009.82	43.8893
1011.47	43.0008
1013.12	42.2535
1014.78	41.4169
1016.43	41.4296
1018.08	41.3075
1019.74	41.2638
1021.39	41.3131
1023.04	41.9986
1024.69	42.0858
1026.34	42.2208
1028	41.9054
1029.65	41.6554
1031.3	41.2229
1032.95	41.231
1034.6	40.8379
1036.25	40.8462
1037.9	39.839
1039.55	39.2677
1041.19	38.3797
1042.84	38.5616
1044.49	38.0665
1046.14	37.2338
1047.79	36.772
1049.43	35.9768
1051.08	36.3665
1052.73	34.8019
1054.37	34.6158
1056.02	34.462
1057.66	33.7093
1059.31	33.283
1060.95	33.8229
1062.6	33.4538
1064.24	32.9958
1065.88	31.5937
1067.53	30.4553
1069.17	29.417
1070.81	29.2559
1072.46	28.7061
1074.1	27.2653
1075.74	26.5684
1077.38	26.9589
1079.02	25.9992
1080.66	26.212
1082.3	26.1281
1083.94	26.6838
1085.58	26.0776
1087.22	27.3454
1088.86	27.7264
1090.5	25.3775
1092.14	23.4548
1093.78	22.5617
1095.42	24.6936
1097.05	27.1413
1098.69	29.3587
1100.33	31.5972
1101.97	34.1907
1103.6	34.9785
1105.24	37.3129
1106.87	37.724
1108.51	37.2745
1110.15	38.4079
1111.78	40.5667
1113.41	41.5342
1115.05	42.3302
1116.68	42.0854
1118.31	42.2429
1119.95	41.296
1121.58	40.7193
1123.21	39.2693
1124.85	38.4615
1126.48	38.2852
1128.11	36.7648
1129.74	36.3602
1131.37	36.3757
1133	35.2005
1134.63	33.9303
1136.26	34.5899
1137.89	33.7521
1139.52	32.052
1141.15	30.5513
1142.78	29.8663
1144.41	28.2021
1146.04	26.4198
1147.66	24.5728
1149.29	23.186
1150.92	23.2768
1152.55	21.4017
1154.17	20.1169
1155.8	17.8391
1157.43	16.7889
1159.05	16.2933
1160.68	14.4394
1162.3	14.5066
1163.93	12.3207
1165.55	11.385
1167.17	9.42106
1168.8	8.02167
1170.42	5.95168
1172.05	3.8691
1173.67	5.6693
1175.29	8.34661
1176.91	10.8207
1178.54	12.2335
1180.16	12.4983
1181.78	13.1498
1183.4	12.2747
1185.02	11.4777
1186.64	12.5776
1188.26	12.7245
1189.88	13.2537
1191.5	15.7146
1193.12	16.4953
1194.74	15.8598
1196.36	16.2712
1197.97	16.1523
1199.59	17.0807
1201.21	16.668
1202.83	17.7713
1204.44	18.4277
1206.06	19.1539
1207.68	20.2257
1209.29	20.8714
1210.91	22.5872
1212.52	23.2534
1214.14	23.9267
1215.75	25.8833
1217.37	27.1733
1218.98	27.7738
1220.6	29.4808
1222.21	30.8511
1223.82	31.859
1225.44	32.7176
1227.05	32.959
1228.66	34.021
1230.27	33.9909
1231.88	36.7572
1233.49	36.9685
1235.1	38.4483
1236.72	39.7178
1238.33	41.0908
1239.94	42.3215
1241.55	42.8844
1243.16	44.5679
1244.76	44.8421
1246.37	46.2571
1247.98	46.8264
1249.59	47.5061
1251.2	47.5532
1252.8	47.1777
1254.41	48.9045
1256.02	50.6005
1257.63	50.5244
1259.23	52.1673
1260.84	52.8595
1262.44	52.9708
1264.05	54.0275
1265.66	56.0445
1267.26	58.4811
1268.87	59.9531
1270.47	60.6079
1272.07	61.0385
1273.68	62.1912
1275.28	63.0342
1276.88	65.1861
1278.48	65.9284
1280.09	67.1082
1281.69	68.2636
1283.29	69.1483
1284.89	69.5746
1286.49	70.0388
1288.09	71.1206
1289.69	72.6272
1291.3	72.5389
1292.9	72.8528
1294.49	73.1288
1296.09	73.544
1297.69	73.2049
1299.29	72.9366
1300.89	72.1986
1302.49	71.3136
1304.09	70.4759
1305.68	70.4513
1307.28	68.871
1308.88	69.2565
1310.47	69.4457
1312.07	70.2639
1313.66	69.0183
1315.26	69.0991
1316.86	69.4911
1318.45	68.5969
1320.05	68.115
1321.64	68.3244
1323.23	67.7253
1324.83	66.3556
1326.42	65.8194
1328.01	64.6852
1329.61	62.7747
1331.2	62.2653
1332.79	61.3571
1334.38	61.8862
1335.98	61.2532
1337.57	60.3297
1339.16	60.0198
1340.75	59.2219
1342.34	58.5594
1343.93	58.3153
1345.52	58.0675
1347.11	57.2667
1348.7	55.4987
1350.29	54.7229
1351.87	54.4634
1353.46	55.6488
1355.05	54.646
1356.64	54.3311
1358.23	52.857
1359.81	52.3603
1361.4	51.7229
1362.99	51.525
1364.57	50.5134
1366.16	49.646
1367.74	48.9108
1369.33	47.7366
1370.91	46.5272
1372.5	47.0775
1374.08	46.0729
1375.67	44.986
1377.25	44.303
1378.83	44.2335
1380.42	44.2455
1382	44.4685
1383.58	44.7822
1385.16	44.0911
1386.75	43.1508
1388.33	43.5707
1389.91	43.385
1391.49	42.4279
1393.07	41.9277
1394.65	42.0409
1396.23	41.9208
1397.81	41.9795
1399.39	40.7822
1400.97	41.3141
1402.55	39.7282
1404.13	39.4345
1405.7	40.7604
1407.28	41.3814
1408.86	41.5747
1410.44	42.8026
1412.01	42.7781
1413.59	44.5722
1415.17	45.6037
1416.74	47.0611
1418.32	48.3223
1419.89	49.7717
1421.47	51.3474
1423.05	53.0698
1424.62	54.3379
1426.19	55.5686
1427.77	57.0349
1429.34	60.352
1430.92	62.2878
1432.49	65.049
1434.06	66.9796
1435.63	69.8322
1437.2	71.6444
1438.78	73.8137
1440.35	75.0056
1441.92	77.0556
1443.49	77.3111
1445.06	79.3172
1446.63	80.5047
1448.2	80.855
1449.77	82.0435
1451.34	82.524
1452.91	81.1395
1454.48	80.9166
1456.05	81.2478
1457.62	80.2969
1459.18	78.2643
1460.75	75.7656
1462.32	73.0265
1463.89	69.5586
1465.45	67.7775
1467.02	65.6648
1468.59	63.17
1470.15	59.9306
1471.72	57.4273
1473.28	54.674
1474.85	52.508
1476.41	50.0065
1477.98	46.1466
1479.54	44.2724
1481.11	41.7754
1482.67	39.7457
1484.23	37.4034
1485.8	34.4455
1487.36	31.7773
1488.92	30.0269
1490.48	29.5065
1492.05	29.2689
1493.61	27.3012
1495.17	25.6907
1496.73	24.6233
1498.29	23.3732
1499.85	23.0693
1501.41	21.9569
1502.97	20.5243
1504.53	21.7154
1506.09	21.8406
1507.65	22.3233
1509.2	21.8
1510.76	22.8448
1512.32	22.8472
1513.88	23.1115
1515.44	22.5568
1516.99	22.7589
1518.55	23.2997
1520.1	24.4421
1521.66	24.2704
1523.22	24.9335
1524.77	24.7514
1526.33	24.8878
1527.88	25.0451
1529.44	24.9742
1530.99	25.1214
1532.55	26.0798
1534.1	26.2025
1535.65	25.909
1537.21	26.3866
1538.76	28.2433
1540.31	29.9366
1541.86	31.5962
1543.42	33.6208
1544.97	34.4896
1546.52	35.9558
1548.07	37.5332
1549.62	39.5881
1551.17	41.412
1552.72	43.262
1554.27	44.2982
1555.82	46.0647
1557.37	47.4583
1558.92	49.6644
1560.47	50.7617
1562.02	52.3596
1563.57	54.8668
1565.11	55.9023
1566.66	57.1884
1568.21	58.797
1569.75	59.1855
1571.3	59.6459
1572.85	60.8883
1574.39	62.0972
1575.94	62.7248
1577.49	63.8804
1579.03	64.0577
1580.58	64.5071
1582.12	65.8198
1583.67	65.8737
1585.21	66.1596
1586.75	66.5811
1588.3	66.4302
1589.84	66.3056
1591.38	65.5771
1592.93	65.7004
1594.47	65.6285
1596.01	65.072
1597.55	65.3646
1599.09	64.5201
1600.63	64.0449
1602.18	62.8641
1603.72	62.0935
1605.26	61.2193
1606.8	61.2457
1608.34	61.2786
1609.87	61.2767
1611.41	61.2795
1612.95	61.6427
1614.49	62.3677
1616.03	62.5215
1617.57	61.4291
1619.11	61.6682
1620.64	61.4587
1622.18	62.4041
1623.72	64.0423
1625.25	64.8595
1626.79	65.4637
1628.32	66.6191
1629.86	67.253
1631.4	68.2326
1632.93	68.8228
1634.47	69.0569
1636	70.8786
1637.53	71.5832
1639.07	72.2363
1640.6	72.305
1642.14	72.2688
1643.67	72.7553
1645.2	73.317
1646.73	74.4125
1648.27	74.8781
1649.8	75.3878
1651.33	75.2661
1652.86	75.4964
1654.39	75.2808
1655.92	74.4628
1657.45	74.7047
1658.98	75.0143
1660.51	74.3388
1662.04	72.8352
1663.57	71.6876
1665.1	69.904
1666.63	68.1484
1668.16	66.5448
1669.69	65.1881
1671.21	62.4699
1672.74	60.227
1674.27	58.7847
1675.79	56.1576
1677.32	54.0608
1678.85	50.762
1680.37	49.3262
1681.9	46.9547
1683.42	44.3587
1684.95	41.5338
1686.47	39.2937
1688	36.69
1689.52	33.8903
1691.05	31.2106
1692.57	28.0096
1694.1	26.2173
1695.62	25.4417
1697.14	23.9848
1698.66	23.6374
1700.19	21.9273
1701.71	20.148
1703.23	19.0776
1704.75	18.355
1706.27	16.839
1707.79	14.9015
1709.32	14.02
1710.83	13.36
1712.35	12.558
1713.88	11.4128
1715.39	10.2489
1716.91	9.3461
1718.43	9.17301
1719.95	9.03604
1721.47	9.12084
1722.99	9.57749
1724.5	9.23968
1726.02	8.9031
1727.54	9.12885
1729.06	9.80778
1730.57	10.2714
1732.09	10.9954
1733.61	11.057
1735.12	9.89129
1736.64	9.26636
1738.15	9.06616
1739.67	8.42037
1741.18	7.58832
1742.7	7.18312
1744.21	7.85636
1745.72	7.01228
1747.24	6.83853
1748.75	7.35117
1750.26	7.75662
1751.78	7.29476
1753.29	6.70754
1754.8	6.0139
1756.31	5.73392
1757.82	4.77314
1759.34	4.72947
1760.85	4.2344
1762.36	3.78022
1763.87	3.33188
1765.38	2.39172
1766.89	2.18754
1768.4	1.88379
1769.91	2.7749
1771.41	2.35539
1772.92	2.04206
1774.43	1.71708
1775.94	1.01581
1777.45	1.0342
1778.96	1.16927
1780.46	0.523298
1781.97	-0.0961117
1783.48	-0.474737
1784.98	0.273216
1786.49	-0.0581066
1788	-0.356749
1789.5	0.0824008
1791.01	-0.259745
1792.51	-0.341088
1794.01	-0.0424784
1795.52	0.25274
1797.02	0.504311
1798.53	1.03111
1800.03	1.15005
1801.54	1.72375
1803.04	2.60637
1804.54	2.97404
1806.04	3.05486
1807.54	3.0062
1809.05	2.23912
1810.55	2.36034
1812.05	3.13781
1813.55	3.65249
1815.05	3.20697
1816.55	2.93311
1818.05	2.73513
1819.55	3.27632
1821.05	2.58246
1822.55	2.70348
1824.05	2.92658
1825.55	2.51038
1827.05	2.40257
1828.55	2.76437
1830.04	2.94125
1831.54	2.76475
1833.04	2.93775
1834.54	2.99391
1836.03	2.42977
1837.53	2.82131
1839.03	2.88189
1840.52	2.89874
1842.02	3.39747
1843.51	3.1781
1845.01	3.10224
1846.5	2.97796
1848	3.22665
1849.49	3.01579
1850.99	3.2232
1852.48	4.27839
1853.97	4.23438
1855.47	4.04678
1856.96	4.45024
1858.45	4.93099
1859.94	4.97923
1861.44	4.92477
1862.93	4.78307
1864.42	5.30027
1865.91	5.13728
1867.4	5.65339
1868.89	6.30974
1870.38	5.84882
1871.87	6.86373
1873.36	7.35596
1874.85	7.38141
1876.34	7.97784
1877.83	8.22226
1879.32	8.76191
1880.81	8.23276
1882.3	8.69618
1882.56	8.26039
1884.06	8.6398
1885.55	7.71051
1887.04	7.22565
1888.54	6.66765
1890.03	6.71922
1891.52	6.94543
1893.02	7.10809
1894.51	6.07077
1896	5.93457
1897.49	5.59994
1898.99	5.55302
1900.48	4.91798
1901.97	4.66984
1903.46	4.12864
1904.95	4.64171
1906.44	4.56222
1907.93	4.29129
1909.42	4.02917
1910.91	4.55581
1912.4	4.52402
1913.89	4.41114
1915.38	4.39784
1916.86	4.77279
1918.35	4.70203
1919.84	4.50818
1921.33	4.64972
1922.82	5.29493
1924.3	5.66524
1925.79	5.4108
1927.28	4.73278
1928.76	4.49499
1930.25	4.48245
1931.74	4.66138
1933.22	3.98731
1934.71	4.1401
1936.19	4.1093
1937.67	4.86017
1939.16	4.13395
1940.64	4.14208
1942.13	3.96473
1943.61	3.86326
1945.09	4.9871
1946.58	4.6358
1948.06	4.33477
1949.54	4.67745
1951.03	4.26394
1952.51	4.57856
1953.99	3.72364
1955.47	4.06744
1956.95	3.70458
1958.43	3.45937
1959.91	2.93769
1961.39	3.41055
1962.87	3.85642
1964.35	4.58034
1965.83	4.06441
1967.31	3.93786
1968.79	3.55239
1970.27	3.7434
1971.75	3.94544
1973.22	4.36802
1974.7	4.54789
1976.18	5.27251
1977.66	5.73075
1979.13	6.56827
1980.61	6.32104
1982.09	6.57497
1983.56	7.03862
1985.04	7.34139
1986.52	7.84711
1987.99	8.07364
1989.47	8.65661
1990.94	8.75926
1992.41	8.57582
1993.89	8.95141
1995.36	9.39247
1996.84	10.1029
1998.31	9.74986
1999.78	10.542
2001.26	10.5921
2002.73	10.8125
2004.2	11.6305
2005.67	12.1798
2007.15	12.4434
2008.62	12.5461
2010.09	12.2195
2011.56	11.7121
2013.03	10.9411
2014.5	11.2536
2015.97	11.2429
2017.44	11.0741
2018.91	10.9939
2020.38	10.8118
2021.85	10.2852
2023.32	10.5145
2024.79	10.1325
2026.25	10.1243
2027.72	9.85178
2029.19	10.6389
2030.66	10.7594
2032.13	10.481
2033.59	10.4755
2035.06	10.2293
2036.53	10.9781
2037.99	11.2458
2039.46	10.2193
2040.92	10.3952
2042.39	9.73193
2043.85	10.5877
2045.32	11.1436
2046.78	10.7856
2048.25	10.9332
2049.71	10.7419
2051.18	10.8875
2052.64	11.1288
2054.1	10.5852
2055.56	10.6437
2057.03	10.9232
2058.49	11.1869
2059.95	11.9046
2061.42	11.9664
2062.88	12.1597
2064.34	12.7226
2065.8	13.5169
2067.26	14.5116
2068.72	15.1917
2070.18	16.7279
2071.64	17.0608
2073.1	17.9462
2074.56	17.961
2076.02	19.8901
2077.48	20.7373
2078.94	20.6117
2080.39	20.9319
2081.85	20.7208
2083.31	21.2099
2084.77	21.6356
2086.22	23.1315
2087.68	23.8295
2089.14	24.1887
2090.6	24.6612
2092.05	25.1343
2093.51	25.8876
2094.96	26.4477
2096.42	27.8763
2097.87	28.6012
2099.33	28.9186
2100.78	30.3633
2102.24	31.5171
2103.69	32.2909
2105.15	32.8007
2106.6	33.1876
2108.05	34.6935
2109.51	36.9721
2110.96	37.5922
2112.41	38.3504
2113.86	39.9017
2115.32	41.0958
2116.77	43.3124
2118.22	44.0934
2119.67	45.2278
2121.12	46.9808
2122.57	48.1761
2124.02	49.8264
2125.47	51.6209
