#Acq. time (s)=	45
#Accumulations=	2
#Range (cm-¹)=	200...3150
#Windows=	2
#Auto scanning=	Off
#Autofocus=	Off
#Macrospot=	Off
#AutoExposure=	Off
#Spike filter=	Multiple accum.
#Delay time (s)=	0
#Binning=	1
#Readout mode=	Signal
#DeNoise=	Off
#ICS correction=	On
#Dark correction=	Off
#Inst. Process=	Off
#Detector Gain=	Best Dynamic Range
#Detector ADC=	20 kHz       
#Detector temperature (°C)=	-69.85
#Instrument=	LabRAM HR Evol
#Detector=	Synapse
#Objective=	x100
#Grating=	600 gr/mm
#ND Filter=	100%
#Laser (nm)=	532 
#Hole=	100.021
#Range=	Auto
#Laser Pol.=	No
#Raman. Pol.=	No
#Laser Pol. (°)=	-0.0007625
#Raman Pol. (°)=	89.9995
#Collection=	Microscope
#StageXY=	Marzhauser
#StageZ=	Marzhauser
#X (µm)=	1967.9
#Y (µm)=	-51.5
#Z (µm)=	425.75
#Full time(mm:ss)=	3:19
#Project=	
#Sample=	
#Site=	
#Title=	Thy_40_11_16_2x_45s_532 nm_x100_100%_600 gr_mm
#Remark=	
#Date=	05.07.2022 11:01
#Acquired=	05.07.2022 11:01:36
#Base:Fit=	10.08.2022 10:01:35
#Base:Sub=	10.08.2022 10:01:52
#Filter:Polynom=	16.08.2022 10:21:53
#AxisType[0]=Intens
#AxisUnit[0]=Cnt
#AxisType[1]=Spectr
#AxisUnit[1]=1/cm
200.43	1.73562
202.244	6.56252
204.059	9.75659
205.873	12.4499
207.688	14.7047
209.501	16.0903
211.314	17.4985
213.127	18.6782
214.941	19.3568
216.753	19.6517
218.564	19.9612
220.375	19.5688
222.186	19.6732
223.999	18.8796
225.809	18.4358
227.618	19.0254
229.428	18.4167
231.236	18.4398
233.045	17.1234
234.855	16.1825
236.663	16.0648
238.471	14.72
240.278	14.0856
242.085	13.2947
243.891	13.5649
245.698	12.6977
247.503	10.3486
249.309	8.33525
251.116	5.57953
252.921	5.43819
254.725	4.62761
256.529	4.21212
258.333	3.87148
260.136	2.57117
261.939	4.084
263.742	3.98902
265.544	4.20526
267.346	4.46195
269.148	5.96585
270.949	5.60937
272.75	5.08733
274.55	5.6828
276.351	5.79027
278.15	5.13457
279.95	5.26011
281.749	5.7726
283.548	5.19174
285.346	5.60531
287.144	5.72744
288.942	5.91962
290.739	6.27827
292.536	7.52971
294.333	7.93009
296.129	7.46746
297.925	7.51214
299.721	9.16543
301.514	10.0443
303.309	9.54935
305.104	9.34863
306.898	9.57438
308.692	10.0369
310.486	10.7235
312.279	11.1727
314.072	11.6231
315.862	12.6731
317.654	13.5794
319.446	12.8872
321.238	12.8977
323.029	12.2961
324.819	12.7302
326.608	12.9642
328.398	11.749
330.188	11.7918
331.977	11.4957
333.766	11.4997
335.553	9.37197
337.341	9.11684
339.129	9.05882
340.917	8.59688
342.704	9.43879
344.489	9.21268
346.275	8.71933
348.062	8.51038
349.845	7.80889
351.631	8.59061
353.416	8.00037
355.201	7.69745
356.984	7.5976
358.768	7.93822
360.552	7.32627
362.333	7.50134
364.116	7.25511
365.899	6.5428
367.68	5.62791
369.462	6.33187
371.243	7.15373
373.023	6.58467
374.804	6.85166
376.585	6.46909
378.363	6.19835
380.143	5.77198
381.923	5.01434
383.7	4.92096
385.479	4.54772
387.256	4.68164
389.034	5.77128
390.812	5.04768
392.588	4.50865
394.365	4.78752
396.14	5.79885
397.916	6.88598
399.691	6.93832
401.467	6.58274
403.24	6.50067
405.015	6.27032
406.788	5.89258
408.563	4.19516
410.335	4.17572
412.109	4.06678
413.88	3.58161
415.654	4.10176
417.424	3.83857
419.197	4.16508
420.967	3.32634
422.739	3.19452
424.508	2.35283
426.279	3.25978
428.048	2.63186
429.819	3.04264
431.587	3.49304
433.356	3.19489
435.124	2.48745
436.891	2.82797
438.66	2.63738
440.426	3.33616
442.194	3.52313
443.96	3.42666
445.725	3.22399
447.492	2.60115
449.257	2.86238
451.021	2.32469
452.787	2.6929
454.551	2.97255
456.314	2.90319
458.079	3.61912
459.842	3.62936
461.604	3.36077
463.368	3.32761
465.13	3.71095
466.891	3.84709
468.654	4.60627
470.415	5.34532
472.175	6.72087
473.935	6.25533
475.696	6.029
477.456	7.59981
479.215	7.77969
480.973	8.33242
482.733	9.46523
484.491	10.9463
486.249	11.4379
488.006	10.8091
489.765	11.7341
491.522	11.1529
493.278	10.9416
495.034	10.9989
496.789	11.7522
498.544	13.3639
500.301	13.7089
502.056	14.7216
503.81	16.1725
505.564	16.0973
507.317	15.8106
509.071	15.4202
510.825	16.4076
512.578	15.9161
514.33	16.5845
516.082	16.8124
517.833	17.1198
519.585	16.3609
521.335	16.1639
523.086	16.1389
524.836	16.2119
526.586	16.0241
528.335	15.8864
530.085	15.3659
531.835	15.1884
533.584	14.5668
535.332	15.0109
537.08	15.0195
538.827	14.2485
540.574	14.2754
542.321	13.7337
544.068	12.6008
545.814	12.2095
547.56	11.4911
549.305	11.5052
551.05	10.8006
552.795	10.668
554.54	10.1289
556.282	10.1326
558.025	9.29658
559.769	8.48686
561.512	7.27479
563.255	7.00232
564.997	8.13681
566.739	7.70752
568.481	6.60169
570.223	5.84312
571.964	5.14088
573.705	4.33743
575.443	3.27761
577.183	3.16088
578.923	1.4909
580.663	1.91707
582.402	2.44142
584.141	3.12491
585.879	3.64214
587.615	3.60199
589.353	4.02493
591.09	3.41117
592.828	2.85847
594.564	1.87581
596.299	1.27134
598.035	1.7662
599.771	1.65961
601.506	2.23754
603.242	2.16533
604.974	2.0971
606.709	2.4938
608.443	3.29699
610.177	3.80958
611.908	3.94025
613.642	4.71048
615.374	4.73376
617.105	6.01498
618.837	5.90606
620.569	5.75199
622.3	6.35127
624.03	5.71137
625.761	6.45467
627.491	7.12614
629.219	7.39756
630.949	8.01825
632.677	9.18593
634.406	10.2261
636.135	10.8203
637.861	10.8349
639.59	11.605
641.318	12.2404
643.043	12.6177
644.77	12.4628
646.495	13.3766
648.222	14.2484
649.948	15.3763
651.672	15.3968
653.398	15.6465
655.121	15.9571
656.846	17.0545
658.569	17.7443
660.293	19.0887
662.015	20.4762
663.738	20.7326
665.46	20.8897
667.183	21.6629
668.903	21.8977
670.626	22.9959
672.346	22.4887
674.067	21.8089
675.787	22.2106
677.508	23.664
679.226	24.1403
680.947	24.3032
682.665	24.904
684.385	25.8655
686.102	26.5419
687.821	27.2489
689.538	28.663
691.254	29.8275
692.972	30.0619
694.688	30.7192
696.406	32.5497
698.121	33.3798
699.835	34.582
701.552	35.4606
703.266	37.5723
704.98	38.7391
706.695	39.4764
708.409	40.8192
710.121	41.4432
711.836	42.9422
713.548	44.0253
715.26	45.4795
716.973	46.8297
718.685	47.4124
720.396	47.9257
722.108	48.7067
723.818	49.9597
725.528	50.5059
727.238	50.6763
728.949	51.1492
730.658	51.4576
732.367	52.2933
734.075	52.1797
735.785	52.5299
737.493	52.9938
739.2	54.0216
740.907	54.5819
742.614	54.4618
744.322	55.1556
746.028	55.9582
747.734	56.2371
749.439	55.7257
751.144	56.5105
752.849	56.9978
754.555	58.2308
756.26	59.2497
757.963	59.8427
759.667	61.1643
761.37	62.2521
763.073	63.1011
764.775	62.6912
766.477	63.6363
768.179	65.5856
769.883	67.0321
771.584	68.099
773.285	69.2612
774.986	70.7226
776.686	70.9525
778.386	72.0346
780.085	73.0791
781.785	74.9993
783.484	75.0496
785.182	76.1516
786.881	76.1793
788.579	76.7731
790.276	76.7392
791.974	77.4164
793.671	78.148
795.367	79.0565
797.064	80.3271
798.76	81.0039
800.456	81.502
802.151	81.4607
803.846	82.2183
805.541	83.5181
807.234	84.1742
808.928	83.6979
810.622	83.558
812.315	83.3869
814.008	84.0716
815.701	83.8221
817.394	84.2467
819.086	84.0085
820.778	84.3783
822.468	84.3602
824.159	84.0641
825.85	83.7739
827.541	83.3707
829.231	84.0856
830.921	83.769
832.609	83.5282
834.298	82.5301
835.987	82.5325
837.676	82.0741
839.364	80.6011
841.051	79.8004
842.738	78.5039
844.426	76.9706
846.113	76.3782
847.798	75.3552
849.484	74.9184
851.171	73.9012
852.857	73.5309
854.54	70.9392
856.226	69.7758
857.911	68.6154
859.593	67.5033
861.278	66.083
862.961	65.0553
864.645	63.3139
866.327	63.4183
868.01	62.2415
869.692	61.1814
871.373	60.3032
873.055	60.2882
874.735	60.4539
876.416	59.923
878.097	59.8612
879.776	60.1928
881.457	59.9565
883.135	59.2693
884.815	59.5208
886.495	59.6983
888.172	60.0082
889.851	59.2949
891.528	58.6015
893.206	58.4596
894.882	58.1842
896.56	57.931
898.237	58.3784
899.912	57.5745
901.589	57.2573
903.263	56.7311
904.94	55.9905
906.614	55.381
908.289	55.0578
909.962	54.2363
911.635	53.2862
913.31	52.6383
914.982	50.7992
916.656	49.16
918.328	48.2416
920.001	47.7127
921.672	46.8914
923.345	45.2641
925.015	45.095
926.685	43.4643
928.357	42.4633
930.026	41.896
931.698	40.6757
933.366	40.0588
935.035	38.7536
936.705	38.7552
938.373	37.792
940.041	38.0136
941.71	37.4477
943.377	37.1021
945.044	36.491
946.712	35.7269
948.378	35.2846
950.044	36.2081
951.709	36.1043
953.376	36.437
955.041	36.8037
956.706	36.0941
958.372	35.9778
960.036	35.8345
961.699	36.51
963.362	35.9761
965.027	36.5699
966.69	36.759
968.352	37.8869
970.014	38.5098
971.676	38.5364
973.339	39.2118
975	39.8291
976.661	40.0257
978.322	40.4673
979.982	41.0912
981.642	41.7056
983.303	41.3448
984.962	41.695
986.621	42.0708
988.28	42.3098
989.938	42.6036
991.596	42.3627
993.254	40.4078
994.911	39.5906
996.57	38.9961
998.227	38.402
999.884	38.2782
1001.54	39.2061
1003.2	40.4632
1004.85	41.0363
1006.51	41.079
1008.16	42.0414
1009.82	41.8461
1011.47	42.3602
1013.12	42.8933
1014.78	43.1338
1016.43	44.1509
1018.08	45.1392
1019.74	45.8967
1021.39	45.7056
1023.04	46.4235
1024.69	46.919
1026.34	47.3269
1028	47.4478
1029.65	48.1527
1031.3	48.2691
1032.95	48.1144
1034.6	47.1452
1036.25	47.1629
1037.9	46.2048
1039.54	45.3483
1041.19	45.6971
1042.84	45.7312
1044.49	44.9893
1046.14	44.5812
1047.78	43.8722
1049.43	42.8535
1051.08	41.8464
1052.72	40.4805
1054.37	39.1912
1056.02	38.0633
1057.66	36.5345
1059.31	35.3463
1060.95	34.1961
1062.6	33.0724
1064.24	31.8391
1065.88	30.382
1067.53	28.9341
1069.17	26.9032
1070.81	24.9958
1072.45	22.6376
1074.1	20.2199
1075.74	18.978
1077.38	19.4806
1079.02	18.8105
1080.66	19.1487
1082.3	18.7132
1083.94	18.8641
1085.58	17.9694
1087.22	17.4909
1088.86	17.0681
1090.5	16.621
1092.14	15.8774
1093.78	16.2846
1095.42	16.298
1097.05	16.3254
1098.69	16.9342
1100.33	16.911
1101.96	16.0264
1103.6	16.0778
1105.24	16.9065
1106.87	16.7363
1108.51	16.7831
1110.14	15.3398
1111.78	15.3386
1113.41	14.5736
1115.05	14.3169
1116.68	13.9831
1118.31	14.3628
1119.95	13.6748
1121.58	13.1444
1123.21	12.9031
1124.85	11.7722
1126.48	10.3814
1128.11	9.59271
1129.74	9.59227
1131.37	9.23442
1133	8.96745
1134.63	8.74086
1136.26	9.30617
1137.89	8.24116
1139.52	8.63656
1141.15	8.49722
1142.78	9.00331
1144.41	9.02838
1146.04	7.69195
1147.66	7.07424
1149.29	6.7237
1150.92	6.18219
1152.55	5.84429
1154.17	6.16408
1155.8	6.78241
1157.43	7.1705
1159.05	6.61652
1160.68	5.26757
1162.3	5.14604
1163.93	3.66642
1165.55	3.10796
1167.17	2.98117
1168.8	3.21076
1170.42	2.31851
1172.05	3.02433
1173.67	2.90544
1175.29	2.99891
1176.91	2.78277
1178.54	3.08711
1180.16	3.69906
1181.78	2.666
1183.4	3.14294
1185.02	4.63751
1186.64	5.60654
1188.26	6.29751
1189.88	6.59531
1191.5	6.53299
1193.12	7.31895
1194.74	7.30864
1196.36	7.8495
1197.97	8.42
1199.59	9.08183
1201.21	9.67298
1202.83	9.44688
1204.44	9.49974
1206.06	10.6985
1207.68	11.9931
1209.29	14.8994
1210.91	17.1398
1212.52	18.1658
1214.14	20.3567
1215.75	22.8266
1217.37	24.6786
1218.98	25.9715
1220.59	28.2268
1222.21	29.081
1223.82	30.4391
1225.43	31.8973
1227.05	34.0828
1228.66	37.0229
1230.27	39.0822
1231.88	40.4679
1233.49	43.0519
1235.1	44.9185
1236.72	44.9517
1238.33	44.5751
1239.94	45.0094
1241.55	45.381
1243.16	46.5436
1244.76	46.462
1246.37	47.1526
1247.98	48.3854
1249.59	48.4383
1251.2	49.5565
1252.8	51.1848
1254.41	51.4028
1256.02	52.466
1257.62	52.7005
1259.23	53.4052
1260.84	54.0284
1262.44	53.9205
1264.05	55.0218
1265.66	55.9167
1267.26	55.8615
1268.86	55.3208
1270.47	54.9703
1272.07	54.2352
1273.67	53.5967
1275.28	54.2052
1276.88	54.7321
1278.48	54.2436
1280.09	54.2485
1281.69	55.2807
1283.29	55.7395
1284.89	56.9595
1286.49	58.2383
1288.09	58.9411
1289.69	60.4648
1291.29	60.9872
1292.89	61.9058
1294.49	62.9449
1296.09	63.8943
1297.69	64.3493
1299.29	64.548
1300.89	66.0377
1302.49	67.0115
1304.08	69.4333
1305.68	71.8328
1307.28	73.5466
1308.88	74.095
1310.47	74.778
1312.07	75.194
1313.66	76.1148
1315.26	75.6193
1316.85	74.8946
1318.45	75.3013
1320.04	76.0733
1321.64	76.7011
1323.23	76.7291
1324.83	76.6363
1326.42	75.5807
1328.01	75.9534
1329.61	75.0172
1331.2	75.2318
1332.79	74.9884
1334.38	73.7415
1335.97	73.2336
1337.56	72.1888
1339.16	71.2357
1340.75	70.5385
1342.34	68.8903
1343.93	68.1134
1345.52	66.8283
1347.11	64.99
1348.7	62.5447
1350.29	61.4027
1351.87	59.3054
1353.46	57.7269
1355.05	56.9581
1356.64	54.6685
1358.22	53.1298
1359.81	51.3577
1361.4	49.5313
1362.98	47.6445
1364.57	45.9819
1366.16	44.6621
1367.74	43.8856
1369.33	43.5689
1370.91	42.0504
1372.5	40.4759
1374.08	39.4566
1375.67	39.0968
1377.25	38.374
1378.83	37.2744
1380.41	38.3154
1382	37.455
1383.58	37.9408
1385.16	37.2136
1386.74	35.8387
1388.33	34.8878
1389.91	34.0631
1391.49	33.1555
1393.07	32.146
1394.65	32.3154
1396.23	30.6695
1397.81	30.7262
1399.39	30.752
1400.97	30.101
1402.55	29.888
1404.13	29.5034
1405.7	28.6051
1407.28	29.3255
1408.86	29.5836
1410.44	30.0368
1412.01	30.2257
1413.59	29.9293
1415.17	31.6794
1416.74	32.4593
1418.32	33.6785
1419.89	35.4451
1421.47	37.1101
1423.04	38.5101
1424.62	39.7124
1426.19	41.7795
1427.77	43.8067
1429.34	46.0719
1430.91	47.7564
1432.49	50.1232
1434.06	52.469
1435.63	54.4857
1437.2	56.8113
1438.78	57.9561
1440.35	59.8563
1441.92	61.5029
1443.49	63.0684
1445.06	63.8167
1446.63	64.6618
1448.2	65.4029
1449.77	65.0419
1451.34	64.9813
1452.91	65.0686
1454.48	64.9806
1456.05	64.3211
1457.62	63.8098
1459.18	63.6865
1460.75	62.0127
1462.32	60.8324
1463.89	58.8526
1465.45	57.4093
1467.02	55.757
1468.59	53.2902
1470.15	51.4292
1471.72	49.1229
1473.28	47.3621
1474.85	43.1562
1476.41	41.0061
1477.98	38.5618
1479.54	35.8339
1481.1	32.8697
1482.67	29.7729
1484.23	27.5326
1485.79	25.0667
1487.36	23.3365
1488.92	20.9534
1490.48	18.3816
1492.04	16.875
1493.61	16.8234
1495.17	15.9473
1496.73	16.0531
1498.29	14.9535
1499.85	15.0029
1501.41	14.1778
1502.97	14.2576
1504.53	14.8949
1506.09	15.192
1507.65	14.9312
1509.2	14.9809
1510.76	15.606
1512.32	15.8076
1513.88	16.2471
1515.43	16.0959
1516.99	16.4457
1518.55	17.7177
1520.1	18.6871
1521.66	19.8617
1523.22	20.4574
1524.77	22.3929
1526.33	23.4056
1527.88	24.435
1529.44	25.8264
1530.99	27.4318
1532.54	28.3603
1534.1	29.513
1535.65	30.7045
1537.21	32.062
1538.76	34.1238
1540.31	35.7802
1541.86	36.7554
1543.42	39.0679
1544.97	40.4632
1546.52	42.2259
1548.07	43.7615
1549.62	44.7013
1551.17	46.1172
1552.72	47.4356
1554.27	49.3927
1555.82	51.1825
1557.37	52.1555
1558.92	52.4592
1560.47	53.7458
1562.02	55.0374
1563.56	54.9175
1565.11	56.6132
1566.66	56.8754
1568.21	57.7621
1569.75	59.6163
1571.3	61.3981
1572.85	62.4904
1574.39	63.2909
1575.94	63.5911
1577.49	64.7372
1579.03	65.0886
1580.57	65.6173
1582.12	65.9868
1583.66	65.9436
1585.21	66.8586
1586.75	66.809
1588.3	67.5548
1589.84	68.0021
1591.38	68.3646
1592.92	68.7123
1594.47	68.91
1596.01	69.1098
1597.55	68.864
1599.09	68.9765
1600.63	68.6624
1602.17	68.6947
1603.71	67.5241
1605.25	67.1374
1606.79	67.0718
1608.33	66.9084
1609.87	66.4821
1611.41	67.0764
1612.95	67.5381
1614.49	67.9686
1616.03	68.3214
1617.57	67.6735
1619.1	68.2755
1620.64	69.8474
1622.18	70.6376
1623.72	71.1724
1625.25	71.7949
1626.79	72.785
1628.32	74.065
1629.86	75.1559
1631.39	75.6299
1632.93	76.091
1634.46	76.0524
1636	76.8565
1637.53	78.6374
1639.07	79.3563
1640.6	79.5049
1642.13	81.858
1643.67	82.43
1645.2	83.8237
1646.73	85.2757
1648.26	86.0948
1649.8	86.8779
1651.33	87.3416
1652.86	87.6313
1654.39	87.7122
1655.92	88.1979
1657.45	88.1474
1658.98	87.7352
1660.51	87.9411
1662.04	87.7231
1663.57	86.2431
1665.1	85.6128
1666.63	84.6097
1668.16	82.6313
1669.68	81.4789
1671.21	79.6204
1672.74	77.5553
1674.27	75.3479
1675.79	72.9125
1677.32	70.114
1678.85	67.4483
1680.37	64.5219
1681.9	62.1215
1683.42	60.3835
1684.95	57.3731
1686.47	54.0653
1688	51.6832
1689.52	49.1407
1691.05	46.0986
1692.57	43.7872
1694.09	41.6458
1695.62	39.8279
1697.14	37.6756
1698.66	35.2392
1700.18	32.3282
1701.71	29.8628
1703.23	27.6548
1704.75	25.5872
1706.27	23.8815
1707.79	21.5029
1709.31	19.512
1710.83	17.8995
1712.35	16.7275
1713.87	15.7471
1715.39	14.6357
1716.91	14.0171
1718.43	13.4701
1719.95	12.0493
1721.47	11.6946
1722.99	11.6334
1724.5	11.0782
1726.02	10.6593
1727.54	9.53082
1729.06	8.85595
1730.57	8.56059
1732.09	8.8709
1733.61	8.19962
1735.12	7.85157
1736.64	7.80404
1738.15	7.10946
1739.67	6.84429
1741.18	7.0493
1742.7	6.72881
1744.21	6.65709
1745.72	6.86262
1747.24	6.22809
1748.75	5.86995
1750.26	6.01701
1751.77	5.86331
1753.29	5.75513
1754.8	5.91121
1756.31	5.77567
1757.82	6.27607
1759.33	6.1667
1760.84	5.06661
1762.36	4.42608
1763.87	4.63806
1765.38	4.43861
1766.89	4.30072
1768.4	4.24829
1769.91	3.65296
1771.41	3.10459
1772.92	2.38702
1774.43	1.41364
1775.94	1.14418
1777.45	1.23394
1778.95	1.5711
1780.46	1.21331
1781.97	0.953097
1783.48	0.718339
1784.98	1.12267
1786.49	1.06562
1787.99	1.20709
1789.5	1.78992
1791.01	1.8132
1792.51	1.15336
1794.01	1.1913
1795.52	1.29104
1797.02	1.25415
1798.53	1.02476
1800.03	0.3251
1801.53	0.317663
1803.04	0.0399978
1804.54	0.469043
1806.04	1.24436
1807.54	1.36328
1809.05	1.71713
1810.55	1.90838
1812.05	1.83656
1813.55	2.20745
1815.05	2.31357
1816.55	2.45391
1818.05	2.50708
1819.55	3.01318
1821.05	2.99593
1822.55	2.95071
1824.05	2.80372
1825.55	2.98405
1827.05	2.88464
1828.55	2.98732
1830.04	3.23894
1831.54	2.9801
1833.04	3.04052
1834.54	2.32126
1836.03	1.98242
1837.53	1.94378
1839.03	1.91226
1840.52	1.56932
1842.02	1.07263
1843.51	0.762517
1845.01	0.469345
1846.5	0.236797
1848	0.0229873
1849.49	-0.0352851
1850.99	0.181977
1852.48	0.318267
1853.97	0.591433
1855.47	0.242582
1856.96	0.416103
1858.45	0.534512
1859.94	0.374664
1861.44	0.175154
1862.93	0.267537
1864.42	0.424395
1865.91	0.342071
1867.4	0.359178
1868.89	0.75497
1870.38	0.736146
1871.87	0.223624
1873.36	1.11968
1874.85	1.13032
1876.34	2.19963
1877.83	2.2714
1879.32	2.06279
1880.81	2.22448
1882.3	2.51792
1882.57	2.90543
1884.07	2.53935
1885.56	2.86601
1887.06	3.0673
1888.55	2.99578
1890.04	3.4764
1891.54	3.82557
1893.03	3.86931
1894.52	3.44587
1896.02	3.72703
1897.51	3.94833
1899	4.68182
1900.49	4.71506
1901.98	4.64337
1903.47	4.63691
1904.96	4.41718
1906.45	4.23457
1907.94	4.11111
1909.43	4.15843
1910.92	3.5572
1912.41	3.97865
1913.9	4.11172
1915.39	4.25452
1916.88	4.68162
1918.37	4.50958
1919.85	4.01674
1921.34	3.8886
1922.83	3.83484
1924.32	3.88632
1925.8	4.2851
1927.29	4.16418
1928.78	4.39107
1930.26	4.38387
1931.75	4.66158
1933.23	4.70278
1934.72	5.35389
1936.2	5.65509
1937.69	5.81504
1939.17	6.04575
1940.66	5.72114
1942.14	5.66612
1943.63	5.90324
1945.11	6.19267
1946.59	7.08635
1948.07	7.19442
1949.56	7.55473
1951.04	6.89708
1952.52	6.5023
1954	7.07554
1955.48	7.1139
1956.96	6.67068
1958.45	6.76316
1959.93	6.70798
1961.41	6.03958
1962.89	5.56753
1964.37	5.3008
1965.85	5.42764
1967.32	4.66788
1968.8	4.47237
1970.28	4.46852
1971.76	4.13154
1973.24	4.34391
1974.72	4.00584
1976.19	4.76776
1977.67	4.96251
1979.15	5.00603
1980.63	4.68215
1982.1	5.05606
1983.58	4.84975
1985.05	4.46783
1986.53	4.90534
1988	4.06266
1989.48	3.86174
1990.95	4.09501
1992.43	3.61653
1993.9	3.37325
1995.38	3.81611
1996.85	4.15409
1998.32	5.08975
1999.8	5.223
2001.27	5.51524
2002.74	5.95254
2004.22	5.41361
2005.69	5.63816
2007.16	5.73839
2008.63	6.38804
2010.1	5.94142
2011.57	5.88592
2013.04	6.34793
2014.51	6.79333
2015.98	7.98341
2017.45	8.76332
2018.92	8.87526
2020.39	8.86918
2021.86	9.52828
2023.33	9.2101
2024.8	9.11942
2026.27	9.43738
2027.74	9.50139
2029.2	9.8189
2030.67	9.92032
2032.14	10.1447
2033.61	10.4601
2035.07	10.3914
2036.54	10.777
2038.01	10.6971
2039.47	10.6725
2040.94	10.3708
2042.4	10.7608
2043.87	11.0912
2045.33	11.3911
2046.8	11.9938
2048.26	12.3697
2049.72	12.7377
2051.19	12.3865
2052.65	12.2095
2054.12	11.935
2055.58	12.0778
2057.04	11.3293
2058.5	11.4164
2059.97	12.0205
2061.43	11.981
2062.89	12.5959
2064.35	13.4046
2065.81	13.662
2067.27	14.448
2068.73	14.7803
2070.19	15.254
2071.65	15.8555
2073.11	15.3886
2074.57	15.1128
2076.03	15.3176
2077.49	15.3278
2078.95	15.5152
2080.41	16.518
2081.87	17.4168
2083.32	17.2408
2084.78	17.6276
2086.24	18.3359
2087.7	18.9982
2089.15	19.2557
2090.61	19.8067
2092.07	19.5557
2093.52	20.183
2094.98	20.8571
2096.43	20.8912
2097.89	21.2865
2099.34	21.9705
2100.8	23.1079
2102.25	24.0212
2103.71	24.3971
2105.16	25.2894
2106.61	25.6617
2108.07	25.9445
2109.52	26.6775
2110.97	27.1736
2112.43	27.8914
2113.88	29.2892
2115.33	30.0917
2116.78	31.249
2118.23	32.3546
2119.68	33.9263
2121.13	35.4332
2122.59	36.8199
2124.04	38.396
2125.49	39.7746
2126.94	41.6378
2128.39	42.7218
2129.83	44.1269
2131.28	46.3145
2132.73	47.3973
