#Acq. time (s)=	45
#Accumulations=	2
#Range (cm-¹)=	200...3150
#Windows=	2
#Auto scanning=	Off
#Autofocus=	Off
#Macrospot=	Off
#AutoExposure=	Off
#Spike filter=	Multiple accum.
#Delay time (s)=	0
#Binning=	1
#Readout mode=	Signal
#DeNoise=	Off
#ICS correction=	On
#Dark correction=	Off
#Inst. Process=	Off
#Detector Gain=	Best Dynamic Range
#Detector ADC=	20 kHz       
#Detector temperature (°C)=	-69.85
#Instrument=	LabRAM HR Evol
#Detector=	Synapse
#Objective=	x100
#Grating=	600 gr/mm
#ND Filter=	100%
#Laser (nm)=	532 
#Hole=	100.021
#Range=	Auto
#Laser Pol.=	No
#Raman. Pol.=	No
#Laser Pol. (°)=	-0.0007625
#Raman Pol. (°)=	89.9995
#Collection=	Microscope
#StageXY=	Marzhauser
#StageZ=	Marzhauser
#X (µm)=	4764.1
#Y (µm)=	-7727.4
#Z (µm)=	584.8
#Full time(mm:ss)=	3:18
#Project=	
#Sample=	
#Site=	
#Title=	Thy_30_10_18_2x_45s_532 nm_x100_100%_600 gr_mm
#Remark=	
#Date=	30.06.2022 12:45
#Acquired=	30.06.2022 12:45:40
#Base:Fit=	10.08.2022 09:58:11
#Base:Sub=	10.08.2022 09:58:44
#Filter:Polynom=	16.08.2022 10:22:53
#AxisType[0]=Intens
#AxisUnit[0]=Cnt
#AxisType[1]=Spectr
#AxisUnit[1]=1/cm
200.533	14.199
202.348	13.6817
204.162	14.1076
205.976	14.7368
207.792	14.7649
209.605	14.564
211.418	14.1376
213.23	12.9811
215.044	12.1442
216.856	11.3445
218.667	10.8139
220.478	11.1403
222.289	10.8501
224.102	9.82056
225.912	10.0173
227.721	10.4336
229.531	9.00645
231.34	8.00044
233.148	7.40253
234.956	7.721
236.766	6.9608
238.574	6.12242
240.381	6.86738
242.188	6.62369
243.994	6.94226
245.801	6.97986
247.606	7.62144
249.412	7.17388
251.217	6.87265
253.024	7.37935
254.828	7.17626
256.632	6.90432
258.436	7.2493
260.239	8.17947
262.042	9.00648
263.845	8.8232
265.647	8.44119
267.449	9.1141
269.25	8.8042
271.052	8.30615
272.852	8.17611
274.653	8.4996
276.453	7.6808
278.253	7.92136
280.052	7.6494
281.852	7.42142
283.65	6.81251
285.449	8.18303
287.247	8.53272
289.044	8.40814
290.842	8.50869
292.639	8.74102
294.436	8.08258
296.232	8.83791
298.028	9.73196
299.821	9.94432
301.617	9.79947
303.412	10.4491
305.206	11.6012
307	13.0466
308.794	13.9134
310.588	14.9305
312.381	14.7694
314.172	14.9549
315.964	15.7654
317.756	15.9819
319.548	16.1422
321.34	16.5951
323.131	17.3247
324.921	18.0993
326.71	18.4366
328.5	20.0622
330.29	21.4365
332.079	21.2161
333.868	21.3504
335.654	21.7616
337.443	22.1873
339.231	21.8368
341.018	22.1138
342.804	23.3924
344.591	23.7276
346.377	23.6084
348.163	24.1306
349.947	22.5141
351.733	21.951
353.518	20.4278
355.303	19.3278
357.085	19.0749
358.869	17.8065
360.653	17.1681
362.435	15.9526
364.218	14.6258
366.001	13.4435
367.781	13.1795
369.563	11.3737
371.345	11.6102
373.124	11.0257
374.905	11.3143
376.686	10.0461
378.464	9.8183
380.244	9.8043
382.022	9.37722
383.801	9.86346
385.58	10.831
387.357	10.2628
389.135	9.64629
390.911	9.39312
392.689	9.22204
394.466	8.76668
396.241	8.69836
398.018	7.9386
399.792	7.76404
401.568	7.09922
403.341	6.20254
405.117	5.86407
406.889	6.08538
408.664	5.82553
410.436	5.84493
412.21	6.56549
413.981	6.73058
415.755	7.08559
417.525	6.69151
419.298	6.16981
421.068	6.26719
422.84	6.46292
424.609	6.93719
426.38	7.11636
428.149	7.17201
429.919	6.98195
431.688	7.47125
433.455	7.30589
435.225	7.31065
436.992	7.2883
438.76	6.63046
440.527	7.21545
442.293	8.02951
444.06	8.19302
445.826	8.77697
447.593	9.24718
449.357	9.20829
451.122	9.89163
452.888	10.0373
454.651	11.0291
456.415	11.2041
458.18	11.397
459.942	12.332
461.705	12.2737
463.469	13.0992
465.23	13.4338
466.991	14.5844
468.752	15.3399
470.515	16.4607
472.275	17.2685
474.035	17.8002
475.797	17.8264
477.556	17.1661
479.315	16.4127
481.073	16.2241
482.834	17.6457
484.592	18.0854
486.349	18.691
488.106	18.8555
489.863	19.2912
491.622	19.4125
493.378	21.0759
495.134	21.8345
496.889	22.2844
498.645	21.9738
500.401	21.9336
502.156	21.7464
503.91	22.5594
505.664	21.6846
507.417	21.411
509.171	21.8965
510.923	21.6027
512.678	21.2346
514.43	21.5727
516.182	20.8843
517.933	20.1076
519.684	20.0909
521.435	19.0601
523.186	18.3063
524.936	17.9782
526.686	18.7216
528.435	19.4712
530.184	19.0942
531.933	18.7742
533.682	19.1244
535.43	18.4592
537.18	17.81
538.927	17.2072
540.674	15.6675
542.421	15.1734
544.167	14.7327
545.913	14.1453
547.659	13.6349
549.403	13.6119
551.148	13.1155
552.893	11.7853
554.637	11.5781
556.381	10.9656
558.125	11.0135
559.868	9.71089
561.611	8.95602
563.354	7.42753
565.097	6.72635
566.839	6.97938
568.581	8.18116
570.322	8.48822
572.063	7.57312
573.802	6.96855
575.542	5.69586
577.283	5.50855
579.022	4.75044
580.762	4.75
582.501	3.48456
584.24	2.74445
585.976	2.48809
587.714	3.11219
589.452	2.53302
591.19	2.35062
592.927	1.68598
594.663	1.38841
596.398	1.48386
598.134	0.557219
599.87	0.293239
601.605	0.24759
603.338	0.234383
605.073	0.72561
606.808	1.61369
608.542	1.41057
610.274	2.97201
612.007	3.90525
613.74	4.27544
615.473	3.72994
617.204	3.05869
618.936	3.736
620.668	4.13164
622.397	3.52143
624.128	3.882
625.859	3.0815
627.588	4.21412
629.318	5.51399
631.048	5.83174
632.775	5.62668
634.505	5.77703
636.233	5.63876
637.96	5.15496
639.688	5.28525
641.416	6.0886
643.142	6.66349
644.869	6.88413
646.594	6.58187
648.32	7.8676
650.045	8.83013
651.771	9.88621
653.496	10.1564
655.219	10.6123
656.944	10.1905
658.667	10.9338
660.391	10.9369
662.113	12.3201
663.837	14.7068
665.558	15.4147
667.281	16.5868
669.002	17.2101
670.724	18.3684
672.444	19.4568
674.166	20.0782
675.885	20.753
677.606	20.8294
679.325	20.7308
681.045	20.2303
682.763	21.3676
684.483	22.5984
686.2	24.1102
687.917	25.2368
689.636	26.5113
691.352	26.4217
693.07	26.8711
694.786	27.0191
696.501	27.8119
698.219	27.4277
699.933	28.2477
701.65	28.6648
703.364	28.5379
705.078	29.7448
706.793	29.8829
708.506	30.1626
710.219	31.118
711.934	31.0018
713.646	31.8304
715.358	31.6378
717.071	31.073
718.782	30.9311
720.493	30.7343
722.204	30.9729
723.916	31.3137
725.626	31.3567
727.336	31.319
729.045	32.5097
730.756	33.036
732.464	34.0015
734.173	34.6193
735.881	35.2766
737.59	36.7993
739.297	37.5987
741.004	39.268
742.711	40.7137
744.417	42.2333
746.125	44.5527
747.831	46.7432
749.537	48.7434
751.242	49.1212
752.946	50.4487
754.651	51.418
756.357	52.6625
758.061	53.6158
759.764	54.968
761.467	55.9398
763.17	56.6881
764.872	58.1701
766.575	60.2264
768.276	62.954
769.978	65.4
771.679	67.0038
773.382	67.5503
775.083	68.3276
776.783	69.8142
778.483	71.3094
780.182	72.2368
781.882	73.0078
783.581	73.5297
785.279	74.6633
786.978	74.2425
788.676	75.144
790.373	76.3972
792.071	77.1518
793.768	77.6542
795.464	77.1828
797.161	77.5253
798.857	78.1422
800.552	78.0078
802.248	77.5957
803.941	77.2659
805.636	77.2192
807.33	77.1443
809.024	76.9096
810.718	76.6178
812.412	77.1649
814.105	77.4817
815.798	77.3702
817.49	77.0235
819.183	77.6795
820.873	79.0635
822.564	78.6424
824.256	78.4164
825.947	78.6778
827.637	79.3833
829.328	79.1662
831.016	79.1335
832.705	78.0757
834.395	77.6278
836.084	76.4775
837.772	76.21
839.459	75.5051
841.147	75.2722
842.835	74.8207
844.522	75.2371
846.209	74.9197
847.894	74.2201
849.581	74.0656
851.267	74.0591
852.953	73.2611
854.637	71.0667
856.322	68.5118
858.007	66.4206
859.689	64.7302
861.374	63.6549
863.058	61.5605
864.739	59.5501
866.423	57.9436
868.106	56.2594
869.787	54.7793
871.469	53.0254
873.151	52.974
874.831	52.7728
876.512	52.2216
878.193	50.6273
879.872	49.9408
881.553	49.7022
883.231	49.1155
884.911	47.4087
886.591	47.2453
888.268	46.5066
889.947	46.3852
891.623	46.2951
893.302	46.1451
894.978	46.4487
896.656	47.0296
898.331	47.0616
900.008	47.2888
901.683	47.2525
903.359	47.7035
905.033	47.6203
906.709	47.6699
908.383	47.6368
910.058	47.4518
911.731	47.5359
913.405	46.5363
915.078	46.5893
916.752	46.5654
918.423	46.4558
920.096	46.9836
921.768	47.2183
923.438	47.6867
925.111	48.0854
926.781	48.0065
928.452	48.0062
930.122	47.3711
931.791	46.8346
933.462	46.774
935.13	44.8951
936.799	43.3736
938.468	41.8801
940.136	40.9725
941.803	40.9072
943.472	40.6476
945.139	40.793
946.805	40.2131
948.473	39.959
950.139	39.5339
951.804	40.0024
953.471	40.7488
955.136	41.2173
956.801	42.3254
958.465	42.2604
960.131	40.6908
961.794	40.5517
963.458	41.0187
965.12	41.3932
966.785	41.3586
968.447	41.0701
970.109	41.4189
971.771	41.8083
973.432	40.9457
975.095	40.3037
976.756	40.0788
978.417	40.4254
980.077	40.0395
981.737	39.9321
983.396	38.9684
985.057	37.7401
986.716	37.3006
988.375	36.5924
990.033	36.4571
991.691	35.2268
993.349	34.3531
995.006	34.0655
996.663	33.2202
998.32	34.0955
999.976	33.1574
1001.63	33.2922
1003.29	33.7585
1004.95	33.4647
1006.6	32.8591
1008.26	32.549
1009.91	32.542
1011.56	32.4907
1013.22	32.1075
1014.87	31.5183
1016.53	30.7388
1018.18	29.9489
1019.83	30.0862
1021.48	29.9456
1023.14	30.3729
1024.79	30.9978
1026.44	30.7031
1028.09	30.9623
1029.74	30.6059
1031.39	31.212
1033.04	31.0431
1034.69	31.6062
1036.34	30.9625
1037.99	30.6624
1039.64	30.6774
1041.29	29.6435
1042.94	29.368
1044.58	30.081
1046.23	29.287
1047.88	28.7679
1049.52	27.4049
1051.17	27.5983
1052.82	26.5184
1054.46	26.2809
1056.11	24.9353
1057.75	24.7425
1059.4	24.7586
1061.04	24.196
1062.69	23.9123
1064.33	23.3565
1065.98	22.4968
1067.62	21.3518
1069.26	21.534
1070.9	21.0045
1072.55	20.9614
1074.19	19.95
1075.83	19.6217
1077.47	20.4498
1079.11	19.8376
1080.76	19.9532
1082.4	18.3049
1084.04	17.8437
1085.68	17.1915
1087.32	16.0778
1088.95	15.5669
1090.59	16.4209
1092.23	16.289
1093.87	15.9206
1095.51	16.0899
1097.15	16.1367
1098.78	16.0534
1100.42	16.1703
1102.06	15.8281
1103.69	16.1554
1105.33	16.2784
1106.97	15.7282
1108.6	15.2544
1110.24	15.4386
1111.87	15.0103
1113.51	15.113
1115.14	15.1637
1116.77	14.8973
1118.41	14.7242
1120.04	14.6117
1121.67	13.9445
1123.31	13.0913
1124.94	13.2619
1126.57	12.6259
1128.2	11.7612
1129.83	12.1912
1131.47	11.9567
1133.1	12.5504
1134.72	11.208
1136.36	10.3347
1137.98	9.06281
1139.62	8.36869
1141.24	8.94711
1142.87	8.53269
1144.5	7.99764
1146.13	7.05656
1147.76	6.16073
1149.38	5.12017
1151.01	4.72394
1152.64	4.84205
1154.27	4.71907
1155.89	4.04965
1157.52	3.7024
1159.14	3.14809
1160.77	1.28541
1162.39	1.24004
1164.02	0.841412
1165.64	0.514485
1167.27	0.714391
1168.89	1.08004
1170.51	2.03219
1172.14	3.23346
1173.76	3.48079
1175.38	3.96852
1177	4.57924
1178.63	4.56547
1180.25	5.39469
1181.87	5.27212
1183.49	6.27093
1185.11	7.37799
1186.73	7.63162
1188.35	8.14208
1189.97	8.98519
1191.59	10.3613
1193.21	11.5142
1194.83	12.4194
1196.45	13.4243
1198.07	13.3833
1199.68	14.4086
1201.3	15.2523
1202.92	15.7443
1204.53	17.3961
1206.15	18.7688
1207.77	19.7725
1209.38	20.9781
1211	22.7651
1212.62	23.929
1214.23	24.9463
1215.84	26.7849
1217.46	28.1998
1219.07	29.4181
1220.69	31.5248
1222.3	32.7823
1223.91	33.3131
1225.53	34.2155
1227.14	35.4902
1228.75	37.34
1230.36	38.2618
1231.97	39.3032
1233.59	40.6325
1235.2	41.1633
1236.81	41.8012
1238.42	42.4829
1240.03	43.8211
1241.64	44.605
1243.25	46.5312
1244.85	47.0406
1246.46	47.5144
1248.07	48.5314
1249.68	49.1775
1251.29	49.9102
1252.9	50.8652
1254.5	51.0934
1256.11	51.8894
1257.72	52.1353
1259.32	52.7259
1260.93	52.8481
1262.54	52.5902
1264.14	53.4185
1265.75	53.5185
1267.35	52.7542
1268.96	53.2125
1270.56	53.6967
1272.16	54.3319
1273.77	55.1047
1275.37	55.3654
1276.97	56.12
1278.57	57.124
1280.18	58.2385
1281.78	59.5011
1283.38	60.3403
1284.98	61.9714
1286.58	62.6843
1288.18	63.6508
1289.78	64.1614
1291.38	65.2324
1292.99	65.6135
1294.58	65.6217
1296.18	66.2822
1297.78	66.7859
1299.38	66.6362
1300.98	67.0427
1302.58	66.6834
1304.17	67.0601
1305.77	67.183
1307.37	68.0208
1308.97	68.255
1310.56	67.8474
1312.16	67.9933
1313.76	67.9479
1315.35	67.9026
1316.95	67.8054
1318.54	67.8295
1320.14	68.1966
1321.73	67.2344
1323.32	66.486
1324.92	65.4753
1326.51	64.749
1328.1	64.1337
1329.7	62.9198
1331.29	62.6086
1332.88	61.424
1334.47	59.881
1336.07	58.5456
1337.66	56.9561
1339.25	56.2303
1340.84	54.4629
1342.43	53.1648
1344.02	51.2667
1345.61	50.4867
1347.2	49.5189
1348.79	49.5366
1350.37	48.7282
1351.96	47.7876
1353.55	47.3699
1355.14	46.7823
1356.73	46.3262
1358.31	45.5832
1359.9	45.5863
1361.49	44.8837
1363.07	43.2727
1364.66	42.1856
1366.25	41.1694
1367.83	40.808
1369.42	41.1622
1371	41.717
1372.59	41.0486
1374.17	40.1682
1375.75	40.5439
1377.34	40.227
1378.92	39.3862
1380.5	38.8696
1382.09	38.5772
1383.67	39.1203
1385.25	38.6381
1386.83	37.814
1388.42	36.6361
1390	35.4923
1391.58	34.3901
1393.16	33.3144
1394.74	32.7628
1396.32	32.759
1397.9	31.8398
1399.48	30.821
1401.06	30.2833
1402.64	29.0361
1404.21	28.8496
1405.79	28.3483
1407.37	27.439
1408.95	27.4234
1410.53	27.3453
1412.1	26.5553
1413.68	26.3693
1415.26	26.8822
1416.83	27.2895
1418.41	27.5036
1419.98	27.2893
1421.56	28.2795
1423.13	30.193
1424.71	32.6562
1426.28	34.5222
1427.86	36.7976
1429.43	37.6466
1431	39.8056
1432.58	41.6948
1434.15	43.1671
1435.72	44.8966
1437.29	46.6556
1438.87	49.1495
1440.44	50.1037
1442.01	51.3203
1443.58	52.8886
1445.15	54.8128
1446.72	56.7166
1448.29	57.0246
1449.86	56.8201
1451.43	56.055
1453	56.5497
1454.57	56.6188
1456.14	56.7417
1457.71	55.9636
1459.27	54.5368
1460.84	53.4366
1462.41	52.3826
1463.98	49.4492
1465.54	47.1214
1467.11	44.7661
1468.67	42.4565
1470.24	39.9801
1471.81	37.7219
1473.37	36.4119
1474.94	34.1737
1476.5	31.0882
1478.07	28.8549
1479.63	26.3769
1481.19	24.1538
1482.76	22.5903
1484.32	19.9376
1485.88	18.4241
1487.45	16.8627
1489.01	14.7174
1490.57	12.6981
1492.13	11.002
1493.69	10.6486
1495.26	9.5393
1496.82	8.93544
1498.38	8.60845
1499.94	8.4143
1501.5	9.16988
1503.06	9.23704
1504.62	9.16916
1506.17	8.31552
1507.73	7.56086
1509.29	7.83533
1510.85	7.75296
1512.41	8.83262
1513.97	9.5715
1515.52	10.0048
1517.08	10.3799
1518.64	10.4705
1520.19	10.5485
1521.75	11.2301
1523.31	11.5802
1524.86	12.1849
1526.42	12.1429
1527.97	13.0461
1529.52	13.6707
1531.08	15.0909
1532.63	15.5623
1534.19	16.0639
1535.74	16.0328
1537.29	16.3638
1538.85	17.1726
1540.4	18.31
1541.95	18.7826
1543.5	19.2245
1545.06	20.1228
1546.61	21.8278
1548.16	22.7669
1549.71	24.0078
1551.26	25.2863
1552.81	26.1695
1554.36	27.2348
1555.91	28.1727
1557.46	29.1713
1559.01	30.2353
1560.56	30.992
1562.11	31.8499
1563.65	32.6251
1565.2	33.5742
1566.75	34.4631
1568.29	35.4945
1569.84	37.3543
1571.39	39.8705
1572.94	40.9568
1574.48	41.9213
1576.03	43.4188
1577.57	45.494
1579.12	47.2628
1580.66	48.247
1582.21	48.7728
1583.75	48.9068
1585.3	50.4171
1586.84	51.0248
1588.38	51.8382
1589.93	52.6306
1591.47	51.9437
1593.01	52.0301
1594.55	52.2187
1596.1	52.4509
1597.64	51.7831
1599.18	51.1883
1600.72	50.9871
1602.26	51.2092
1603.8	50.7016
1605.34	49.9054
1606.88	50.4296
1608.42	49.9712
1609.96	49.0839
1611.5	48.6926
1613.04	48.9034
1614.58	48.8669
1616.12	48.9972
1617.65	49.5291
1619.19	49.3305
1620.73	49.7975
1622.27	50.8391
1623.8	51.3269
1625.34	51.2732
1626.87	51.8511
1628.41	53.5924
1629.95	54.425
1631.48	55.0552
1633.02	55.6616
1634.55	56.8245
1636.09	58.0982
1637.62	59.2545
1639.15	59.9498
1640.69	61.3087
1642.22	63.5878
1643.76	64.7589
1645.29	66.2192
1646.82	68.0163
1648.35	69.7401
1649.88	70.5471
1651.42	71.2944
1652.95	72.8805
1654.48	74.3418
1656.01	74.7201
1657.54	74.4848
1659.07	73.9588
1660.6	73.9994
1662.13	74.0062
1663.66	73.4854
1665.19	72.3866
1666.72	71.5264
1668.24	70.1
1669.77	69.1869
1671.3	68.2032
1672.83	66.0536
1674.35	63.8534
1675.88	62.0115
1677.41	60.815
1678.93	58.2252
1680.46	55.6387
1681.99	52.7847
1683.51	50.9789
1685.04	48.2765
1686.56	45.9454
1688.09	43.4025
1689.61	40.4907
1691.13	38.4543
1692.66	36.3764
1694.18	34.6434
1695.71	31.8094
1697.23	29.3155
1698.75	26.7957
1700.27	25.3605
1701.8	23.4969
1703.32	22.1907
1704.84	20.7109
1706.36	18.5578
1707.88	17.1852
1709.4	16.2477
1710.92	15.2959
1712.44	14.1844
1713.96	12.4836
1715.48	11.7302
1717	11.5551
1718.52	11.1071
1720.04	9.90908
1721.56	9.2058
1723.07	8.94565
1724.59	8.76153
1726.11	8.26677
1727.63	8.12606
1729.14	7.89963
1730.66	7.12368
1732.18	5.94818
1733.69	5.30758
1735.21	5.10107
1736.72	5.07705
1738.24	4.33191
1739.75	4.11473
1741.27	3.5208
1742.78	3.83558
1744.3	3.60501
1745.81	3.49241
1747.32	3.10479
1748.84	2.24464
1750.35	2.58367
1751.86	2.38156
1753.37	2.20572
1754.89	1.80021
1756.4	1.69928
1757.91	1.5083
1759.42	1.55903
1760.93	1.31389
1762.44	0.807753
1763.95	0.272873
1765.46	0.295826
1766.97	0.489583
1768.48	0.0551624
1769.99	-0.717209
1771.5	-0.779674
1773.01	-0.530703
1774.52	0.709559
1776.03	0.672657
1777.53	0.364627
1779.04	0.414756
1780.55	0.624492
1782.06	0.593628
1783.56	0.826724
1785.07	0.953925
1786.57	0.987785
1788.08	0.915785
1789.59	0.563607
1791.09	1.06553
1792.6	1.62723
1794.1	1.96246
1795.6	1.75107
1797.11	2.31406
1798.61	2.70985
1800.12	3.04684
1801.62	2.87926
1803.12	2.96534
1804.63	2.82312
1806.13	2.62921
1807.63	2.83228
1809.13	2.88332
1810.63	2.64705
1812.14	3.05443
1813.64	2.72431
1815.14	2.66396
1816.64	3.60802
1818.14	3.64851
1819.64	3.38657
1821.14	3.89955
1822.64	3.77078
1824.14	4.37854
1825.63	4.63534
1827.13	4.8039
1828.63	5.11875
1830.13	5.8169
1831.63	5.91654
1833.12	6.47307
1834.62	6.47453
1836.12	6.74483
1837.62	6.98933
1839.11	6.94023
1840.61	6.83384
1842.1	6.58075
1843.6	6.56799
1845.09	6.93936
1846.59	7.58991
1848.08	7.98425
1849.58	7.9267
1851.07	7.01922
1852.57	6.86215
1854.06	6.63826
1855.55	6.77517
1857.04	6.77911
1858.54	7.00009
1860.03	7.48442
1861.52	7.70765
1863.01	7.70766
1864.5	8.48318
1866	9.16025
1867.49	10.0233
1868.98	10.6665
1870.47	10.9272
1871.96	11.3842
1873.45	11.2631
1874.94	11.5096
1876.43	11.5261
1877.92	11.9717
1879.41	11.5201
1880.89	11.2481
1882.38	11.3578
1882.48	11.3176
1883.97	11.4998
1885.47	12.4191
1886.96	12.3809
1888.46	12.5537
1889.95	12.8012
1891.44	12.4084
1892.94	12.7879
1894.43	13.1227
1895.92	12.4411
1897.41	12.7227
1898.9	12.2177
1900.4	12.4859
1901.89	12.1634
1903.38	12.434
1904.87	12.0719
1906.36	12.1822
1907.85	11.8038
1909.34	11.7591
1910.83	11.974
1912.32	11.6733
1913.81	11.4825
1915.29	11.1896
1916.78	10.8431
1918.27	11.0074
1919.76	10.4532
1921.25	10.3757
1922.74	10.0601
1924.22	9.36778
1925.71	9.0963
1927.2	9.54892
1928.68	9.47085
1930.17	10.1198
1931.65	10.0012
1933.14	10.564
1934.63	10.3369
1936.11	10.7728
1937.59	11.4322
1939.08	11.7549
1940.56	12.17
1942.05	12.6078
1943.53	12.5649
1945.01	12.5957
1946.5	12.8142
1947.98	12.8319
1949.46	13.2022
1950.94	13.4634
1952.43	13.7433
1953.91	14.2564
1955.39	15.0299
1956.87	15.7921
1958.35	15.8109
1959.83	15.9447
1961.31	15.6113
1962.79	15.3523
1964.27	15.4594
1965.75	15.7464
1967.23	15.5641
1968.71	15.5913
1970.19	15.6021
1971.67	16.015
1973.14	15.925
1974.62	16.5992
1976.1	16.2493
1977.58	16.5572
1979.05	16.4036
1980.53	16.5054
1982.01	16.0292
1983.48	16.5115
1984.96	16.9442
1986.43	16.2758
1987.91	16.0681
1989.38	15.3293
1990.86	15.359
1992.33	16.0045
1993.81	15.4002
1995.28	16.0743
1996.76	15.9281
1998.23	14.7962
1999.7	15.5659
2001.18	15.6749
2002.65	15.4239
2004.12	15.6082
2005.59	14.7022
2007.06	14.4667
2008.54	13.9776
2010.01	13.8195
2011.48	14.0845
2012.95	13.8529
2014.42	13.9058
2015.89	13.9938
2017.36	13.5101
2018.83	13.8046
2020.3	13.89
2021.77	13.8483
2023.24	14.1437
2024.71	14.4299
2026.17	14.7224
2027.64	14.7104
2029.11	15.2034
2030.58	15.7324
2032.04	15.8265
2033.51	16.2911
2034.98	16.5646
2036.45	16.5155
2037.91	17.2232
2039.38	17.4946
2040.84	18.0169
2042.31	19.0692
2043.77	19.3676
2045.24	19.546
2046.7	19.8782
2048.17	20.8058
2049.63	20.9629
2051.1	21.8877
2052.56	21.8661
2054.02	22.1858
2055.48	21.9887
2056.95	22.5465
2058.41	22.36
2059.87	22.5266
2061.33	22.4974
2062.8	22.6404
2064.26	23.2239
2065.72	22.8186
2067.18	22.6155
2068.64	23.5727
2070.1	22.9858
2071.56	22.4802
2073.02	22.5758
2074.48	22.013
2075.94	22.2943
2077.4	22.3921
2078.86	22.5833
2080.31	22.4473
2081.77	22.4522
2083.23	22.5681
2084.69	22.8653
2086.14	22.6053
2087.6	22.9735
2089.06	22.9109
2090.52	22.9137
2091.97	23.7005
2093.43	23.326
2094.88	23.6979
2096.34	24.3474
2097.79	25.1141
2099.25	25.3326
2100.7	25.8464
2102.16	26.8874
2103.61	28.1097
2105.07	28.7625
2106.52	29.6391
2107.97	30.7306
2109.43	31.8431
2110.88	32.9493
2112.33	34.035
2113.78	35.3677
2115.24	36.9741
2116.69	37.6531
2118.14	39.0409
2119.59	40.8561
2121.04	42.2548
2122.49	43.2313
2123.94	44.2062
2125.39	44.7464
2126.84	45.6258
2128.29	47.0956
2129.74	48.7792
2131.19	49.3891
2132.64	50.6862
