#Acq. time (s)=	45
#Accumulations=	2
#Range (cm-¹)=	200...3150
#Windows=	2
#Auto scanning=	Off
#Autofocus=	Off
#Macrospot=	Off
#AutoExposure=	Off
#Spike filter=	Multiple accum.
#Delay time (s)=	0
#Binning=	1
#Readout mode=	Signal
#DeNoise=	Off
#ICS correction=	On
#Dark correction=	Off
#Inst. Process=	Off
#Detector Gain=	Best Dynamic Range
#Detector ADC=	20 kHz       
#Detector temperature (°C)=	-69.85
#Instrument=	LabRAM HR Evol
#Detector=	Synapse
#Objective=	x100
#Grating=	600 gr/mm
#ND Filter=	100%
#Laser (nm)=	532 
#Hole=	100.021
#Range=	Auto
#Laser Pol.=	No
#Raman. Pol.=	No
#Laser Pol. (°)=	-0.0007625
#Raman Pol. (°)=	89.9995
#Collection=	Microscope
#StageXY=	Marzhauser
#StageZ=	Marzhauser
#X (µm)=	4755.3
#Y (µm)=	-7726.3
#Z (µm)=	584.35
#Full time(mm:ss)=	3:18
#Project=	
#Sample=	
#Site=	
#Title=	Thy_30_10_17_2x_45s_532 nm_x100_100%_600 gr_mm
#Remark=	
#Date=	30.06.2022 12:40
#Acquired=	30.06.2022 12:40:31
#Base:Fit=	10.08.2022 09:58:11
#Base:Sub=	10.08.2022 09:58:44
#Filter:Polynom=	16.08.2022 10:22:53
#AxisType[0]=Intens
#AxisUnit[0]=Cnt
#AxisType[1]=Spectr
#AxisUnit[1]=1/cm
200.533	5.20856
202.348	3.30516
204.162	3.32353
205.976	2.84839
207.792	3.2803
209.605	4.10904
211.418	4.8474
213.23	5.32824
215.044	5.81992
216.856	7.31782
218.667	7.91248
220.478	7.72467
222.289	7.4035
224.102	7.40615
225.912	8.23331
227.721	8.43591
229.531	9.16005
231.34	9.5791
233.148	10.1222
234.956	10.365
236.766	10.6877
238.574	10.609
240.381	10.5687
242.188	10.6783
243.994	11.6121
245.801	12.8898
247.606	13.4152
249.412	14.2946
251.217	14.6369
253.024	16.3087
254.828	16.5241
256.632	17.2557
258.436	16.6183
260.239	15.8683
262.042	15.875
263.845	15.2317
265.647	15.097
267.449	14.829
269.25	13.6068
271.052	13.9489
272.852	13.1927
274.653	13.6124
276.453	13.6678
278.253	14.2127
280.052	13.1718
281.852	13.3294
283.65	13.609
285.449	13.8628
287.247	14.6871
289.044	15.2797
290.842	15.5803
292.639	16.3406
294.436	16.6932
296.232	17.8337
298.028	18.311
299.821	18.1127
301.617	18.0995
303.412	17.9913
305.206	18.8268
307	19.9592
308.794	19.8892
310.588	19.9334
312.381	19.5621
314.172	20.301
315.964	21.3874
317.756	21.5954
319.548	22.2144
321.34	22.8108
323.131	22.9857
324.921	23.5773
326.71	23.9818
328.5	24.3579
330.29	24.4934
332.079	25.1136
333.868	25.7913
335.654	26.6751
337.443	25.5043
339.231	25.7245
341.018	25.4749
342.804	25.2789
344.591	24.4178
346.377	23.8527
348.163	22.7111
349.947	22.7275
351.733	22.29
353.518	22.052
355.303	21.7656
357.085	21.2586
358.869	21.3256
360.653	21.8677
362.435	21.6357
364.218	21.44
366.001	20.3992
367.781	19.5678
369.563	19.4872
371.345	20.3103
373.124	19.7725
374.905	20.0135
376.686	20.3288
378.464	20.2603
380.244	19.3396
382.022	18.9183
383.801	18.4918
385.58	17.9824
387.357	17.5494
389.135	16.8686
390.911	16.4509
392.689	15.6649
394.466	15.2651
396.241	14.2783
398.018	13.3292
399.792	12.4999
401.568	12.2783
403.341	13.3161
405.117	12.9894
406.889	12.6353
408.664	12.8113
410.436	12.9828
412.21	12.8604
413.981	12.6222
415.755	12.607
417.525	12.3992
419.298	12.1644
421.068	12.3358
422.84	12.5583
424.609	12.7677
426.38	11.8682
428.149	12.1486
429.919	11.7584
431.688	11.617
433.455	11.5894
435.225	12.3634
436.992	12.1203
438.76	11.9656
440.527	11.2747
442.293	11.8665
444.06	11.6612
445.826	11.2756
447.593	11.3834
449.357	11.4705
451.122	11.3729
452.888	11.6599
454.651	11.9285
456.415	12.1214
458.18	13.7269
459.942	14.5185
461.705	14.0025
463.469	14.6469
465.23	14.5853
466.991	13.897
468.752	13.571
470.515	13.294
472.275	14.391
474.035	14.5285
475.797	14.8036
477.556	14.657
479.315	13.9821
481.073	14.5148
482.834	14.5448
484.592	15.9886
486.349	17.7946
488.106	18.3042
489.863	18.8164
491.622	18.7144
493.378	18.8556
495.134	19.2008
496.889	19.3871
498.645	19.7658
500.401	20.7767
502.156	20.8149
503.91	20.97
505.664	20.5468
507.417	20.2125
509.171	20.3477
510.923	20.8343
512.678	20.6125
514.43	20.6445
516.182	20.4856
517.933	20.2697
519.684	20.0356
521.435	19.54
523.186	19.5515
524.936	18.4174
526.686	18.709
528.435	18.869
530.184	18.6753
531.933	17.8324
533.682	17.4688
535.43	17.4252
537.18	17.0353
538.927	17.0947
540.674	17.0368
542.421	16.1254
544.167	15.7156
545.913	15.5089
547.659	13.4206
549.403	12.4546
551.148	11.9332
552.893	11.771
554.637	10.7979
556.381	10.0821
558.125	9.42811
559.868	9.7875
561.611	8.3973
563.354	7.63911
565.097	7.24727
566.839	6.61111
568.581	6.36438
570.322	5.8
572.063	5.13934
573.802	3.35938
575.542	2.48452
577.283	2.27115
579.022	1.60961
580.762	1.19152
582.501	1.51602
584.24	1.94314
585.976	1.7488
587.714	1.38989
589.452	0.14414
591.19	-0.384465
592.927	0.0412976
594.663	0.295236
596.398	1.05582
598.134	1.2216
599.87	1.3301
601.605	1.57679
603.338	1.3145
605.073	2.30203
606.808	2.68815
608.542	3.94712
610.274	4.11454
612.007	5.20491
613.74	5.83116
615.473	6.33957
617.204	6.72431
618.936	6.72971
620.668	7.08561
622.397	7.69187
624.128	8.30729
625.859	8.72091
627.588	8.68016
629.318	8.92442
631.048	9.28217
632.775	9.80011
634.505	10.3705
636.233	11.7272
637.96	12.805
639.688	13.4316
641.416	13.3391
643.142	13.7754
644.869	14.7221
646.594	15.4751
648.32	15.6895
650.045	15.6146
651.771	16.5175
653.496	16.8514
655.219	16.8808
656.944	17.4955
658.667	17.7582
660.391	19.5081
662.113	20.8219
663.837	20.964
665.558	21.6294
667.281	21.8785
669.002	22.8585
670.724	22.7794
672.444	22.7405
674.166	23.4745
675.885	24.2033
677.606	24.6782
679.325	24.902
681.045	26.3017
682.763	27.4975
684.483	28.0881
686.2	27.9066
687.917	27.1323
689.636	27.3548
691.352	28.9401
693.07	28.7175
694.786	29.7898
696.501	29.2574
698.219	30.089
699.933	30.1967
701.65	30.9878
703.364	31.6117
705.078	32.2156
706.793	33.4087
708.506	34.2096
710.219	34.8626
711.934	35.4247
713.646	36.625
715.358	36.5122
717.071	37.4644
718.782	38.3069
720.493	38.085
722.204	38.9861
723.916	39.6353
725.626	40.22
727.336	40.9426
729.045	41.2964
730.756	42.3135
732.464	42.3165
734.173	42.4874
735.881	44.0082
737.59	45.9125
739.297	47.5231
741.004	47.451
742.711	48.1465
744.417	48.7878
746.125	49.5929
747.831	49.2303
749.537	50.1065
751.242	51.3615
752.946	51.499
754.651	52.1937
756.357	53.114
758.061	54.3243
759.764	55.0494
761.467	56.672
763.17	57.755
764.872	58.7469
766.575	60.2653
768.276	60.199
769.978	59.8068
771.679	59.749
773.382	61.1343
775.083	63.2308
776.783	64.0867
778.483	64.994
780.182	66.2207
781.882	67.1028
783.581	68.6443
785.279	69.9488
786.978	71.2238
788.676	71.7534
790.373	72.6572
792.071	72.8508
793.768	73.6109
795.464	74.162
797.161	75.3062
798.857	75.2762
800.552	74.9082
802.248	75.4569
803.941	74.9874
805.636	75.0359
807.33	75.8718
809.024	75.1115
810.718	75.0281
812.412	75.2094
814.105	75.8607
815.798	76.3821
817.49	75.8835
819.183	76.3092
820.873	75.7839
822.564	74.9982
824.256	74.3929
825.947	72.6369
827.637	72.4489
829.328	71.0778
831.016	70.6993
832.705	69.3347
834.395	68.4706
836.084	68.0759
837.772	67.5928
839.459	67.076
841.147	67.1877
842.835	65.9828
844.522	65.2613
846.209	65.8718
847.894	64.5279
849.581	63.1572
851.267	61.6001
852.953	60.24
854.637	59.6477
856.322	59.8289
858.007	59.3947
859.689	57.8433
861.374	56.8774
863.058	56.6333
864.739	56.0634
866.423	55.4467
868.106	54.7649
869.787	53.3381
871.469	52.3235
873.151	51.4384
874.831	51.1523
876.512	50.4817
878.193	50.5669
879.872	49.8314
881.553	49.5829
883.231	47.5541
884.911	46.9647
886.591	46.8289
888.268	46.3978
889.947	45.8754
891.623	45.344
893.302	45.3081
894.978	45.2292
896.656	44.5428
898.331	43.5387
900.008	42.4411
901.683	42.7216
903.359	42.1708
905.033	40.9566
906.709	41.2813
908.383	41.507
910.058	40.4455
911.731	40.1004
913.405	39.8043
915.078	41.2484
916.752	41.0672
918.423	41.7219
920.096	42.5533
921.768	42.3275
923.438	40.9115
925.111	40.1984
926.781	39.5817
928.452	40.1682
930.122	39.8296
931.791	38.3398
933.462	37.2451
935.13	36.7707
936.799	36.6142
938.468	36.5258
940.136	35.9339
941.803	35.1119
943.472	33.6956
945.139	33.6382
946.805	33.7463
948.473	33.4866
950.139	33.2833
951.804	33.4551
953.471	33.7334
955.136	34.3735
956.801	34.0216
958.465	33.0752
960.131	32.4788
961.794	31.4661
963.458	31.1788
965.12	31.4433
966.785	31.4168
968.447	31.9737
970.109	31.8876
971.771	30.9009
973.432	31.2111
975.095	30.4484
976.756	31.1359
978.417	30.6658
980.077	31.1868
981.737	31.8187
983.396	32.4162
985.057	32.5189
986.716	31.8571
988.375	32.0584
990.033	31.8593
991.691	31.8314
993.349	32.2351
995.006	32.7658
996.663	33.1466
998.32	33.2148
999.976	32.2653
1001.63	31.8812
1003.29	30.8338
1004.95	29.6869
1006.6	29.9508
1008.26	30.5029
1009.91	30.333
1011.56	30.5127
1013.22	29.756
1014.87	29.6296
1016.53	29.0364
1018.18	28.8038
1019.83	27.9579
1021.48	27.6368
1023.14	27.7648
1024.79	27.4864
1026.44	26.9338
1028.09	26.9958
1029.74	27.0497
1031.39	27.1693
1033.04	27.5241
1034.69	26.553
1036.34	25.9946
1037.99	25.3579
1039.64	23.4247
1041.29	22.5679
1042.94	22.514
1044.58	22.0309
1046.23	22.6348
1047.88	22.4566
1049.52	21.7246
1051.17	20.1176
1052.82	19.2743
1054.46	18.9725
1056.11	17.5358
1057.75	15.5531
1059.4	14.9404
1061.04	13.2884
1062.69	12.0978
1064.33	10.7484
1065.98	9.37789
1067.62	7.58095
1069.26	6.67985
1070.9	6.07259
1072.55	4.96752
1074.19	5.42576
1075.83	6.23336
1077.47	4.66342
1079.11	4.85881
1080.76	4.52074
1082.4	4.97489
1084.04	4.71625
1085.68	3.16603
1087.32	3.27122
1088.95	3.86748
1090.59	4.64906
1092.23	5.11297
1093.87	6.44256
1095.51	7.0408
1097.15	8.37615
1098.78	8.86712
1100.42	10.6412
1102.06	11.2827
1103.69	12.7829
1105.33	14.4442
1106.97	15.3776
1108.6	16.4276
1110.24	16.8554
1111.87	18.5158
1113.51	20.4305
1115.14	21.1465
1116.77	21.6702
1118.41	22.4762
1120.04	22.7198
1121.67	21.6115
1123.31	22.2198
1124.94	22.1356
1126.57	21.3096
1128.2	20.8922
1129.83	20.271
1131.47	19.2818
1133.1	18.8035
1134.72	18.6381
1136.36	17.693
1137.98	16.6887
1139.62	16.4468
1141.24	15.5936
1142.87	14.7181
1144.5	14.1704
1146.13	13.8659
1147.76	13.0155
1149.38	11.9001
1151.01	11.3896
1152.64	11.116
1154.27	10.6408
1155.89	10.436
1157.52	9.7934
1159.14	8.08905
1160.77	8.03209
1162.39	6.92202
1164.02	5.95792
1165.64	3.88348
1167.27	3.4188
1168.89	4.33743
1170.51	5.06427
1172.14	6.29091
1173.76	6.1353
1175.38	6.03648
1177	6.08104
1178.63	6.7899
1180.25	7.2877
1181.87	8.79442
1183.49	8.44479
1185.11	9.78344
1186.73	10.0452
1188.35	10.6627
1189.97	11.6187
1191.59	11.7322
1193.21	12.2777
1194.83	13.3972
1196.45	12.8882
1198.07	12.9556
1199.68	12.9059
1201.3	12.7082
1202.92	13.3585
1204.53	14.3179
1206.15	14.5269
1207.77	15.6661
1209.38	17.6583
1211	18.7675
1212.62	19.2515
1214.23	20.0972
1215.84	21.4687
1217.46	22.1867
1219.07	23.9543
1220.69	23.9898
1222.3	25.356
1223.91	26.591
1225.53	28.3381
1227.14	28.6336
1228.75	28.3128
1230.36	28.2174
1231.97	29.5448
1233.59	30.3797
1235.2	31.0045
1236.81	31.2969
1238.42	31.7975
1240.03	30.8017
1241.64	30.6948
1243.25	31.3969
1244.85	31.5468
1246.46	31.9852
1248.07	33.3493
1249.68	34.2444
1251.29	35.7322
1252.9	37.2294
1254.5	38.0145
1256.11	38.6998
1257.72	39.3767
1259.32	40.2495
1260.93	41.0022
1262.54	41.497
1264.14	40.659
1265.75	40.6676
1267.35	40.7805
1268.96	40.9928
1270.56	40.6064
1272.16	40.5436
1273.77	41.1401
1275.37	40.9037
1276.97	40.761
1278.57	41.7751
1280.18	42.921
1281.78	44.3522
1283.38	46.155
1284.98	47.2095
1286.58	47.5742
1288.18	49.0018
1289.78	49.5184
1291.38	49.31
1292.99	49.3541
1294.58	50.3413
1296.18	50.8759
1297.78	50.95
1299.38	51.9412
1300.98	51.6462
1302.58	52.0582
1304.17	50.8905
1305.77	50.8851
1307.37	50.4404
1308.97	50.6391
1310.56	51.3413
1312.16	52.3161
1313.76	52.5979
1315.35	53.1698
1316.95	52.7917
1318.54	52.8297
1320.14	52.8611
1321.73	53.7835
1323.32	54.4214
1324.92	54.6279
1326.51	55.1608
1328.1	55.5827
1329.7	56.0896
1331.29	57.0735
1332.88	57.2958
1334.47	56.495
1336.07	56.6569
1337.66	56.2853
1339.25	55.5594
1340.84	55.1514
1342.43	53.8371
1344.02	52.9897
1345.61	52.7134
1347.2	52.8904
1348.79	51.8799
1350.37	50.8274
1351.96	50.5736
1353.55	49.541
1355.14	48.6483
1356.73	48.2616
1358.31	47.7581
1359.9	47.7741
1361.49	47.0253
1363.07	46.0077
1364.66	44.5051
1366.25	43.0731
1367.83	41.7964
1369.42	40.3502
1371	38.9973
1372.59	37.9892
1374.17	38.1988
1375.75	37.6085
1377.34	37.076
1378.92	36.3787
1380.5	35.3075
1382.09	34.2898
1383.67	32.7446
1385.25	32.5504
1386.83	31.4886
1388.42	30.767
1390	28.7467
1391.58	28.0023
1393.16	26.7149
1394.74	25.5354
1396.32	24.1995
1397.9	24.2334
1399.48	23.7658
1401.06	22.3044
1402.64	22.5573
1404.21	22.2056
1405.79	21.7676
1407.37	21.9196
1408.95	23.0835
1410.53	23.8047
1412.1	23.8374
1413.68	24.3298
1415.26	25.0986
1416.83	25.3856
1418.41	25.8932
1419.98	27.8011
1421.56	29.3473
1423.13	31.2356
1424.71	33.5759
1426.28	35.3108
1427.86	36.6879
1429.43	38.5069
1431	41.0994
1432.58	43.1498
1434.15	44.5831
1435.72	46.9403
1437.29	49.5343
1438.87	52.689
1440.44	53.2688
1442.01	54.2026
1443.58	54.8459
1445.15	56.4172
1446.72	57.3912
1448.29	59.0562
1449.86	59.6999
1451.43	60.7527
1453	61.0686
1454.57	59.8922
1456.14	59.3108
1457.71	58.4671
1459.27	57.1688
1460.84	55.2778
1462.41	53.6297
1463.98	52.3799
1465.54	49.688
1467.11	47.6932
1468.67	45.1744
1470.24	43.5551
1471.81	40.8423
1473.37	39.311
1474.94	36.9725
1476.5	34.7665
1478.07	31.9359
1479.63	29.3462
1481.19	27.8351
1482.76	25.1612
1484.32	23.4751
1485.88	23.1873
1487.45	21.997
1489.01	19.7146
1490.57	18.0487
1492.13	16.8361
1493.69	16.0038
1495.26	15.3684
1496.82	14.8088
1498.38	15.1972
1499.94	15.1232
1501.5	15.1884
1503.06	15.6072
1504.62	15.4143
1506.17	16.0242
1507.73	15.9051
1509.29	15.979
1510.85	15.4671
1512.41	15.2246
1513.97	15.343
1515.52	15.1009
1517.08	15.401
1518.64	14.3316
1520.19	14.5454
1521.75	14.7259
1523.31	14.8128
1524.86	14.786
1526.42	15.3282
1527.97	15.5521
1529.52	16.4326
1531.08	16.0476
1532.63	17.0449
1534.19	17.7794
1535.74	18.7044
1537.29	20.0902
1538.85	21.5359
1540.4	22.6578
1541.95	23.5314
1543.5	24.9069
1545.06	26.9475
1546.61	28.6697
1548.16	30.3604
1549.71	32.5977
1551.26	34.571
1552.81	36.7124
1554.36	37.8505
1555.91	39.6665
1557.46	41.4761
1559.01	42.9724
1560.56	44.4
1562.11	46.6467
1563.65	48.4392
1565.2	49.212
1566.75	50.3556
1568.29	52.5377
1569.84	54.1789
1571.39	55.6751
1572.94	56.7379
1574.48	57.8651
1576.03	59.4119
1577.57	60.3447
1579.12	61.1934
1580.66	62.0409
1582.21	62.3236
1583.75	62.4875
1585.3	61.8141
1586.84	61.4061
1588.38	60.9823
1589.93	61.5424
1591.47	60.8781
1593.01	60.6584
1594.55	59.7329
1596.1	58.9024
1597.64	57.4646
1599.18	56.8533
1600.72	56.0071
1602.26	56.3418
1603.8	56.5277
1605.34	56.1916
1606.88	56.0128
1608.42	55.4723
1609.96	56.1056
1611.5	55.3776
1613.04	55.6309
1614.58	54.3587
1616.12	54.1638
1617.65	53.1626
1619.19	52.9746
1620.73	53.8522
1622.27	53.886
1623.8	53.947
1625.34	54.0096
1626.87	55.2048
1628.41	55.7288
1629.95	56.6271
1631.48	56.3827
1633.02	57.5146
1634.55	58.6141
1636.09	59.3769
1637.62	60.9325
1639.15	62.3968
1640.69	63.7391
1642.22	65.1597
1643.76	65.8286
1645.29	67.0173
1646.82	68.0331
1648.35	68.7964
1649.88	68.8334
1651.42	69.1392
1652.95	69.7427
1654.48	70.2109
1656.01	70.5398
1657.54	70.4061
1659.07	69.9625
1660.6	69.9597
1662.13	68.9757
1663.66	68.2126
1665.19	67.6924
1666.72	67.1125
1668.24	64.6936
1669.77	63.705
1671.3	61.9528
1672.83	60.0718
1674.35	58.4046
1675.88	57.6052
1677.41	56.0906
1678.93	54.8535
1680.46	52.9095
1681.99	50.8197
1683.51	48.7102
1685.04	46.1973
1686.56	43.7597
1688.09	41.5641
1689.61	38.9883
1691.13	36.1923
1692.66	33.877
1694.18	30.9122
1695.71	29.3237
1697.23	27.6164
1698.75	25.6176
1700.27	24.2038
1701.8	22.1923
1703.32	21.0679
1704.84	18.6445
1706.36	17.8064
1707.88	16.188
1709.4	14.635
1710.92	14.0615
1712.44	13.6559
1713.96	13.443
1715.48	13.1469
1717	12.5813
1718.52	11.7051
1720.04	11.2117
1721.56	10.8478
1723.07	10.1855
1724.59	9.65
1726.11	9.38978
1727.63	9.64036
1729.14	9.70466
1730.66	9.79522
1732.18	9.46044
1733.69	8.67895
1735.21	8.33941
1736.72	8.11344
1738.24	7.54473
1739.75	7.58202
1741.27	7.57872
1742.78	7.46343
1744.3	7.07394
1745.81	7.10717
1747.32	6.95889
1748.84	7.56685
1750.35	8.2982
1751.86	8.2289
1753.37	8.13703
1754.89	8.53265
1756.4	8.59257
1757.91	8.63061
1759.42	8.36559
1760.93	8.0963
1762.44	7.72508
1763.95	7.09011
1765.46	6.23067
1766.97	5.71561
1768.48	5.45716
1769.99	5.611
1771.5	5.74483
1773.01	4.9061
1774.52	4.49245
1776.03	3.95558
1777.53	3.34512
1779.04	3.82961
1780.55	3.75894
1782.06	4.30213
1783.56	3.92692
1785.07	4.61294
1786.57	5.63835
1788.08	5.92232
1789.59	5.80683
1791.09	6.02507
1792.6	5.82008
1794.1	5.49447
1795.6	5.21633
1797.11	5.01297
1798.61	4.93817
1800.12	5.20344
1801.62	5.29494
1803.12	4.65339
1804.63	4.26504
1806.13	3.63635
1807.63	2.82246
1809.13	2.41301
1810.63	2.38746
1812.14	2.42381
1813.64	2.03529
1815.14	2.21261
1816.64	1.95838
1818.14	1.90086
1819.64	1.85795
1821.14	1.23129
1822.64	1.82508
1824.14	1.70855
1825.63	1.79279
1827.13	2.04659
1828.63	2.2594
1830.13	2.15461
1831.63	1.33938
1833.12	0.682668
1834.62	0.428282
1836.12	0.221265
1837.62	-0.209043
1839.11	0.158888
1840.61	0.175639
1842.1	0.157432
1843.6	0.197663
1845.09	0.121293
1846.59	0.0672887
1848.08	0.00771851
1849.58	0.0574398
1851.07	-0.0480419
1852.57	0.586666
1854.06	1.4051
1855.55	1.53055
1857.04	1.53058
1858.54	1.73798
1860.03	1.99666
1861.52	2.0901
1863.01	1.90886
1864.5	1.48596
1866	0.92048
1867.49	0.568988
1868.98	0.271353
1870.47	0.449522
1871.96	0.967839
1873.45	0.989294
1874.94	1.12477
1876.43	1.16825
1877.92	1.08683
1879.41	0.797004
1880.89	0.771518
1882.38	1.07053
1882.48	1.93714
1883.97	2.02789
1885.47	1.81856
1886.96	2.2812
1888.46	3.01062
1889.95	2.63126
1891.44	3.09662
1892.94	3.0948
1894.43	3.06913
1895.92	3.74938
1897.41	4.01629
1898.9	4.40959
1900.4	4.63488
1901.89	3.59662
1903.38	3.35652
1904.87	3.53231
1906.36	3.80102
1907.85	4.82465
1909.34	4.914
1910.83	5.80706
1912.32	6.46089
1913.81	6.16686
1915.29	6.3086
1916.78	6.2743
1918.27	6.48799
1919.76	6.89593
1921.25	7.34632
1922.74	7.44951
1924.22	7.15143
1925.71	7.71999
1927.2	6.95989
1928.68	6.65168
1930.17	6.13424
1931.65	6.73252
1933.14	6.82569
1934.63	6.76379
1936.11	6.4877
1937.59	5.97493
1939.08	5.98538
1940.56	6.54991
1942.05	6.87497
1943.53	7.08447
1945.01	7.47657
1946.5	7.34376
1947.98	7.8602
1949.46	7.83072
1950.94	7.88906
1952.43	8.20202
1953.91	8.56078
1955.39	8.75586
1956.87	8.80782
1958.35	7.91068
1959.83	8.19449
1961.31	8.17788
1962.79	7.72975
1964.27	7.36049
1965.75	7.16374
1967.23	7.31409
1968.71	6.83154
1970.19	6.5082
1971.67	6.26031
1973.14	5.95201
1974.62	5.78658
1976.1	5.37992
1977.58	5.98905
1979.05	6.32852
1980.53	6.21054
1982.01	7.0562
1983.48	6.60572
1984.96	6.7026
1986.43	6.35157
1987.91	6.25454
1989.38	6.74516
1990.86	7.17007
1992.33	7.16162
1993.81	6.6466
1995.28	6.28403
1996.76	5.75652
1998.23	5.29331
1999.7	5.51356
2001.18	5.69334
2002.65	7.0598
2004.12	7.43949
2005.59	8.31623
2007.06	8.46969
2008.54	8.21487
2010.01	8.51023
2011.48	8.41802
2012.95	8.96068
2014.42	9.37947
2015.89	10.1077
2017.36	10.1837
2018.83	10.3438
2020.3	10.7963
2021.77	11.8072
2023.24	11.9346
2024.71	12.2027
2026.17	12.937
2027.64	12.1669
2029.11	12.4258
2030.58	12.6563
2032.04	12.38
2033.51	12.4741
2034.98	12.3891
2036.45	12.8923
2037.91	13.1898
2039.38	13.6733
2040.84	14.3964
2042.31	14.8451
2043.77	15.1277
2045.24	15.6174
2046.7	16.6058
2048.17	17.0488
2049.63	17.342
2051.1	17.6395
2052.56	18.0252
2054.02	18.3581
2055.48	18.8188
2056.95	17.987
2058.41	18.7318
2059.87	19.4244
2061.33	19.4421
2062.8	19.2558
2064.26	19.0701
2065.72	18.5241
2067.18	18.5802
2068.64	18.6355
2070.1	19.0891
2071.56	19.0737
2073.02	18.9073
2074.48	19.8485
2075.94	19.7247
2077.4	19.1371
2078.86	18.935
2080.31	18.6977
2081.77	18.481
2083.23	18.8272
2084.69	18.9455
2086.14	19.4969
2087.6	19.7731
2089.06	19.7387
2090.52	19.0918
2091.97	19.2319
2093.43	19.9465
2094.88	19.7033
2096.34	19.4264
2097.79	19.247
2099.25	19.6421
2100.7	19.9537
2102.16	20.8062
2103.61	21.5042
2105.07	21.8446
2106.52	22.524
2107.97	23.7205
2109.43	24.6281
2110.88	25.7964
2112.33	27.0872
2113.78	28.0452
2115.24	28.7186
2116.69	29.3561
2118.14	30.2767
2119.59	31.1569
2121.04	31.1191
2122.49	31.7922
2123.94	32.4384
2125.39	33.2799
2126.84	34.2299
2128.29	34.7275
2129.74	35.2119
2131.19	36.7092
2132.64	36.9969
2134.09	36.5804
