#Acq. time (s)=	45
#Accumulations=	2
#Range (cm-¹)=	200...3150
#Windows=	2
#Auto scanning=	Off
#Autofocus=	Off
#Macrospot=	Off
#AutoExposure=	Off
#Spike filter=	Multiple accum.
#Delay time (s)=	0
#Binning=	1
#Readout mode=	Signal
#DeNoise=	Off
#ICS correction=	On
#Dark correction=	Off
#Inst. Process=	Off
#Detector Gain=	Best Dynamic Range
#Detector ADC=	20 kHz       
#Detector temperature (°C)=	-69.85
#Instrument=	LabRAM HR Evol
#Detector=	Synapse
#Objective=	x100
#Grating=	600 gr/mm
#ND Filter=	100%
#Laser (nm)=	532 
#Hole=	100.021
#Range=	Auto
#Laser Pol.=	No
#Raman. Pol.=	No
#Laser Pol. (°)=	-0.0007625
#Raman Pol. (°)=	89.9995
#Collection=	Microscope
#StageXY=	Marzhauser
#StageZ=	Marzhauser
#X (µm)=	-5888.7
#Y (µm)=	2844.4
#Z (µm)=	-223.65
#Full time(mm:ss)=	3:18
#Project=	
#Sample=	
#Site=	
#Title=	Thy_20_09_11_2x_45s_532 nm_x100_100%_600 gr_mm
#Remark=	
#Date=	29.06.2022 11:29
#Acquired=	29.06.2022 11:29:35
#Base:Fit=	10.08.2022 09:52:02
#Base:Fit=	10.08.2022 09:52:12
#Base:Sub=	10.08.2022 09:54:21
#Filter:Polynom=	16.08.2022 10:24:04
#AxisType[0]=Intens
#AxisUnit[0]=Cnt
#AxisType[1]=Spectr
#AxisUnit[1]=1/cm
200.523	0.126491
202.339	0.611427
204.154	1.46033
205.967	1.79145
207.781	2.59703
209.596	3.18172
211.409	3.93947
213.222	4.56018
215.034	5.29767
216.848	6.21527
218.659	5.81517
220.47	6.21883
222.281	6.92201
224.091	6.56416
225.903	6.27716
227.713	4.73859
229.522	5.02245
231.331	6.16133
233.14	6.87187
234.948	7.0331
236.756	5.58995
238.566	5.17816
240.373	4.43228
242.18	4.46897
243.986	4.04764
245.792	4.24598
247.598	5.42457
249.403	6.62954
251.208	7.16668
253.013	7.07748
254.818	7.66171
256.624	6.51696
258.427	6.52762
260.231	6.08041
262.034	6.62388
263.836	8.05388
265.638	8.39149
267.44	9.15801
269.242	9.33628
271.043	9.80833
272.844	10.389
274.645	11.2444
276.445	12.1564
278.245	12.3494
280.044	14.3047
281.843	14.0807
283.642	14.1396
285.44	14.2649
287.238	14.8293
289.036	15.7099
290.833	16.3098
292.63	17.4314
294.425	18.468
296.221	20.1281
298.017	21.0811
299.813	22.2239
301.608	22.3612
303.403	23.2724
305.198	23.9819
306.992	24.1483
308.786	24.4816
310.579	25.2195
312.371	24.7012
314.163	24.6391
315.956	24.4702
317.748	24.8979
319.54	25.8277
321.331	25.7587
323.122	24.9705
324.911	23.4241
326.701	21.9695
328.491	22.6953
330.281	23.2557
332.071	23.6339
333.857	24.2089
335.646	24.5755
337.434	25.0833
339.222	24.5239
341.008	24.0267
342.795	23.8253
344.582	23.8199
346.369	23.1733
348.153	23.7852
349.939	22.9478
351.724	23.8063
353.51	23.2928
355.292	23.1993
357.077	23.6103
358.861	22.568
360.643	21.799
362.426	21.1964
364.21	21.2246
365.99	21.6954
367.773	21.4896
369.555	21.3037
371.335	20.3859
373.116	21.1644
374.897	21.3005
376.676	21.19
378.456	21.6424
380.236	21.3544
382.014	21.3357
383.793	21.2813
385.57	20.4704
387.349	19.6959
389.127	18.9998
390.903	18.2791
392.681	18.1796
394.456	16.8115
396.233	15.3122
398.007	15.0616
399.784	13.9408
401.56	12.6785
403.333	11.8887
405.108	10.2931
406.881	10.6855
408.656	9.12675
410.428	8.11846
412.202	7.14718
413.973	6.31567
415.746	6.19082
417.517	6.43549
419.29	5.32242
421.06	4.67227
422.831	3.8493
424.601	3.68541
426.37	3.98253
428.141	4.26043
429.909	4.07389
431.679	3.85018
433.447	3.68696
435.216	3.45838
436.983	4.23921
438.75	4.44903
440.519	5.29345
442.285	4.63998
444.052	5.01525
445.818	5.04819
447.583	3.77945
449.349	4.58086
451.114	6.58915
452.878	7.0635
454.643	8.02823
456.407	8.51315
458.169	9.38455
459.934	10.5656
461.696	10.4367
463.458	10.5545
465.222	11.1742
466.983	12.4144
468.744	12.3404
470.507	13.0201
472.267	14.0991
474.027	13.71
475.787	14.2739
477.548	14.6614
479.307	14.6955
481.065	15.7057
482.823	15.9865
484.583	16.6467
486.341	17.3726
488.098	17.6898
489.855	18.1576
491.612	19.374
493.37	20.8364
495.126	21.7504
496.881	21.0778
498.636	21.7082
500.391	21.5472
502.148	21.4223
503.902	21.6019
505.656	21.9141
507.409	22.3323
509.162	23.6904
510.915	23.6711
512.668	24.3026
514.42	24.1495
516.174	24.4522
517.925	24.1076
519.676	25.1674
521.427	24.7448
523.178	25.0199
524.928	24.9398
526.678	23.2608
528.427	21.9913
530.176	20.6076
531.925	20.2272
533.673	20.1748
535.422	20.1132
537.169	21.0137
538.917	20.9157
540.664	20.0981
542.411	20.6752
544.157	20.4704
545.903	19.6329
547.649	18.6786
549.395	18.0577
551.14	19.1682
552.884	17.6292
554.629	17.2656
556.373	15.8905
558.117	14.8908
559.86	13.6686
561.603	12.9683
563.346	12.4314
565.089	11.8371
566.831	11.4004
568.573	11.0082
570.314	10.8207
572.053	10.2191
573.794	9.95251
575.534	8.86776
577.274	8.32347
579.014	7.6332
580.754	7.48808
582.493	6.2593
584.23	5.12648
585.968	3.82556
587.706	3.02991
589.444	2.38634
591.181	2.08191
592.919	1.71394
594.653	1.62859
596.39	1.48198
598.126	1.28139
599.862	0.823942
601.595	1.36932
603.33	0.959433
605.065	1.46963
606.8	1.85675
608.532	0.829965
610.266	1.65432
611.999	2.03087
613.732	2.54524
615.463	4.22835
617.196	4.91354
618.928	5.65802
620.66	6.03254
622.389	6.84075
624.12	7.45678
625.851	7.79005
627.58	8.04946
629.31	7.62106
631.04	8.1918
632.767	8.15335
634.497	8.78175
636.223	9.53125
637.952	11.0577
639.68	10.9722
641.406	11.5229
643.134	11.4453
644.861	11.5265
646.586	11.9335
648.312	12.1833
650.037	12.5701
651.762	12.6431
653.486	13.9751
655.211	14.3816
656.936	14.5203
658.659	13.6841
660.383	14.3221
662.105	13.3414
663.829	13.6964
665.55	13.44
667.273	13.5282
668.994	11.8011
670.716	11.5299
672.436	11.775
674.158	11.9928
675.877	12.3091
677.598	12.3193
679.317	13.0542
681.035	13.4784
682.755	13.7274
684.473	13.197
686.192	12.8112
687.909	13.2116
689.628	13.4479
691.344	14.9823
693.06	15.9447
694.778	16.8864
696.493	18.5359
698.211	18.3625
699.925	18.22
701.64	18.4884
703.356	18.6368
705.07	18.8235
706.783	19.8325
708.498	20.6659
710.211	21.2177
711.924	21.8335
713.638	23.426
715.35	23.9782
717.061	25.6057
718.774	26.4697
720.485	28.1313
722.196	29.4876
723.906	30.6844
725.618	30.711
727.328	30.9404
729.037	32.1367
730.746	32.5882
732.456	34.6498
734.165	35.9937
735.873	37.8124
737.58	38.8047
739.289	40.0812
740.997	41.1762
742.703	41.3612
744.41	42.1033
746.116	43.2839
747.823	43.6059
749.529	45.0294
751.234	46.1542
752.938	47.6698
754.643	48.1303
756.347	50.3514
758.051	51.2767
759.756	51.5589
761.459	51.9848
763.162	52.1899
764.865	53.1466
766.567	53.8305
768.269	54.4579
769.97	55.9442
771.671	57.2556
773.372	58.3864
775.073	59.2646
776.773	59.8726
778.473	60.1526
780.174	58.9128
781.874	58.8159
783.573	57.5137
785.271	58.5276
786.97	58.975
788.668	59.2295
790.365	59.6843
792.063	59.6989
793.76	59.7319
795.456	59.2655
797.153	59.6916
798.847	59.3391
800.543	58.1322
802.238	57.4922
803.933	57.6196
805.628	57.8408
807.322	57.8673
809.017	58.2313
810.71	59.0958
812.404	59.3076
814.097	59.4688
815.79	59.8398
817.483	60.1305
819.173	58.6227
820.865	58.7707
822.556	58.0032
824.248	57.7918
825.939	56.9728
827.629	56.0521
829.318	56.4186
831.008	56.2162
832.697	55.5897
834.387	54.7573
836.076	54.8226
837.765	54.7522
839.451	53.8382
841.139	53.3869
842.827	51.7063
844.514	50.8691
846.2	50.6547
847.886	50.5186
849.573	50.7477
851.259	50.9826
852.943	50.802
854.629	50.5808
856.314	48.6654
857.997	47.9086
859.682	46.7747
861.366	45.3271
863.05	43.977
864.732	42.261
866.415	41.8365
868.098	40.7434
869.779	41.397
871.461	40.1037
873.141	39.0562
874.823	38.6097
876.505	37.3138
878.184	37.0902
879.865	35.83
881.545	36.0703
883.223	35.9267
884.903	36.6388
886.581	36.3526
888.26	37.1328
889.937	37.9343
891.616	38.3617
893.294	38.1917
894.97	38.0792
896.648	37.9766
898.323	38.4396
900	38.8576
901.675	38.7126
903.351	39.9559
905.026	41.314
906.701	41.0246
908.375	41.4606
910.05	41.0803
911.723	41.5364
913.398	41.2248
915.07	40.3862
916.742	39.9323
918.415	39.2035
920.087	38.948
921.76	38.7782
923.43	38.4018
925.103	38.4204
926.773	38.7023
928.443	39.4007
930.114	39.246
931.783	38.042
933.454	37.872
935.123	36.5814
936.791	35.3555
938.461	34.2538
940.128	33.2874
941.796	32.2016
943.464	30.3011
945.131	28.4388
946.797	26.6206
948.465	24.5659
950.131	23.8777
951.797	22.693
953.462	21.9424
955.128	20.3463
956.793	19.7439
958.457	18.6168
960.121	17.3647
961.786	17.2104
963.45	17.2292
965.113	18.211
966.775	19.3451
968.44	19.639
970.102	19.3007
971.763	21.4541
973.425	22.8135
975.086	23.5611
976.748	23.889
978.409	25.0889
980.069	25.698
981.729	25.905
983.388	26.1273
985.048	26.7219
986.708	27.7365
988.367	27.4245
990.025	27.6651
991.683	27.866
993.341	28.0076
994.998	27.4292
996.655	27.3571
998.312	27.4642
999.969	26.7216
1001.62	25.8924
1003.28	26.0178
1004.94	26.1171
1006.59	25.8143
1008.25	26.1205
1009.9	25.6439
1011.56	25.3871
1013.21	24.255
1014.86	22.2382
1016.52	22.6268
1018.17	22.0422
1019.82	21.108
1021.48	20.6221
1023.13	19.0722
1024.78	17.6057
1026.43	16.5128
1028.08	16.0036
1029.73	14.6668
1031.38	14.6005
1033.03	14.4209
1034.68	12.4944
1036.33	11.3175
1037.98	10.8883
1039.63	10.827
1041.28	10.687
1042.93	12.1247
1044.57	12.9851
1046.22	13.1908
1047.87	12.5339
1049.52	12.1458
1051.16	11.9434
1052.81	12.2996
1054.45	12.7147
1056.1	10.8032
1057.75	10.4741
1059.39	10.1928
1061.04	9.7155
1062.68	9.57679
1064.32	10.0363
1065.97	10.2811
1067.61	11.5934
1069.25	11.6654
1070.9	11.0648
1072.54	11.3722
1074.18	11.6996
1075.82	11.4127
1077.47	10.9699
1079.11	12.0358
1080.75	11.9426
1082.39	11.7729
1084.03	12.4289
1085.67	13.0475
1087.31	13.4828
1088.95	13.4561
1090.59	14.0914
1092.22	14.3573
1093.86	14.3565
1095.5	14.5993
1097.14	14.5982
1098.78	16.0174
1100.41	17.0997
1102.05	17.1586
1103.69	16.9208
1105.32	16.5087
1106.96	17.1688
1108.59	17.3271
1110.23	17.2335
1111.86	15.9837
1113.5	14.802
1115.13	13.3919
1116.77	12.9878
1118.4	13.2271
1120.03	13.8001
1121.67	13.5819
1123.3	12.5689
1124.93	10.7962
1126.56	9.18483
1128.19	7.81547
1129.83	7.63006
1131.46	8.3789
1133.09	8.45121
1134.72	7.99474
1136.35	7.69563
1137.98	6.7206
1139.61	7.42152
1141.24	6.85012
1142.86	7.27912
1144.49	7.44105
1146.12	8.09317
1147.75	7.88037
1149.38	8.15562
1151	7.48251
1152.63	8.39322
1154.26	9.04788
1155.88	9.81476
1157.51	9.94944
1159.14	11.0308
1160.76	11.1586
1162.39	10.4028
1164.01	10.0738
1165.63	10.1926
1167.26	10.5858
1168.88	11.0795
1170.51	11.7553
1172.13	12.9775
1173.75	13.2969
1175.38	14.239
1177	15.4668
1178.62	16.3512
1180.24	17.3263
1181.86	19.1954
1183.48	18.9915
1185.1	19.3788
1186.72	21.38
1188.34	22.6708
1189.96	22.4312
1191.58	22.7643
1193.2	22.4206
1194.82	23.3529
1196.44	24.4266
1198.06	25.0189
1199.68	25.493
1201.29	25.6947
1202.91	25.6386
1204.53	26.834
1206.14	27.9377
1207.76	30.4296
1209.38	32.8578
1210.99	35.3649
1212.61	37.3871
1214.22	37.7129
1215.84	39.3995
1217.45	41.9345
1219.07	43.3902
1220.68	45.8244
1222.29	47.0421
1223.91	49.6264
1225.52	50.6789
1227.13	53.1162
1228.74	53.8447
1230.36	56.4956
1231.97	57.9956
1233.58	59.6835
1235.19	61.4978
1236.8	63.5588
1238.41	64.6109
1240.02	66.9627
1241.63	67.8751
1243.24	69.5171
1244.85	71.103
1246.46	72.9889
1248.07	73.5264
1249.67	74.5785
1251.28	75.9916
1252.89	76.5532
1254.5	77.8241
1256.1	79.5245
1257.71	80.4646
1259.32	81.6952
1260.92	82.3991
1262.53	83.7362
1264.13	84.2264
1265.74	85.1169
1267.34	86.2848
1268.95	86.9933
1270.55	87.3153
1272.15	87.9669
1273.76	87.9514
1275.36	88.8345
1276.97	88.9177
1278.57	90.2848
1280.17	91.8048
1281.77	92.7782
1283.37	95.0239
1284.97	97.1224
1286.58	98.2532
1288.18	99.5105
1289.78	100.565
1291.38	100.722
1292.98	102.921
1294.58	103.54
1296.18	105.988
1297.78	107.366
1299.37	107.694
1300.97	109.002
1302.57	110.228
1304.17	112.512
1305.77	113.807
1307.36	115.32
1308.96	116.276
1310.55	118.086
1312.15	119.586
1313.75	120.524
1315.34	121.638
1316.94	121.255
1318.53	122.224
1320.13	123.502
1321.72	123.692
1323.32	123.951
1324.91	123.574
1326.5	124.177
1328.1	124.093
1329.69	123.637
1331.28	123.994
1332.87	122.984
1334.47	122.532
1336.06	123.284
1337.65	122.207
1339.24	121.924
1340.83	121.201
1342.42	121.351
1344.01	120.148
1345.6	119.46
1347.19	118.764
1348.78	117.998
1350.37	116.821
1351.96	115.364
1353.54	113.823
1355.13	112.56
1356.72	112.324
1358.31	112.085
1359.89	110.574
1361.48	108.83
1363.07	107.369
1364.65	104.969
1366.24	103.605
1367.82	102.114
1369.41	100.698
1370.99	99.9955
1372.58	99.4078
1374.16	97.7668
1375.75	96.2897
1377.33	94.3982
1378.91	93.7638
1380.5	93.1491
1382.08	92.6993
1383.66	91.6543
1385.25	90.5799
1386.83	90.2583
1388.41	89.7618
1389.99	89.4079
1391.57	89.5297
1393.15	87.225
1394.73	86.8956
1396.31	85.4249
1397.89	86.295
1399.47	85.6877
1401.05	84.9055
1402.63	83.5025
1404.21	83.4553
1405.78	84.1089
1407.36	83.5184
1408.94	83.8181
1410.52	84.7882
1412.1	84.4173
1413.67	84.4918
1415.25	86.0968
1416.82	86.9731
1418.4	88.2458
1419.98	88.8939
1421.55	90.7267
1423.13	91.2277
1424.7	92.8055
1426.28	94.7035
1427.85	96.587
1429.42	98.5034
1431	100.06
1432.57	101.516
1434.14	103.331
1435.71	106.348
1437.29	107.531
1438.86	107.8
1440.43	108.901
1442	109.392
1443.57	109.551
1445.14	110.684
1446.71	111.456
1448.28	112.181
1449.85	112.586
1451.42	112.126
1452.99	111.392
1454.56	110.508
1456.13	109.302
1457.7	108.292
1459.26	106.46
1460.83	104.822
1462.4	102.894
1463.97	101.419
1465.54	99.7073
1467.1	96.7472
1468.67	93.8644
1470.23	90.7704
1471.8	86.519
1473.36	84.0723
1474.93	80.2557
1476.49	78.5005
1478.06	75.7636
1479.62	72.8186
1481.19	70.7574
1482.75	68.9384
1484.31	67.5475
1485.88	64.7721
1487.44	62.4739
1489	60.3237
1490.56	58.9966
1492.13	57.1444
1493.69	56.3842
1495.25	55.6063
1496.81	54.1447
1498.37	53.1835
1499.93	52.975
1501.49	52.5085
1503.05	53.0474
1504.61	54.0778
1506.17	54.6517
1507.73	55.2543
1509.28	55.6396
1510.84	55.6376
1512.4	55.7425
1513.96	56.5255
1515.52	53.9111
1517.07	52.5205
1518.63	53.8504
1520.19	55.7981
1521.74	58.4965
1523.3	61.9766
1524.85	65.161
1526.41	67.099
1527.96	68.1884
1529.52	69.8726
1531.07	70.962
1532.63	73.0358
1534.18	74.3245
1535.73	75.7826
1537.29	77.4781
1538.84	80.2016
1540.39	82.4043
1541.94	84.557
1543.5	86.4968
1545.05	88.3841
1546.6	91.5175
1548.15	94.4444
1549.7	96.5307
1551.25	99.6766
1552.8	102.749
1554.35	104.953
1555.9	105.649
1557.45	107.139
1559	108.583
1560.55	109.562
1562.1	111.048
1563.65	111.439
1565.19	113.174
1566.74	114.507
1568.29	116.165
1569.83	116.917
1571.38	117.922
1572.93	119.478
1574.47	120.277
1576.02	121.259
1577.56	122.406
1579.11	122.615
1580.66	123.245
1582.2	123.503
1583.74	124.797
1585.29	124.96
1586.83	124.436
1588.38	123.656
1589.92	122.685
1591.46	122.239
1593.01	121.667
1594.55	123.353
1596.09	125.382
1597.63	125.765
1599.17	124.742
1600.71	123.802
1602.25	122.097
1603.79	119.564
1605.34	118.627
1606.88	117.035
1608.41	115.369
1609.95	113.517
1611.49	112.304
1613.03	110.37
1614.57	108.943
1616.11	108.243
1617.65	106.296
1619.18	105.146
1620.72	103.646
1622.26	103.172
1623.79	102.763
1625.33	101.056
1626.87	99.5795
1628.4	98.3199
1629.94	96.9691
1631.48	95.3415
1633.01	94.7557
1634.55	94.7481
1636.08	93.9107
1637.61	94.1165
1639.15	94.3931
1640.68	94.0812
1642.21	94.2275
1643.75	93.7443
1645.28	94.3509
1646.81	94.7847
1648.34	94.9947
1649.88	95.5608
1651.41	95.7823
1652.94	95.7635
1654.47	95.8655
1656	95.7021
1657.53	96.1838
1659.06	95.4867
1660.59	95.094
1662.12	93.2258
1663.65	91.2897
1665.18	90.0418
1666.71	88.7704
1668.24	86.9426
1669.76	84.6811
1671.29	82.6262
1672.82	80.6214
1674.35	77.9448
1675.87	75.587
1677.4	73.2727
1678.93	70.0791
1680.45	67.7578
1681.98	65.5521
1683.5	61.1049
1685.03	57.9247
1686.55	54.7623
1688.08	52.0639
1689.6	48.9849
1691.13	45.9588
1692.65	42.46
1694.17	39.2099
1695.7	36.5761
1697.22	34.1293
1698.74	31.652
1700.27	29.2135
1701.79	27.129
1703.31	25.1541
1704.83	23.3901
1706.35	22.1292
1707.87	20.5995
1709.39	18.7894
1710.91	17.0384
1712.43	15.4133
1713.95	14.3838
1715.47	13.5423
1716.99	12.5266
1718.51	11.8767
1720.03	11.2385
1721.55	11.0788
1723.07	10.7677
1724.58	9.99372
1726.1	9.88842
1727.62	10.5424
1729.13	10.2054
1730.65	10.6849
1732.17	10.4734
1733.68	10.537
1735.2	10.2707
1736.72	11.2542
1738.23	11.7886
1739.74	11.9755
1741.26	12.1475
1742.77	12.2199
1744.29	12.2105
1745.8	12.2518
1747.32	11.9953
1748.83	11.9583
1750.34	11.7932
1751.85	11.7522
1753.37	11.5583
1754.88	11.181
1756.39	11.1707
1757.9	10.8873
1759.41	10.0397
1760.92	10.3444
1762.44	9.72802
1763.95	9.121
1765.46	8.63615
1766.96	7.06002
1768.47	6.43165
1769.98	7.49438
1771.49	7.44741
1773	7.40443
1774.51	7.24083
1776.02	7.25024
1777.53	6.98855
1779.03	6.60463
1780.54	6.65466
1782.05	6.85405
1783.55	7.40336
1785.06	7.34691
1786.57	6.85961
1788.07	6.55824
1789.58	6.55715
1791.08	6.74348
1792.59	6.30306
1794.09	6.20664
1795.6	5.69159
1797.1	6.02665
1798.61	6.39316
1800.11	6.7498
1801.61	6.53668
1803.12	6.74282
1804.62	6.52744
1806.12	6.68283
1807.62	6.20377
1809.12	6.28537
1810.63	6.58172
1812.13	6.37754
1813.63	5.62644
1815.13	4.79037
1816.63	4.51815
1818.13	4.44841
1819.63	3.67709
1821.13	3.21102
1822.63	2.89257
1824.13	3.29242
1825.63	2.89781
1827.13	2.90349
1828.62	2.67324
1830.12	2.39007
1831.62	1.93966
1833.12	2.29889
1834.61	2.00353
1836.11	2.3499
1837.61	2.32763
1839.1	2.85799
1840.6	3.04479
1842.09	2.92179
1843.59	3.03061
1845.09	3.1169
1846.58	2.53624
1848.08	2.66322
1849.57	2.58169
1851.06	2.59011
1852.56	2.53965
1854.05	2.67154
1855.54	2.69111
1857.04	2.55024
1858.53	2.5047
1860.02	1.77645
1861.51	1.70532
1863.01	1.60063
1864.5	1.71242
1865.99	1.75522
1867.48	1.46624
1868.97	1.36748
1870.46	1.2224
1871.95	2.13538
1873.44	2.25029
1874.93	1.91467
1876.42	1.4452
1877.91	1.9879
1879.4	2.10621
1880.89	2.29327
1882.37	2.2589
1882.46	2.36157
1883.95	2.25889
1885.45	2.42831
1886.94	2.76762
1888.43	2.25634
1889.93	2.2611
1891.42	2.09931
1892.91	2.43722
1894.41	2.6385
1895.9	2.7971
1897.39	3.14467
1898.88	3.156
1900.37	3.0694
1901.86	3.86288
1903.36	4.2809
1904.85	4.54191
1906.34	5.09456
1907.83	4.75066
1909.32	5.34086
1910.81	5.14106
1912.29	5.46731
1913.78	5.71741
1915.27	5.39381
1916.76	5.75535
1918.25	6.00735
1919.74	6.04015
1921.23	6.90868
1922.71	7.2371
1924.2	7.26969
1925.69	7.37698
1927.17	7.63799
1928.66	7.42909
1930.15	7.39777
1931.63	7.2849
1933.12	6.47661
1934.6	6.84796
1936.09	6.65194
1937.57	5.93491
1939.06	5.69654
1940.54	6.13455
1942.02	6.00239
1943.51	5.44488
1944.99	4.98588
1946.47	4.92819
1947.96	4.2964
1949.44	5.04803
1950.92	4.71655
1952.4	4.70732
1953.88	4.86918
1955.37	4.87252
1956.85	4.6312
1958.33	4.32425
1959.81	3.92856
1961.29	2.65246
1962.77	1.88697
1964.25	2.04812
1965.73	1.75611
1967.21	2.02142
1968.69	1.73644
1970.16	1.95457
1971.64	1.83407
1973.12	1.71971
1974.6	1.43161
1976.08	1.94231
1977.55	1.30057
1979.03	0.980833
1980.51	1.6661
1981.98	2.11766
1983.46	3.2933
1984.94	4.09893
1986.41	4.93596
1987.89	4.99833
1989.36	5.49462
1990.84	6.57705
1992.31	6.58225
1993.79	6.94833
1995.26	7.14214
1996.73	6.91707
1998.21	6.61182
1999.68	6.91809
2001.15	6.71732
2002.63	6.96083
2004.1	6.9944
2005.57	6.28916
2007.04	6.63074
2008.51	7.38072
2009.99	7.16399
2011.46	7.04563
2012.93	8.26105
2014.4	8.47955
2015.87	7.49219
2017.34	7.05995
2018.81	7.72893
2020.28	8.79154
2021.75	8.84529
2023.21	8.99635
2024.68	8.65145
2026.15	9.28502
2027.62	9.02198
2029.09	8.87681
2030.56	7.87924
2032.02	8.3115
2033.49	8.4052
2034.96	8.31551
2036.42	8.63144
2037.89	8.61027
2039.36	8.63509
2040.82	9.25763
2042.29	9.21832
2043.75	9.4507
2045.22	9.34248
2046.68	9.37303
2048.14	9.89269
2049.61	9.99652
2051.07	10.7894
2052.54	11.3057
2054	12.0812
2055.46	11.7175
2056.93	12.2457
2058.39	12.2382
2059.85	11.453
2061.31	11.3466
2062.77	11.895
2064.23	11.538
2065.7	10.7163
2067.16	10.9975
2068.62	11.222
2070.08	11.5743
2071.54	11.5441
2073	11.5847
2074.46	10.9949
2075.92	11.4871
2077.38	11.0241
2078.83	10.727
2080.29	11.1613
2081.75	11.2924
2083.21	11.829
2084.67	12.496
2086.12	12.8625
2087.58	12.0417
2089.04	12.4705
2090.49	13.0868
2091.95	13.8666
2093.41	14.3021
2094.86	13.931
2096.32	14.2247
2097.77	15.0488
2099.23	15.4238
2100.68	16.1539
2102.14	17.3705
2103.59	17.6355
2105.05	18.3323
2106.5	18.6151
2107.95	19.0778
2109.41	19.63
2110.86	20.321
2112.31	20.8559
2113.76	21.6
2115.21	22.1024
2116.67	23.1329
2118.12	23.7329
2119.57	24.7889
2121.02	25.8305
2122.47	26.1703
2123.92	27.2766
2125.37	27.0356
2126.82	27.2627
2128.27	27.6995
2129.72	28.1812
2131.17	28.6537
2132.62	29.5122
