#Acq. time (s)=	45
#Accumulations=	2
#Range (cm-¹)=	200...3150
#Windows=	2
#Auto scanning=	Off
#Autofocus=	Off
#Macrospot=	Off
#AutoExposure=	Off
#Spike filter=	Multiple accum.
#Delay time (s)=	0
#Binning=	1
#Readout mode=	Signal
#DeNoise=	Off
#ICS correction=	On
#Dark correction=	Off
#Inst. Process=	Off
#Detector Gain=	Best Dynamic Range
#Detector ADC=	20 kHz       
#Detector temperature (°C)=	-69.85
#Instrument=	LabRAM HR Evol
#Detector=	Synapse
#Objective=	x100
#Grating=	600 gr/mm
#ND Filter=	100%
#Laser (nm)=	532 
#Hole=	100.021
#Range=	Auto
#Laser Pol.=	No
#Raman. Pol.=	No
#Laser Pol. (°)=	-0.0007625
#Raman Pol. (°)=	89.9995
#Collection=	Microscope
#StageXY=	Marzhauser
#StageZ=	Marzhauser
#X (µm)=	4760.1
#Y (µm)=	-7708.5
#Z (µm)=	584.4
#Full time(mm:ss)=	3:18
#Project=	
#Sample=	
#Site=	
#Title=	Thy_30_10_30_2x_45s_532 nm_x100_100%_600 gr_mm
#Remark=	
#Date=	30.06.2022 13:36
#Acquired=	30.06.2022 13:36:43
#Base:Fit=	10.08.2022 09:58:11
#Base:Sub=	10.08.2022 09:58:44
#Filter:Polynom=	16.08.2022 10:22:53
#AxisType[0]=Intens
#AxisUnit[0]=Cnt
#AxisType[1]=Spectr
#AxisUnit[1]=1/cm
200.533	1.6076
202.348	3.93344
204.162	4.75265
205.976	5.41989
207.792	6.11333
209.605	6.59709
211.418	7.22856
213.23	7.77713
215.044	8.22339
216.856	8.79317
218.667	7.41359
220.478	6.63227
222.289	5.81212
224.102	5.52819
225.912	5.28563
227.721	4.31453
229.531	4.28444
231.34	4.21822
233.148	4.73428
234.956	4.55244
236.766	4.20036
238.574	4.49681
240.381	5.1906
242.188	5.39914
243.994	5.2262
245.801	4.91687
247.606	5.45827
249.412	5.9761
251.217	6.22709
253.024	6.18573
254.828	4.97249
256.632	5.03684
258.436	4.78029
260.239	4.8474
262.042	6.13476
263.845	5.39409
265.647	4.49879
267.449	4.51206
269.25	4.96072
271.052	4.98679
272.852	5.77477
274.653	6.62195
276.453	8.4818
278.253	8.44512
280.052	9.10572
281.852	10.4438
283.65	10.6544
285.449	11.6519
287.247	12.0691
289.044	11.6925
290.842	11.4198
292.639	11.8925
294.436	12.1282
296.232	12.6253
298.028	12.3265
299.821	12.5316
301.617	13.2862
303.412	12.7419
305.206	12.0907
307	11.6414
308.794	11.4316
310.588	12.3298
312.381	12.5051
314.172	12.6431
315.964	12.5649
317.756	12.9168
319.548	13.3654
321.34	13.0577
323.131	13.2375
324.921	13.0273
326.71	13.9442
328.5	14.8124
330.29	14.8892
332.079	14.8002
333.868	15.0891
335.654	14.7993
337.443	15.2689
339.231	14.3132
341.018	13.7518
342.804	13.0561
344.591	12.3157
346.377	12.2575
348.163	11.4759
349.947	11.3122
351.733	11.3354
353.518	10.6794
355.303	10.9411
357.085	11.3635
358.869	11.415
360.653	10.943
362.435	11.2784
364.218	11.7225
366.001	11.5152
367.781	10.8962
369.563	11.5761
371.345	11.2627
373.124	11.3259
374.905	10.0624
376.686	9.49929
378.464	8.31256
380.244	7.96192
382.022	7.29044
383.801	7.14816
385.58	7.94096
387.357	7.40356
389.135	7.96026
390.911	8.08279
392.689	7.14903
394.466	7.8257
396.241	8.31444
398.018	8.6922
399.792	8.38766
401.568	7.88667
403.341	8.33545
405.117	8.41543
406.889	9.05949
408.664	9.16691
410.436	9.64805
412.21	10.6422
413.981	11.1774
415.755	11.9203
417.525	11.8614
419.298	11.7791
421.068	11.9123
422.84	11.7548
424.609	10.2264
426.38	9.74167
428.149	9.82398
429.919	9.57465
431.688	9.23357
433.455	9.22167
435.225	9.21824
436.992	9.53362
438.76	9.02387
440.527	9.60478
442.293	8.98274
444.06	9.64874
445.826	9.5717
447.593	9.52999
449.357	9.98088
451.122	10.729
452.888	11.1398
454.651	10.1724
456.415	10.4708
458.18	10.663
459.942	10.5827
461.705	11.2038
463.469	11.3255
465.23	11.4763
466.991	11.7974
468.752	12.254
470.515	13.5464
472.275	14.3273
474.035	15.3834
475.797	15.8742
477.556	15.7826
479.315	15.9956
481.073	16.343
482.834	16.9546
484.592	17.079
486.349	17.3981
488.106	17.9165
489.863	18.5121
491.622	18.6477
493.378	18.2741
495.134	18.3109
496.889	18.4857
498.645	18.2309
500.401	18.3388
502.156	18.1973
503.91	18.0412
505.664	17.2007
507.417	16.5557
509.171	16.767
510.923	16.8068
512.678	15.9179
514.43	15.843
516.182	16.1852
517.933	15.4822
519.684	14.8623
521.435	14.755
523.186	14.6491
524.936	14.0573
526.686	13.8061
528.435	13.6103
530.184	13.3331
531.933	13.7473
533.682	13.5695
535.43	13.6153
537.18	13.484
538.927	12.7777
540.674	12.4407
542.421	11.8826
544.167	11.9444
545.913	11.8589
547.659	10.9357
549.403	10.6248
551.148	10.1967
552.893	9.40832
554.637	9.39379
556.381	9.10793
558.125	8.75728
559.868	7.49376
561.611	7.53337
563.354	6.84453
565.097	6.11241
566.839	5.74033
568.581	5.31497
570.322	5.15004
572.063	5.23467
573.802	4.93238
575.542	3.90335
577.283	3.52888
579.022	2.24978
580.762	2.08229
582.501	2.34955
584.24	2.64548
585.976	2.37838
587.714	2.89303
589.452	1.89158
591.19	1.71439
592.927	1.74438
594.663	2.64517
596.398	2.83105
598.134	2.86822
599.87	2.60382
601.605	2.49407
603.338	3.80084
605.073	3.70968
606.808	3.65789
608.542	4.52151
610.274	4.80488
612.007	4.73522
613.74	5.09527
615.473	4.57409
617.204	4.77855
618.936	4.48698
620.668	5.25458
622.397	5.60288
624.128	5.5682
625.859	5.13091
627.588	5.35554
629.318	5.72641
631.048	6.21506
632.775	6.06364
634.505	6.50671
636.233	7.74165
637.96	8.03262
639.688	8.37638
641.416	9.024
643.142	8.86349
644.869	8.96918
646.594	10.2749
648.32	11.3752
650.045	11.8207
651.771	11.6379
653.496	10.8471
655.219	11.7088
656.944	11.7734
658.667	12.1382
660.391	12.0176
662.113	12.2059
663.837	13.532
665.558	13.4579
667.281	14.5332
669.002	15.6898
670.724	15.3937
672.444	16.1327
674.166	16.464
675.885	16.0909
677.606	16.8898
679.325	17.8154
681.045	18.7777
682.763	18.9375
684.483	20.7193
686.2	20.7191
687.917	21.8361
689.636	23.5331
691.352	23.4111
693.07	23.7796
694.786	23.4794
696.501	24.0164
698.219	24.3273
699.933	24.7521
701.65	24.602
703.364	24.9129
705.078	26.001
706.793	27.7393
708.506	28.0981
710.219	29.7628
711.934	30.3473
713.646	31.6908
715.358	32.1516
717.071	33.1084
718.782	33.8451
720.493	35.1056
722.204	35.8413
723.916	34.8563
725.626	35.785
727.336	36.5034
729.045	37.1752
730.756	38.6714
732.464	39.7404
734.173	39.2852
735.881	38.7704
737.59	39.085
739.297	39.2508
741.004	40.2946
742.711	40.8492
744.417	42.2853
746.125	43.3222
747.831	44.2716
749.537	45.6821
751.242	47.0247
752.946	48.502
754.651	49.4879
756.357	50.567
758.061	52.0976
759.764	52.8031
761.467	53.5799
763.17	54.5723
764.872	56.5259
766.575	57.4921
768.276	58.6172
769.978	60.3075
771.679	61.3323
773.382	62.9296
775.083	63.7885
776.783	62.8697
778.483	62.6004
780.182	63.5214
781.882	64.4221
783.581	64.6828
785.279	64.4185
786.978	65.5223
788.676	67.148
790.373	68.411
792.071	69.2488
793.768	69.9043
795.464	70.7063
797.161	70.842
798.857	71.9925
800.552	72.3321
802.248	73.4439
803.941	74.1053
805.636	74.1602
807.33	73.5539
809.024	74.054
810.718	75.2818
812.412	75.3919
814.105	75.5247
815.798	75.035
817.49	74.0448
819.183	73.5665
820.873	74.2001
822.564	74.6983
824.256	74.3359
825.947	74.2409
827.637	74.6451
829.328	74.8804
831.016	74.8234
832.705	74.2146
834.395	75.2027
836.084	75.1265
837.772	74.2102
839.459	73.7742
841.147	73.4929
842.835	71.7279
844.522	70.623
846.209	69.1723
847.894	67.6866
849.581	67.0865
851.267	65.6393
852.953	64.1893
854.637	62.9495
856.322	61.5744
858.007	59.2745
859.689	56.987
861.374	54.1375
863.058	53.348
864.739	52.8509
866.423	51.3122
868.106	50.6145
869.787	49.5276
871.469	49.4517
873.151	48.4382
874.831	47.3928
876.512	47.1242
878.193	46.4938
879.872	46.2264
881.553	46.553
883.231	45.8448
884.911	44.9159
886.591	44.6225
888.268	44.5013
889.947	43.7191
891.623	43.3947
893.302	43.4712
894.978	42.7176
896.656	41.77
898.331	41.3443
900.008	42.0886
901.683	42.4482
903.359	42.5163
905.033	42.9482
906.709	42.3128
908.383	42.7033
910.058	42.6637
911.731	43.4899
913.405	43.8568
915.078	44.2992
916.752	44.3167
918.423	45.6553
920.096	44.7575
921.768	44.5902
923.438	44.4901
925.111	44.5689
926.781	43.9348
928.452	43.3586
930.122	42.2708
931.791	42.3597
933.462	42.8367
935.13	42.1962
936.799	41.1672
938.468	40.4539
940.136	39.6577
941.803	38.8726
943.472	38.6643
945.139	38.2435
946.805	39.1745
948.473	39.2635
950.139	38.4354
951.804	38.0558
953.471	38.4142
955.136	38.7039
956.801	38.6747
958.465	38.4425
960.131	37.4623
961.794	37.2162
963.458	38.3339
965.12	38.4589
966.785	38.423
968.447	38.1873
970.109	37.6823
971.771	38.6146
973.432	38.2479
975.095	38.9677
976.756	38.9372
978.417	39.1999
980.077	39.1777
981.737	40.5806
983.396	41.7266
985.057	40.5632
986.716	41.1319
988.375	42.4521
990.033	42.0606
991.691	41.6353
993.349	42.0738
995.006	43.0049
996.663	42.9499
998.32	42.5248
999.976	42.5479
1001.63	42.0363
1003.29	40.3845
1004.95	40.5601
1006.6	39.7624
1008.26	40.0166
1009.91	38.4535
1011.56	36.9892
1013.22	36.4602
1014.87	36.2834
1016.53	34.9987
1018.18	33.7481
1019.83	33.4007
1021.48	33.5076
1023.14	33.0653
1024.79	33.2496
1026.44	32.8231
1028.09	32.1294
1029.74	32.5562
1031.39	32.6172
1033.04	31.7384
1034.69	32.0512
1036.34	31.9118
1037.99	31.0813
1039.64	30.6076
1041.29	30.1366
1042.94	30.3809
1044.58	31.0374
1046.23	30.804
1047.88	29.6099
1049.52	29.5623
1051.17	28.8059
1052.82	29.2138
1054.46	29.7592
1056.11	29.6243
1057.75	29.521
1059.4	29.0131
1061.04	28.6602
1062.69	28.431
1064.33	27.9396
1065.98	26.9077
1067.62	26.7148
1069.26	26.4935
1070.9	25.8035
1072.55	24.781
1074.19	24.3669
1075.83	24.5385
1077.47	24.1131
1079.11	22.9013
1080.76	22.0505
1082.4	22.5523
1084.04	22.4287
1085.68	22.7447
1087.32	23.0511
1088.95	23.1717
1090.59	23.3672
1092.23	22.1775
1093.87	21.994
1095.51	22.5712
1097.15	22.4033
1098.78	21.8747
1100.42	22.2153
1102.06	22.4593
1103.69	22.6493
1105.33	22.4088
1106.97	23.1249
1108.6	23.3354
1110.24	23.6833
1111.87	23.8269
1113.51	23.9918
1115.14	23.067
1116.77	22.9673
1118.41	22.2333
1120.04	21.609
1121.67	21.5455
1123.31	20.8175
1124.94	20.8502
1126.57	20.0246
1128.2	18.8009
1129.83	18.9251
1131.47	18.1275
1133.1	17.0762
1134.72	16.6981
1136.36	15.9918
1137.98	15.2681
1139.62	14.1138
1141.24	13.5259
1142.87	13.3611
1144.5	12.7307
1146.13	11.6893
1147.76	10.6755
1149.38	10.185
1151.01	9.04671
1152.64	8.49684
1154.27	8.17869
1155.89	7.0789
1157.52	7.82739
1159.14	7.74523
1160.77	7.01469
1162.39	6.84912
1164.02	6.92194
1165.64	5.80509
1167.27	4.61471
1168.89	4.30591
1170.51	3.92215
1172.14	3.18912
1173.76	2.77019
1175.38	2.13028
1177	2.0025
1178.63	0.504734
1180.25	0.643379
1181.87	1.39867
1183.49	1.50163
1185.11	2.19586
1186.73	2.29689
1188.35	2.63336
1189.97	2.52648
1191.59	1.96184
1193.21	2.17943
1194.83	3.03588
1196.45	3.18612
1198.07	3.55128
1199.68	4.60726
1201.3	5.11449
1202.92	6.32812
1204.53	6.84182
1206.15	7.83548
1207.77	9.01241
1209.38	9.82812
1211	11.5097
1212.62	11.3536
1214.23	12.3263
1215.84	14.6347
1217.46	16.2365
1219.07	17.0609
1220.69	19.3178
1222.3	21.2579
1223.91	23.0031
1225.53	23.881
1227.14	25.5242
1228.75	27.5494
1230.36	29.92
1231.97	31.0939
1233.59	33.0598
1235.2	35.0239
1236.81	36.0277
1238.42	37.7386
1240.03	37.6744
1241.64	38.1705
1243.25	39.1149
1244.85	39.6446
1246.46	41.2419
1248.07	42.0455
1249.68	43.5279
1251.29	43.9595
1252.9	44.5228
1254.5	44.6829
1256.11	44.5177
1257.72	45.8343
1259.32	46.4386
1260.93	48.3665
1262.54	48.95
1264.14	49.7555
1265.75	50.651
1267.35	51.3443
1268.96	51.3901
1270.56	51.737
1272.16	52.3312
1273.77	52.8376
1275.37	52.9341
1276.97	52.9521
1278.57	53.2726
1280.18	53.8461
1281.78	53.2609
1283.38	53.8797
1284.98	54.9107
1286.58	55.2291
1288.18	55.4575
1289.78	55.8502
1291.38	56.6527
1292.99	56.4299
1294.58	57.6661
1296.18	58.3906
1297.78	58.2879
1299.38	59.1172
1300.98	60.4303
1302.58	61.416
1304.17	62.0401
1305.77	62.9688
1307.37	62.7978
1308.97	62.399
1310.56	62.6025
1312.16	61.6532
1313.76	62.5538
1315.35	62.207
1316.95	62.2569
1318.54	62.2179
1320.14	61.7219
1321.73	62.4104
1323.32	62.3002
1324.92	61.1451
1326.51	60.8795
1328.1	59.9609
1329.7	59.4161
1331.29	58.8762
1332.88	57.4858
1334.47	57.4596
1336.07	57.2098
1337.66	56.4113
1339.25	54.1871
1340.84	53.2226
1342.43	51.7434
1344.02	50.2035
1345.61	48.4055
1347.2	46.7934
1348.79	45.0001
1350.37	44.5881
1351.96	42.131
1353.55	40.3847
1355.14	39.367
1356.73	38.2169
1358.31	37.3561
1359.9	36.4182
1361.49	34.9066
1363.07	33.9646
1364.66	32.6335
1366.25	31.2737
1367.83	30.5067
1369.42	30.5516
1371	29.1934
1372.59	28.473
1374.17	28.2216
1375.75	27.363
1377.34	26.8955
1378.92	27.1457
1380.5	27.1501
1382.09	27.4259
1383.67	26.3966
1385.25	25.8279
1386.83	25.3822
1388.42	25.4264
1390	26.1742
1391.58	26.6784
1393.16	27.4343
1394.74	28.0752
1396.32	28.8406
1397.9	28.5331
1399.48	28.2111
1401.06	28.7174
1402.64	28.3183
1404.21	28.5288
1405.79	29.2603
1407.37	29.4406
1408.95	29.3063
1410.53	29.4196
1412.1	28.4512
1413.68	28.9179
1415.26	28.5731
1416.83	28.7311
1418.41	29.6395
1419.98	31.9075
1421.56	33.0115
1423.13	33.6336
1424.71	36.256
1426.28	37.8781
1427.86	39.3905
1429.43	41.3825
1431	41.9492
1432.58	45.4365
1434.15	47.9834
1435.72	49.7984
1437.29	51.2237
1438.87	52.3933
1440.44	53.4507
1442.01	54.4158
1443.58	55.5338
1445.15	57.5237
1446.72	59.096
1448.29	59.7717
1449.86	60.4733
1451.43	61.3379
1453	60.3778
1454.57	59.4072
1456.14	58.3938
1457.71	58.9271
1459.27	57.3285
1460.84	55.2709
1462.41	53.7775
1463.98	52.297
1465.54	51.0117
1467.11	48.7724
1468.67	46.7513
1470.24	44.4158
1471.81	40.9196
1473.37	38.54
1474.94	35.7606
1476.5	32.4232
1478.07	30.3017
1479.63	27.8254
1481.19	24.8769
1482.76	21.9828
1484.32	18.9968
1485.88	16.2158
1487.45	14.0128
1489.01	11.4723
1490.57	8.92136
1492.13	7.4582
1493.69	6.8302
1495.26	6.09554
1496.82	5.41749
1498.38	4.376
1499.94	2.89664
1501.5	2.01164
1503.06	3.37506
1504.62	2.53972
1506.17	2.73552
1507.73	3.09364
1509.29	3.41242
1510.85	4.39761
1512.41	3.40784
1513.97	3.63307
1515.52	3.98084
1517.08	4.10538
1518.64	4.73656
1520.19	5.33625
1521.75	6.42131
1523.31	7.60348
1524.86	8.24058
1526.42	8.06972
1527.97	9.22945
1529.52	9.34187
1531.08	8.75127
1532.63	9.45927
1534.19	10.701
1535.74	12.554
1537.29	13.0354
1538.85	14.0751
1540.4	15.0773
1541.95	15.795
1543.5	16.4187
1545.06	16.8939
1546.61	17.5578
1548.16	18.3121
1549.71	19.8923
1551.26	21.5254
1552.81	23.4812
1554.36	24.7021
1555.91	26.4211
1557.46	27.0897
1559.01	28.1815
1560.56	28.8918
1562.11	29.3445
1563.65	30.1494
1565.2	31.5168
1566.75	32.0578
1568.29	33.0817
1569.84	35.1709
1571.39	36.5283
1572.94	37.6557
1574.48	38.4698
1576.03	39.0633
1577.57	40.5874
1579.12	41.9354
1580.66	43.4326
1582.21	42.8465
1583.75	43.3773
1585.3	43.3798
1586.84	43.6945
1588.38	43.8388
1589.93	43.7611
1591.47	44.8087
1593.01	44.5681
1594.55	43.6757
1596.1	44.0588
1597.64	44.0277
1599.18	43.7127
1600.72	43.3866
1602.26	44.0215
1603.8	44.0579
1605.34	44.5233
1606.88	44.2743
1608.42	44.7545
1609.96	45.4713
1611.5	45.1386
1613.04	45.3996
1614.58	45.1262
1616.12	45.1283
1617.65	45.8174
1619.19	46.8338
1620.73	47.0583
1622.27	47.4844
1623.8	47.6299
1625.34	49.0448
1626.87	50.4495
1628.41	51.0744
1629.95	52.3649
1631.48	53.3238
1633.02	54.2028
1634.55	55.3987
1636.09	56.6711
1637.62	58.0779
1639.15	59.959
1640.69	61.6187
1642.22	63.7129
1643.76	65.2036
1645.29	66.896
1646.82	68.8391
1648.35	68.9741
1649.88	69.8
1651.42	71.0534
1652.95	71.6993
1654.48	72.3279
1656.01	71.3082
1657.54	71.789
1659.07	71.7158
1660.6	71.8998
1662.13	71.3665
1663.66	71.4997
1665.19	71.3505
1666.72	70.973
1668.24	70.8266
1669.77	69.6358
1671.3	67.6431
1672.83	66.563
1674.35	65.4063
1675.88	63.7944
1677.41	61.7606
1678.93	60.1401
1680.46	57.7898
1681.99	55.6756
1683.51	53.4985
1685.04	50.3837
1686.56	47.3575
1688.09	44.3455
1689.61	42.6064
1691.13	39.8046
1692.66	37.6464
1694.18	35.481
1695.71	32.352
1697.23	29.2565
1698.75	26.3604
1700.27	24.1454
1701.8	22.5168
1703.32	20.3302
1704.84	18.1093
1706.36	16.0943
1707.88	14.2329
1709.4	12.6132
1710.92	11.7323
1712.44	10.0719
1713.96	8.31029
1715.48	6.40688
1717	5.2461
1718.52	4.57109
1720.04	3.82838
1721.56	2.67334
1723.07	1.41744
1724.59	0.302545
1726.11	0.131709
1727.63	0.602228
1729.14	-0.0644886
1730.66	-0.0293231
1732.18	-0.17347
1733.69	1.24069
1735.21	1.32175
1736.72	1.66481
1738.24	1.97863
1739.75	2.49485
1741.27	2.65077
1742.78	2.94224
1744.3	2.94149
1745.81	2.4156
1747.32	1.91575
1748.84	2.41774
1750.35	2.29484
1751.86	1.92676
1753.37	1.42305
1754.89	1.90871
1756.4	1.92528
1757.91	1.45593
1759.42	0.82822
1760.93	0.0276733
1762.44	0.327236
1763.95	-0.194534
1765.46	-0.0441602
1766.97	-0.515281
1768.48	-0.423564
1769.99	-0.771264
1771.5	-1.5614
1773.01	-1.72194
1774.52	-1.74962
1776.03	-1.83967
1777.53	-1.69399
1779.04	-1.65856
1780.55	-1.75405
1782.06	-1.57569
1783.56	-1.23737
1785.07	-0.986956
1786.57	-0.878404
1788.08	-1.28081
1789.59	-1.47145
1791.09	-1.04688
1792.6	0.0642339
1794.1	0.480347
1795.6	0.479441
1797.11	0.342421
1798.61	0.512383
1800.12	0.867268
1801.62	1.1168
1803.12	1.77001
1804.63	2.20221
1806.13	2.4367
1807.63	2.91161
1809.13	3.33039
1810.63	3.65813
1812.14	4.21922
1813.64	4.06809
1815.14	4.21922
1816.64	4.09533
1818.14	3.80782
1819.64	3.65439
1821.14	3.54198
1822.64	3.66294
1824.14	3.81941
1825.63	3.90302
1827.13	4.01132
1828.63	4.33762
1830.13	4.62559
1831.63	4.65863
1833.12	4.35648
1834.62	4.22057
1836.12	4.36484
1837.62	4.60277
1839.11	4.41104
1840.61	4.081
1842.1	3.70043
1843.6	3.75471
1845.09	4.2488
1846.59	4.5262
1848.08	4.41963
1849.58	4.96446
1851.07	5.32636
1852.57	5.47264
1854.06	5.24912
1855.55	5.16476
1857.04	4.42282
1858.54	4.26604
1860.03	4.26056
1861.52	4.44596
1863.01	4.64227
1864.5	4.77292
1866	4.44407
1867.49	4.82684
1868.98	4.2378
1870.47	4.00208
1871.96	4.52162
1873.45	4.52148
1874.94	4.27683
1876.43	4.19212
1877.92	4.2456
1879.41	4.28795
1880.89	4.24038
1882.38	4.41247
1882.48	4.25336
1883.97	4.71728
1885.47	5.08632
1886.96	4.98996
1888.46	5.49996
1889.95	5.71663
1891.44	5.95247
1892.94	6.34238
1894.43	6.65378
1895.92	7.26429
1897.41	7.84124
1898.9	8.35471
1900.4	8.99451
1901.89	8.99158
1903.38	8.86191
1904.87	8.54014
1906.36	8.26097
1907.85	8.50353
1909.34	8.51174
1910.83	8.65906
1912.32	8.89518
1913.81	8.65852
1915.29	8.79875
1916.78	9.19184
1918.27	9.78954
1919.76	9.81503
1921.25	9.55014
1922.74	9.16984
1924.22	8.36917
1925.71	7.45058
1927.2	7.17976
1928.68	6.91522
1930.17	6.73606
1931.65	6.8841
1933.14	6.7599
1934.63	6.724
1936.11	6.29032
1937.59	5.95508
1939.08	5.5934
1940.56	5.39397
1942.05	4.97931
1943.53	5.18418
1945.01	5.14127
1946.5	4.47448
1947.98	3.82861
1949.46	3.67572
1950.94	4.17767
1952.43	4.74083
1953.91	5.54455
1955.39	5.87131
1956.87	6.34852
1958.35	6.77456
1959.83	7.39721
1961.31	7.24992
1962.79	6.98449
1964.27	6.7654
1965.75	6.908
1967.23	7.13033
1968.71	7.85938
1970.19	8.43595
1971.67	8.74866
1973.14	8.73876
1974.62	8.8338
1976.1	8.29363
1977.58	8.84364
1979.05	8.65332
1980.53	9.20997
1982.01	10.0128
1983.48	10.1908
1984.96	10.6764
1986.43	11.2364
1987.91	10.9711
1989.38	10.9423
1990.86	11.4018
1992.33	11.3931
1993.81	11.2181
1995.28	11.0789
1996.76	10.5799
1998.23	11.1905
1999.7	11.408
2001.18	11.4552
2002.65	11.1946
2004.12	11.5483
2005.59	11.5304
2007.06	11.9555
2008.54	12.2808
2010.01	11.8504
2011.48	11.9382
2012.95	11.5369
2014.42	11.6428
2015.89	11.9363
2017.36	12.1199
2018.83	12.2546
2020.3	12.4014
2021.77	13.0198
2023.24	13.8673
2024.71	14.0584
2026.17	13.9066
2027.64	13.8112
2029.11	13.3346
2030.58	13.6201
2032.04	13.9729
2033.51	14.0144
2034.98	13.2527
2036.45	13.5169
2037.91	13.492
2039.38	13.4763
2040.84	13.5489
2042.31	14.0648
2043.77	14.072
2045.24	13.9256
2046.7	14.1502
2048.17	14.0533
2049.63	14.5152
2051.1	14.7594
2052.56	14.5739
2054.02	15.1638
2055.48	14.9934
2056.95	14.8058
2058.41	14.9146
2059.87	15.1329
2061.33	14.6462
2062.8	14.805
2064.26	15.8005
2065.72	16.3366
2067.18	16.8533
2068.64	17.6994
2070.1	17.7512
2071.56	18.57
2073.02	18.5137
2074.48	18.7107
2075.94	18.8876
2077.4	19.2957
2078.86	19.7462
2080.31	19.9466
2081.77	19.8364
2083.23	20.4505
2084.69	21.4187
2086.14	21.5125
2087.6	22.0036
2089.06	22.3967
2090.52	23.0793
2091.97	23.5679
2093.43	23.7802
2094.88	24.3689
2096.34	24.5379
2097.79	25.1228
2099.25	26.0224
2100.7	27.4765
2102.16	28.0239
2103.61	29.052
2105.07	29.432
2106.52	29.7912
2107.97	30.7717
2109.43	31.5769
2110.88	32.1503
2112.33	33.555
2113.78	34.7725
2115.24	35.8807
2116.69	36.1399
2118.14	36.8964
2119.59	38.3717
2121.04	39.0631
2122.49	40.2032
2123.94	40.7524
2125.39	41.8369
2126.84	42.3618
2128.29	43.4511
2129.74	45.6494
