#Acq. time (s)=	45
#Accumulations=	2
#Range (cm-¹)=	200...3150
#Windows=	2
#Auto scanning=	Off
#Autofocus=	Off
#Macrospot=	Off
#AutoExposure=	Off
#Spike filter=	Multiple accum.
#Delay time (s)=	0
#Binning=	1
#Readout mode=	Signal
#DeNoise=	Off
#ICS correction=	On
#Dark correction=	Off
#Inst. Process=	Off
#Detector Gain=	Best Dynamic Range
#Detector ADC=	20 kHz       
#Detector temperature (°C)=	-69.85
#Instrument=	LabRAM HR Evol
#Detector=	Synapse
#Objective=	x100
#Grating=	600 gr/mm
#ND Filter=	100%
#Laser (nm)=	532 
#Hole=	100.021
#Range=	Auto
#Laser Pol.=	No
#Raman. Pol.=	No
#Laser Pol. (°)=	-0.0007625
#Raman Pol. (°)=	89.9995
#Collection=	Microscope
#StageXY=	Marzhauser
#StageZ=	Marzhauser
#X (µm)=	1984.8
#Y (µm)=	-47.7
#Z (µm)=	425.1
#Full time(mm:ss)=	3:18
#Project=	
#Sample=	
#Site=	
#Title=	Thy_40_11_18_2x_45s_532 nm_x100_100%_600 gr_mm
#Remark=	
#Date=	05.07.2022 11:09
#Acquired=	05.07.2022 11:09:38
#Base:Fit=	10.08.2022 10:01:35
#Base:Sub=	10.08.2022 10:01:52
#Filter:Polynom=	16.08.2022 10:21:53
#AxisType[0]=Intens
#AxisUnit[0]=Cnt
#AxisType[1]=Spectr
#AxisUnit[1]=1/cm
200.43	-4.12193
202.244	-1.08394
204.059	2.09566
205.873	5.85038
207.688	9.00848
209.501	10.9487
211.314	12.4055
213.127	13.4937
214.941	15.1621
216.753	16.312
218.564	16.6607
220.375	17.5449
222.186	18.8569
223.999	18.3442
225.809	18.963
227.618	19.1794
229.428	19.7099
231.236	19.9789
233.045	20.882
234.855	21.4141
236.663	20.9352
238.471	20.5158
240.278	20.2275
242.085	19.6619
243.891	20.0554
245.698	19.8928
247.503	19.6554
249.309	19.2046
251.116	18.1285
252.921	18.2082
254.725	18.3716
256.529	17.3609
258.333	16.1121
260.136	16.0753
261.939	15.8481
263.742	16.9897
265.544	16.8078
267.346	16.8703
269.148	16.5793
270.949	16.2649
272.75	15.5005
274.55	15.9214
276.351	16.4989
278.15	16.1755
279.95	17.1216
281.749	17.162
283.548	17.3968
285.346	17.5483
287.144	16.7235
288.942	16.3704
290.739	17.2008
292.536	17.1499
294.333	17.1237
296.129	16.3474
297.925	16.1863
299.721	16.7061
301.514	17.2799
303.309	17.6736
305.104	18.5744
306.898	18.6611
308.692	18.7819
310.486	19.2811
312.279	19.083
314.072	18.2418
315.862	18.8204
317.654	19.9183
319.446	19.6167
321.238	19.7734
323.029	20.3963
324.819	20.0882
326.608	19.7187
328.398	19.384
330.188	19.0535
331.977	19.552
333.766	20.1984
335.553	19.8527
337.341	20.4355
339.129	20.2671
340.917	20.0472
342.704	20.9418
344.489	20.877
346.275	20.3075
348.062	19.4333
349.845	19.4599
351.631	19.6629
353.416	18.6344
355.201	17.1079
356.984	17.0265
358.768	15.8923
360.552	14.7035
362.333	14.2815
364.116	14.0486
365.899	14.3267
367.68	13.6207
369.462	13.3289
371.243	11.958
373.023	11.2214
374.804	9.93498
376.585	9.79361
378.363	9.69759
380.143	9.97209
381.923	8.9177
383.7	8.71245
385.479	8.48537
387.256	8.46859
389.034	7.92213
390.812	7.87814
392.588	7.65887
394.365	8.14305
396.14	7.19212
397.916	6.28767
399.691	5.96321
401.467	5.66574
403.24	5.69588
405.015	5.67685
406.788	5.76234
408.563	3.5288
410.335	3.96433
412.109	4.19028
413.88	4.05639
415.654	3.48694
417.424	2.8196
419.197	3.72572
420.967	5.16945
422.739	5.53895
424.508	5.51508
426.279	4.97948
428.048	4.93384
429.819	5.1842
431.587	4.83882
433.356	5.0871
435.124	4.30426
436.891	4.28714
438.66	4.03145
440.426	3.67353
442.194	3.1537
443.96	2.78041
445.725	2.97077
447.492	2.88699
449.257	2.52967
451.021	3.12121
452.787	3.6698
454.551	3.97895
456.314	4.15506
458.079	4.87172
459.842	4.90225
461.604	4.92891
463.368	5.70175
465.13	6.63018
466.891	6.91063
468.654	7.97254
470.415	8.26896
472.175	8.80677
473.935	9.24443
475.696	9.23769
477.456	9.51325
479.215	10.3111
480.973	10.5071
482.733	11.5047
484.491	11.0925
486.249	11.578
488.006	11.9605
489.765	11.9116
491.522	11.6461
493.278	11.1789
495.034	10.6521
496.789	11.0393
498.544	12.7
500.301	14.1503
502.056	15.0042
503.81	16.0943
505.564	17.3119
507.317	19.0679
509.071	19.5651
510.825	19.4022
512.578	19.1874
514.33	18.6545
516.082	19.5454
517.833	19.0102
519.585	18.9628
521.335	19.4047
523.086	18.9126
524.836	19.2837
526.586	18.9187
528.335	18.9318
530.085	19.1825
531.835	18.8871
533.584	19.3478
535.332	18.8135
537.08	17.7024
538.827	17.8633
540.574	17.3013
542.321	16.6932
544.068	16.7816
545.814	15.9893
547.56	15.3881
549.305	14.5776
551.05	14.0643
552.795	12.6254
554.54	12.0919
556.282	11.4988
558.025	10.1983
559.769	8.59627
561.512	8.42147
563.255	8.41283
564.997	8.10217
566.739	7.27466
568.481	6.00303
570.223	4.6184
571.964	3.24948
573.705	2.85067
575.443	2.99459
577.183	2.58101
578.923	1.7839
580.663	1.39085
582.402	2.10324
584.141	3.28132
585.879	2.54745
587.615	2.60099
589.353	2.7656
591.09	3.18555
592.828	3.20363
594.564	3.88893
596.299	3.30159
598.035	3.16191
599.771	2.46478
601.506	2.61722
603.242	3.23145
604.974	3.60182
606.709	4.73803
608.443	5.31019
610.177	5.53696
611.908	5.44424
613.642	5.89553
615.374	6.69763
617.105	6.78809
618.837	6.14444
620.569	5.75122
622.3	5.42481
624.03	6.41247
625.761	7.38662
627.491	7.71315
629.219	8.06754
630.949	8.92587
632.677	9.74551
634.406	10.549
636.135	9.88858
637.861	10.0679
639.59	10.8695
641.318	11.4544
643.043	11.6611
644.77	12.5715
646.495	13.1703
648.222	14.8967
649.948	15.0101
651.672	14.911
653.398	14.1183
655.121	14.1525
656.846	14.728
658.569	15.8127
660.293	16.1541
662.015	16.0301
663.738	15.6311
665.46	15.2184
667.183	15.4733
668.903	15.993
670.626	16.2157
672.346	16.9017
674.067	18.4365
675.787	19.2995
677.508	20.4852
679.226	21.0783
680.947	21.89
682.665	22.66
684.385	23.9001
686.102	24.3553
687.821	25.5045
689.538	25.6481
691.254	26.4316
692.972	27.4045
694.688	26.964
696.406	26.727
698.121	27.6539
699.835	27.3851
701.552	27.3743
703.266	27.2527
704.98	27.4111
706.695	27.9723
708.409	29.4888
710.121	30.1585
711.836	30.8605
713.548	32.2491
715.26	32.4707
716.973	33.9763
718.685	34.6796
720.396	34.2489
722.108	34.6013
723.818	35.0885
725.528	35.97
727.238	37.2883
728.949	37.7176
730.658	38.5275
732.367	38.5603
734.075	38.688
735.785	38.4572
737.493	38.4002
739.2	37.7917
740.907	38.7306
742.614	40.0767
744.322	40.1989
746.028	41.3271
747.734	42.7779
749.439	43.7789
751.144	44.1416
752.849	44.9267
754.555	46.8531
756.26	48.3689
757.963	49.4116
759.667	49.9284
761.37	50.9442
763.073	53.1439
764.775	53.9221
766.477	55.8421
768.179	55.9297
769.883	56.1015
771.584	56.7524
773.285	56.9036
774.986	57.7388
776.686	58.2849
778.386	58.0122
780.085	57.597
781.785	57.6543
783.484	57.8544
785.182	58.4365
786.881	60.1906
788.579	61.0228
790.276	61.6846
791.974	62.4689
793.671	62.7464
795.367	62.5971
797.064	63.8687
798.76	64.1106
800.456	63.302
802.151	63.9728
803.846	63.8651
805.541	64.2452
807.234	64.9148
808.928	64.4738
810.622	65.5551
812.315	66.2246
814.008	65.5825
815.701	65.9732
817.394	66.4597
819.086	66.2827
820.778	67.1423
822.468	68.4052
824.159	69.0016
825.85	69.9194
827.541	70.9277
829.231	70.581
830.921	70.4957
832.609	69.1759
834.298	68.2128
835.987	67.3204
837.676	66.9073
839.364	67.1002
841.051	65.961
842.738	65.3335
844.426	63.8269
846.113	63.46
847.798	63.3536
849.484	62.1695
851.171	60.8047
852.857	58.8214
854.54	58.4214
856.226	58.0151
857.911	56.4886
859.593	55.4221
861.278	54.1707
862.961	52.9404
864.645	52.6095
866.327	51.9436
868.01	51.1652
869.692	50.5113
871.373	49.7548
873.055	48.6591
874.735	47.1568
876.416	45.8684
878.097	44.9218
879.776	44.0584
881.457	43.5864
883.135	42.7496
884.815	42.0143
886.495	41.3127
888.172	41.5072
889.851	41.8338
891.528	41.6874
893.206	41.4673
894.882	42.1823
896.56	41.7847
898.237	41.8143
899.912	41.4381
901.589	41.3919
903.263	41.3356
904.94	42.2737
906.614	42.0424
908.289	41.0042
909.962	40.3471
911.635	39.7221
913.31	38.8314
914.982	38.3192
916.656	37.8619
918.328	38.5586
920.001	37.906
921.672	36.9939
923.345	36.4754
925.015	36.2531
926.685	35.8456
928.357	35.36
930.026	36.5904
931.698	36.3909
933.366	34.6722
935.035	33.4267
936.705	32.433
938.373	31.5488
940.041	30.7203
941.71	29.8368
943.377	29.1946
945.044	28.5222
946.712	27.83
948.378	28.1095
950.044	28.2028
951.709	28.1633
953.376	28.9583
955.041	28.4371
956.706	27.2796
958.372	26.1157
960.036	26.0553
961.699	25.742
963.362	26.3875
965.027	27.4118
966.69	27.35
968.352	26.8041
970.014	26.1709
971.676	27.0116
973.339	26.6879
975	26.1257
976.661	25.2899
978.322	26.5616
979.982	26.9228
981.642	27.2839
983.303	27.105
984.962	27.3395
986.621	27.2853
988.28	27.4447
989.938	26.8237
991.596	26.7486
993.254	27.1473
994.911	26.5547
996.57	26.0688
998.227	25.6366
999.884	24.5773
1001.54	24.1826
1003.2	22.306
1004.85	22.2711
1006.51	22.7214
1008.16	22.6623
1009.82	21.5441
1011.47	20.9696
1013.12	20.5808
1014.78	18.5601
1016.43	17.2098
1018.08	16.9932
1019.74	16.2953
1021.39	16.5446
1023.04	18.0123
1024.69	18.2432
1026.34	18.6381
1028	19.3336
1029.65	20.5912
1031.3	20.952
1032.95	20.5482
1034.6	19.0851
1036.25	18.3614
1037.9	17.864
1039.54	17.3439
1041.19	17.3896
1042.84	17.8163
1044.49	17.3203
1046.14	17.0945
1047.78	15.8502
1049.43	14.2764
1051.08	14.258
1052.72	14.5646
1054.37	14.9373
1056.02	14.863
1057.66	14.7329
1059.31	15.8242
1060.95	17.387
1062.6	16.5586
1064.24	15.5223
1065.88	15.9397
1067.53	16.0615
1069.17	15.5002
1070.81	15.2438
1072.45	13.7542
1074.1	13.438
1075.74	13.3719
1077.38	12.8528
1079.02	12.1604
1080.66	12.3245
1082.3	12.0218
1083.94	12.0159
1085.58	11.9564
1087.22	12.2146
1088.86	11.6447
1090.5	11.5245
1092.14	11.5816
1093.78	12.364
1095.42	12.7788
1097.05	13.9694
1098.69	14.7667
1100.33	15.2094
1101.96	14.9809
1103.6	15.2887
1105.24	15.972
1106.87	14.446
1108.51	14.2491
1110.14	14.0962
1111.78	12.8041
1113.41	11.6457
1115.05	9.7985
1116.68	9.13371
1118.31	9.19002
1119.95	8.45718
1121.58	7.38618
1123.21	7.83149
1124.85	6.98907
1126.48	6.21608
1128.11	6.4694
1129.74	6.58669
1131.37	6.92692
1133	6.10755
1134.63	5.94343
1136.26	6.22589
1137.89	5.92653
1139.52	6.14141
1141.15	6.42353
1142.78	5.82663
1144.41	4.96004
1146.04	4.9678
1147.66	6.35124
1149.29	5.53408
1150.92	4.92774
1152.55	4.24376
1154.17	3.87387
1155.8	4.99316
1157.43	5.5743
1159.05	4.46922
1160.68	4.17294
1162.3	4.09444
1163.93	3.70459
1165.55	4.01187
1167.17	3.42654
1168.8	3.54076
1170.42	3.57572
1172.05	3.67999
1173.67	4.88429
1175.29	5.35436
1176.91	6.01422
1178.54	5.77639
1180.16	5.20117
1181.78	5.78787
1183.4	5.94044
1185.02	6.18538
1186.64	6.43399
1188.26	6.40703
1189.88	7.28602
1191.5	8.16473
1193.12	7.92831
1194.74	8.40016
1196.36	9.45093
1197.97	10.9349
1199.59	11.8682
1201.21	13.1215
1202.83	14.3867
1204.44	15.4537
1206.06	16.2684
1207.68	17.6862
1209.29	19.1073
1210.91	20.0803
1212.52	21.0035
1214.14	19.9503
1215.75	21.7419
1217.37	22.8903
1218.98	24.0558
1220.59	26.4856
1222.21	27.5529
1223.82	29.1162
1225.43	29.9343
1227.05	32.0796
1228.66	33.366
1230.27	34.061
1231.88	35.6147
1233.49	35.9486
1235.1	36.3547
1236.72	37.8556
1238.33	37.7829
1239.94	38.4188
1241.55	40.9753
1243.16	41.0645
1244.76	42.1364
1246.37	44.03
1247.98	44.1114
1249.59	45.309
1251.2	45.1058
1252.8	46.5968
1254.41	49.0704
1256.02	49.96
1257.62	49.9832
1259.23	50.7327
1260.84	52.8976
1262.44	53.3749
1264.05	53.2492
1265.66	53.4854
1267.26	54.641
1268.86	55.4986
1270.47	56.3382
1272.07	55.8451
1273.67	56.3853
1275.28	57.2056
1276.88	58.1117
1278.48	58.501
1280.09	58.1765
1281.69	59.0948
1283.29	59.4693
1284.89	59.5016
1286.49	59.2424
1288.09	59.2515
1289.69	58.974
1291.29	59.0239
1292.89	58.7889
1294.49	58.2793
1296.09	60.8841
1297.69	61.4753
1299.29	62.3634
1300.89	62.4659
1302.49	62.8045
1304.08	63.5939
1305.68	64.2245
1307.28	65.5368
1308.88	65.5572
1310.47	66.4913
1312.07	67.1163
1313.66	67.2214
1315.26	67.3626
1316.85	69.1035
1318.45	68.842
1320.04	69.4276
1321.64	69.7759
1323.23	68.6386
1324.83	69.5167
1326.42	69.7641
1328.01	68.0929
1329.61	68.2751
1331.2	67.1464
1332.79	68.1329
1334.38	68.832
1335.97	67.5307
1337.56	67.2138
1339.16	67.0601
1340.75	65.4235
1342.34	64.232
1343.93	63.1773
1345.52	62.8072
1347.11	61.345
1348.7	60.0007
1350.29	58.4052
1351.87	56.9133
1353.46	56.2891
1355.05	54.7591
1356.64	53.2224
1358.22	51.5453
1359.81	49.1413
1361.4	48.536
1362.98	46.7407
1364.57	44.5913
1366.16	43.1176
1367.74	42.2782
1369.33	41.5453
1370.91	41.4907
1372.5	40.3964
1374.08	40.5369
1375.67	40.064
1377.25	38.3511
1378.83	38.391
1380.41	38.5061
1382	38.9279
1383.58	37.8426
1385.16	37.3517
1386.74	37.3576
1388.33	37.6791
1389.91	38.3789
1391.49	38.2018
1393.07	37.6992
1394.65	36.5787
1396.23	35.8517
1397.81	35.7586
1399.39	35.3
1400.97	35.3118
1402.55	35.211
1404.13	35.3585
1405.7	34.757
1407.28	34.8499
1408.86	35.7078
1410.44	36.0912
1412.01	37.8201
1413.59	39.1213
1415.17	39.3233
1416.74	40.706
1418.32	40.5409
1419.89	42.0383
1421.47	43.8386
1423.04	44.9854
1424.62	47.0413
1426.19	48.6938
1427.77	51.0249
1429.34	53.376
1430.91	55.4704
1432.49	57.0806
1434.06	60.3122
1435.63	62.837
1437.2	65.1953
1438.78	66.9384
1440.35	68.4585
1441.92	69.4982
1443.49	70.3094
1445.06	71.5019
1446.63	71.925
1448.2	72.668
1449.77	72.7952
1451.34	71.9765
1452.91	71.5604
1454.48	70.6016
1456.05	71.0358
1457.62	70.609
1459.18	69.9319
1460.75	68.0395
1462.32	66.4006
1463.89	65.0101
1465.45	63.9773
1467.02	61.8386
1468.59	59.2364
1470.15	56.4818
1471.72	53.6635
1473.28	50.8541
1474.85	48.817
1476.41	47.1615
1477.98	44.3388
1479.54	42.2929
1481.1	40.6888
1482.67	38.6251
1484.23	37.8306
1485.79	36.3255
1487.36	34.3324
1488.92	32.2953
1490.48	30.8641
1492.04	29.064
1493.61	26.9382
1495.17	26.0933
1496.73	25.1709
1498.29	24.5056
1499.85	23.1388
1501.41	22.6691
1502.97	22.5714
1504.53	22.653
1506.09	21.8305
1507.65	21.6649
1509.2	22.0217
1510.76	22.6089
1512.32	22.9987
1513.88	22.5605
1515.43	22.3962
1516.99	21.4509
1518.55	21.4681
1520.1	21.6056
1521.66	22.1065
1523.22	22.7297
1524.77	22.5523
1526.33	22.7135
1527.88	22.9649
1529.44	23.1231
1530.99	23.8832
1532.54	24.9736
1534.1	25.272
1535.65	25.1761
1537.21	26.3668
1538.76	27.052
1540.31	28.8196
1541.86	30.4107
1543.42	32.3455
1544.97	33.2194
1546.52	35.5015
1548.07	37.8584
1549.62	39.5066
1551.17	41.5219
1552.72	44.1313
1554.27	46.5771
1555.82	49.0846
1557.37	50.7825
1558.92	52.4572
1560.47	53.9098
1562.02	55.0248
1563.56	55.7447
1565.11	56.8168
1566.66	58.3277
1568.21	60.1796
1569.75	60.4378
1571.3	61.9962
1572.85	63.9951
1574.39	65.2599
1575.94	65.6167
1577.49	66.3766
1579.03	67.8957
1580.57	68.8942
1582.12	69.9002
1583.66	70.2748
1585.21	71.5846
1586.75	72.7271
1588.3	72.7913
1589.84	73.2431
1591.38	73.0107
1592.92	72.6173
1594.47	72.2422
1596.01	72.4397
1597.55	71.5357
1599.09	70.8912
1600.63	70.1333
1602.17	68.1846
1603.71	67.6966
1605.25	67.6138
1606.79	66.4406
1608.33	65.881
1609.87	65.3632
1611.41	64.6035
1612.95	64.0147
1614.49	64.0027
1616.03	63.7416
1617.57	62.7714
1619.1	62.6657
1620.64	62.4003
1622.18	62.2655
1623.72	62.6361
1625.25	62.0509
1626.79	62.0517
1628.32	62.2886
1629.86	62.9637
1631.39	63.5393
1632.93	63.9408
1634.46	63.5488
1636	63.7884
1637.53	65.1147
1639.07	65.7066
1640.6	67.5191
1642.13	68.8669
1643.67	70.0969
1645.2	70.57
1646.73	71.7184
1648.26	73.8128
1649.8	74.4166
1651.33	74.3908
1652.86	73.2479
1654.39	72.1998
1655.92	72.4558
1657.45	72.8239
1658.98	74.1053
1660.51	74.5961
1662.04	74.6803
1663.57	74.2186
1665.1	73.8252
1666.63	72.7459
1668.16	71.4377
1669.68	69.9792
1671.21	69.1994
1672.74	67.5839
1674.27	65.6689
1675.79	63.9178
1677.32	62.2817
1678.85	60.1382
1680.37	58.8763
1681.9	56.1822
1683.42	53.4015
1684.95	51.2837
1686.47	48.1263
1688	45.6931
1689.52	43.1906
1691.05	40.7117
1692.57	38.0216
1694.09	35.0282
1695.62	33.4441
1697.14	31.4786
1698.66	29.2367
1700.18	27.2024
1701.71	25.234
1703.23	24.2655
1704.75	22.9249
1706.27	21.1849
1707.79	19.9725
1709.31	18.7787
1710.83	17.3024
1712.35	16.6334
1713.87	15.7113
1715.39	14.4191
1716.91	14.1289
1718.43	12.9473
1719.95	11.9503
1721.47	11.5815
1722.99	11.5202
1724.5	10.9633
1726.02	8.88666
1727.54	7.64961
1729.06	6.8258
1730.57	7.02557
1732.09	9.1549
1733.61	9.95405
1735.12	10.0949
1736.64	9.48539
1738.15	8.52886
1739.67	8.11558
1741.18	7.96359
1742.7	7.31058
1744.21	7.20414
1745.72	6.96762
1747.24	7.21789
1748.75	6.83496
1750.26	7.01467
1751.77	6.80916
1753.29	6.54263
1754.8	5.97344
1756.31	5.86756
1757.82	4.92734
1759.33	4.79992
1760.84	4.58842
1762.36	4.00454
1763.87	4.42389
1765.38	3.75697
1766.89	3.39617
1768.4	3.64114
1769.91	3.22208
1771.41	3.43394
1772.92	3.23964
1774.43	2.3966
1775.94	1.98545
1777.45	1.68295
1778.95	1.52888
1780.46	1.45164
1781.97	0.947451
1783.48	2.0339
1784.98	2.12756
1786.49	1.89899
1787.99	1.53423
1789.5	1.39687
1791.01	1.47871
1792.51	1.78987
1794.01	1.49786
1795.52	2.11622
1797.02	1.94931
1798.53	1.78861
1800.03	1.4688
1801.53	1.05616
1803.04	1.41986
1804.54	1.45268
1806.04	1.78432
1807.54	2.17762
1809.05	1.92288
1810.55	1.76423
1812.05	1.98543
1813.55	2.34378
1815.05	2.89213
1816.55	3.23472
1818.05	3.30577
1819.55	3.74209
1821.05	3.91067
1822.55	3.89315
1824.05	4.24531
1825.55	3.84543
1827.05	3.67517
1828.55	4.28536
1830.04	4.78779
1831.54	5.20968
1833.04	5.12144
1834.54	4.77089
1836.03	4.50277
1837.53	4.26208
1839.03	4.26782
1840.52	4.06461
1842.02	4.58276
1843.51	4.40598
1845.01	3.917
1846.5	3.87403
1848	3.2182
1849.49	2.64919
1850.99	2.74028
1852.48	2.87472
1853.97	3.30911
1855.47	3.948
1856.96	4.45098
1858.45	4.78816
1859.94	4.8872
1861.44	5.04554
1862.93	4.89101
1864.42	4.91081
1865.91	5.2937
1867.4	5.74337
1868.89	5.16159
1870.38	5.27797
1871.87	5.23172
1873.36	5.63315
1874.85	5.46584
1876.34	6.1069
1877.83	5.61688
1879.32	5.78069
1880.81	6.02385
1882.3	5.80424
1882.57	6.02319
1884.07	6.38022
1885.56	6.22423
1887.06	6.67149
1888.55	6.09825
1890.04	5.66211
1891.54	5.65724
1893.03	5.88564
1894.52	6.22878
1896.02	6.95154
1897.51	6.57334
1899	7.25057
1900.49	7.87669
1901.98	7.673
1903.47	7.43101
1904.96	7.20892
1906.45	7.14769
1907.94	7.13492
1909.43	7.07824
1910.92	7.08574
1912.41	6.89525
1913.9	6.72915
1915.39	6.60239
1916.88	5.65832
1918.37	4.80708
1919.85	4.94199
1921.34	4.25525
1922.83	4.27973
1924.32	4.07461
1925.8	4.2867
1927.29	4.99376
1928.78	5.14261
1930.26	4.8827
1931.75	4.51733
1933.23	4.32193
1934.72	4.06136
1936.2	3.24055
1937.69	3.55282
1939.17	3.72506
1940.66	3.70342
1942.14	3.20544
1943.63	4.50825
1945.11	5.62598
1946.59	5.62657
1948.07	5.33385
1949.56	5.34604
1951.04	4.21835
1952.52	4.80318
1954	4.42935
1955.48	3.85237
1956.96	3.8982
1958.45	3.5755
1959.93	3.65882
1961.41	3.74506
1962.89	3.52175
1964.37	4.39202
1965.85	4.72565
1967.32	5.16512
1968.8	5.19476
1970.28	5.0532
1971.76	4.15978
1973.24	4.91883
1974.72	4.78938
1976.19	4.71316
1977.67	5.06253
1979.15	5.15463
1980.63	5.17451
1982.1	5.02533
1983.58	4.77627
1985.05	5.04089
1986.53	4.75091
1988	5.11425
1989.48	5.56474
1990.95	5.53919
1992.43	5.89026
1993.9	7.14933
1995.38	6.9592
1996.85	7.12901
1998.32	6.89409
1999.8	7.42421
2001.27	7.9258
2002.74	7.65834
2004.22	7.36877
2005.69	7.84368
2007.16	7.98872
2008.63	8.3266
2010.1	7.94677
2011.57	8.79531
2013.04	8.58284
2014.51	8.38914
2015.98	8.57612
2017.45	8.85873
2018.92	8.71409
2020.39	8.06712
2021.86	8.15303
2023.33	8.29337
2024.8	8.31678
2026.27	8.93555
2027.74	8.21448
2029.2	7.36717
2030.67	8.01771
2032.14	7.8888
2033.61	8.94222
2035.07	9.04702
2036.54	9.36744
2038.01	9.96352
2039.47	9.61419
2040.94	9.70055
2042.4	9.92988
2043.87	10.4857
2045.33	10.3949
2046.8	10.4648
2048.26	10.3405
2049.72	10.1677
2051.19	10.102
2052.65	10.6087
2054.12	10.9656
2055.58	11.5174
2057.04	12.036
2058.5	12.3231
2059.97	12.2269
2061.43	13.4159
2062.89	14.3471
2064.35	14.2
2065.81	14.1891
2067.27	14.9481
2068.73	14.4722
2070.19	13.92
2071.65	14.1661
2073.11	14.5111
2074.57	14.9426
2076.03	14.7289
2077.49	14.4407
2078.95	14.6883
2080.41	14.6414
2081.87	15.2105
2083.32	15.0422
2084.78	15.4109
2086.24	15.735
2087.7	16.4905
2089.15	17.3273
2090.61	18.0825
2092.07	18.9908
2093.52	19.3248
2094.98	19.6829
2096.43	20.1191
2097.89	20.9121
2099.34	21.5876
2100.8	21.2624
2102.25	22.0477
2103.71	23.6368
2105.16	24.5698
2106.61	25.9779
2108.07	26.2485
2109.52	26.2487
2110.97	27.1184
2112.43	27.2913
2113.88	27.8583
2115.33	28.8385
2116.78	29.3345
2118.23	29.7075
2119.68	31.0421
2121.13	33.3699
2122.59	35.0855
2124.04	36.408
2125.49	38.322
2126.94	39.837
2128.39	41.2692
2129.83	42.8337
2131.28	44.0868
2132.73	46.0286
2134.18	47.9794
2135.63	48.6283
2137.08	49.7821
