#Acq. time (s)=	45
#Accumulations=	2
#Range (cm-¹)=	200...3150
#Windows=	2
#Auto scanning=	Off
#Autofocus=	Off
#Macrospot=	Off
#AutoExposure=	Off
#Spike filter=	Multiple accum.
#Delay time (s)=	0
#Binning=	1
#Readout mode=	Signal
#DeNoise=	Off
#ICS correction=	On
#Dark correction=	Off
#Inst. Process=	Off
#Detector Gain=	Best Dynamic Range
#Detector ADC=	20 kHz       
#Detector temperature (°C)=	-69.85
#Instrument=	LabRAM HR Evol
#Detector=	Synapse
#Objective=	x100
#Grating=	600 gr/mm
#ND Filter=	100%
#Laser (nm)=	532 
#Hole=	100.021
#Range=	Auto
#Laser Pol.=	No
#Raman. Pol.=	No
#Laser Pol. (°)=	-0.0007625
#Raman Pol. (°)=	89.9995
#Collection=	Microscope
#StageXY=	Marzhauser
#StageZ=	Marzhauser
#X (µm)=	237.3
#Y (µm)=	1689
#Z (µm)=	427.75
#Full time(mm:ss)=	3:18
#Project=	
#Sample=	
#Site=	
#Title=	Thy_40_11_39_2x_45s_532 nm_x100_100%_600 gr_mm
#Remark=	
#Date=	05.07.2022 12:46
#Acquired=	05.07.2022 12:46:25
#Base:Fit=	10.08.2022 10:01:35
#Base:Sub=	10.08.2022 10:01:52
#Filter:Polynom=	16.08.2022 10:21:53
#AxisType[0]=Intens
#AxisUnit[0]=Cnt
#AxisType[1]=Spectr
#AxisUnit[1]=1/cm
200.43	4.32529
202.244	3.39203
204.059	4.32327
205.873	3.87469
207.688	3.38544
209.501	3.49676
211.314	3.21547
213.127	2.73503
214.941	3.21523
216.753	3.01958
218.564	2.98074
220.375	3.73459
222.186	4.07671
223.999	4.28969
225.809	4.47206
227.618	4.71143
229.428	4.01851
231.236	3.66315
233.045	4.79598
234.855	5.6565
236.663	5.23356
238.471	5.5945
240.278	5.99738
242.085	5.8576
243.891	5.42597
245.698	5.46786
247.503	4.28677
249.309	3.4562
251.116	3.615
252.921	4.67761
254.725	4.90516
256.529	5.15991
258.333	4.73824
260.136	4.1732
261.939	5.15741
263.742	5.07185
265.544	5.2525
267.346	5.45593
269.148	4.80674
270.949	4.59397
272.75	5.13206
274.55	4.96218
276.351	5.09024
278.15	4.77734
279.95	4.62407
281.749	4.17627
283.548	4.08287
285.346	4.41879
287.144	3.36627
288.942	3.22878
290.739	3.0577
292.536	2.85927
294.333	2.51521
296.129	3.5313
297.925	4.91903
299.721	4.35002
301.514	4.9653
303.309	6.60985
305.104	7.97725
306.898	8.15961
308.692	9.60626
310.486	10.0571
312.279	10.0523
314.072	10.0608
315.862	10.9015
317.654	11.737
319.446	12.1366
321.238	12.7258
323.029	14.27
324.819	13.6728
326.608	13.7732
328.398	14.6856
330.188	13.5324
331.977	12.9331
333.766	12.4636
335.553	12.3569
337.341	12.1351
339.129	12.838
340.917	12.3974
342.704	11.6542
344.489	10.3305
346.275	9.48791
348.062	9.19832
349.845	8.79408
351.631	9.45912
353.416	8.41301
355.201	8.76319
356.984	8.01881
358.768	8.3838
360.552	8.68458
362.333	9.09415
364.116	8.87635
365.899	7.98386
367.68	7.71781
369.462	8.0446
371.243	7.92709
373.023	8.0793
374.804	7.2512
376.585	5.61199
378.363	5.87795
380.143	6.11658
381.923	6.95776
383.7	7.98595
385.479	8.36936
387.256	8.61493
389.034	8.26333
390.812	9.45716
392.588	9.06299
394.365	8.46906
396.14	8.58366
397.916	8.29679
399.691	7.35242
401.467	7.10918
403.24	7.62762
405.015	8.36692
406.788	8.15225
408.563	7.56324
410.335	7.3098
412.109	7.86703
413.88	7.2375
415.654	7.86118
417.424	7.69523
419.197	6.63776
420.967	5.50019
422.739	5.16795
424.508	4.85261
426.279	5.05011
428.048	4.21938
429.819	3.98529
431.587	4.65141
433.356	5.05503
435.124	5.11907
436.891	5.96683
438.66	7.50437
440.426	8.8487
442.194	8.86477
443.96	10.086
445.725	10.2526
447.492	11.025
449.257	11.0562
451.021	10.7366
452.787	10.3211
454.551	10.0625
456.314	10.687
458.079	11.204
459.842	10.9108
461.604	11.8172
463.368	11.9256
465.13	12.9905
466.891	13.6151
468.654	13.4529
470.415	12.9905
472.175	13.0972
473.935	12.1747
475.696	12.4009
477.456	12.4057
479.215	13.1568
480.973	13.1406
482.733	13.7348
484.491	14.5995
486.249	14.8567
488.006	15.2079
489.765	15.16
491.522	16.8809
493.278	16.8719
495.034	17.7039
496.789	18.4368
498.544	18.7824
500.301	19.1143
502.056	18.9258
503.81	19.0592
505.564	18.9092
507.317	19.3293
509.071	19.66
510.825	21.7841
512.578	21.9072
514.33	22.1672
516.082	22.3904
517.833	22.9261
519.585	22.6452
521.335	23.2459
523.086	24.3482
524.836	24.8454
526.586	24.7855
528.335	23.7986
530.085	23.9179
531.835	23.8484
533.584	23.7495
535.332	23.4045
537.08	22.4117
538.827	22.1531
540.574	22.0696
542.321	21.6774
544.068	21.5306
545.814	21.0642
547.56	20.7694
549.305	19.8139
551.05	19.0249
552.795	17.7717
554.54	16.1815
556.282	14.7309
558.025	13.7348
559.769	12.8041
561.512	11.1915
563.255	10.8918
564.997	10.0277
566.739	10.2716
568.481	9.78159
570.223	9.26352
571.964	7.88024
573.705	7.22089
575.443	6.22664
577.183	5.54881
578.923	6.25835
580.663	5.06347
582.402	4.48158
584.141	4.19257
585.879	3.79877
587.615	3.7645
589.353	3.09472
591.09	3.75869
592.828	4.05407
594.564	4.48668
596.299	4.4606
598.035	4.16931
599.771	4.5907
601.506	5.65437
603.242	7.03197
604.974	6.87217
606.709	7.6305
608.443	9.09157
610.177	10.4002
611.908	9.68948
613.642	9.7642
615.374	10.7505
617.105	11.5651
618.837	11.02
620.569	10.9184
622.3	10.165
624.03	10.6405
625.761	11.9902
627.491	11.9058
629.219	12.1081
630.949	13.1508
632.677	13.9248
634.406	13.721
636.135	13.9044
637.861	13.971
639.59	13.8526
641.318	14.0262
643.043	13.9515
644.77	14.8567
646.495	15.2886
648.222	16.1488
649.948	17.0829
651.672	17.4526
653.398	18.0714
655.121	17.9083
656.846	17.7333
658.569	17.6078
660.293	18.6512
662.015	18.8877
663.738	19.4976
665.46	20.1678
667.183	20.6735
668.903	21.4891
670.626	22.7986
672.346	22.5073
674.067	22.2111
675.787	22.1662
677.508	23.2483
679.226	23.9393
680.947	25.7156
682.665	26.9837
684.385	28.2822
686.102	29.4909
687.821	30.3877
689.538	30.1277
691.254	30.6349
692.972	32.1749
694.688	32.7043
696.406	32.5721
698.121	32.6231
699.835	33.1038
701.552	33.7223
703.266	34.1239
704.98	34.874
706.695	36.3424
708.409	37.2915
710.121	39.6626
711.836	40.5951
713.548	41.472
715.26	43.0863
716.973	44.2023
718.685	45.4545
720.396	46.1619
722.108	47.6511
723.818	48.1994
725.528	49.8306
727.238	50.0193
728.949	50.6365
730.658	50.9079
732.367	51.1952
734.075	52.1974
735.785	52.8512
737.493	52.7877
739.2	53.1391
740.907	54.0681
742.614	54.5207
744.322	55.842
746.028	56.9754
747.734	57.6014
749.439	58.4464
751.144	59.8205
752.849	60.8959
754.555	61.394
756.26	61.75
757.963	62.3214
759.667	63.1978
761.37	64.5052
763.073	66.2345
764.775	67.5466
766.477	68.3159
768.179	68.9113
769.883	69.5658
771.584	69.453
773.285	70.5285
774.986	71.1829
776.686	72.8317
778.386	72.6551
780.085	72.0088
781.785	72.8289
783.484	73.3286
785.182	73.1505
786.881	74.4054
788.579	76.3525
790.276	77.489
791.974	78.5058
793.671	78.5277
795.367	79.436
797.064	79.3755
798.76	80.9492
800.456	82.3777
802.151	83.4188
803.846	84.1954
805.541	83.6129
807.234	84.223
808.928	83.8239
810.622	84.5529
812.315	84.5551
814.008	85.2541
815.701	85.1032
817.394	85.6607
819.086	86.0106
820.778	86.3029
822.468	86.245
824.159	86.6665
825.85	87.2172
827.541	87.2948
829.231	87.5286
830.921	87.2392
832.609	86.9175
834.298	87.0801
835.987	86.6732
837.676	85.7759
839.364	85.0468
841.051	84.0714
842.738	83.3433
844.426	82.596
846.113	81.5316
847.798	79.8937
849.484	78.0368
851.171	76.3354
852.857	75.2777
854.54	73.081
856.226	71.5328
857.911	70.1613
859.593	67.8622
861.278	65.8254
862.961	63.0144
864.645	61.453
866.327	60.5224
868.01	58.8812
869.692	58.5201
871.373	58.5086
873.055	56.8656
874.735	55.3036
876.416	54.686
878.097	53.5303
879.776	53.9199
881.457	53.8421
883.135	53.852
884.815	53.74
886.495	53.3075
888.172	52.402
889.851	51.9666
891.528	52.1982
893.206	51.7522
894.882	51.9868
896.56	51.8275
898.237	52.3673
899.912	53.2262
901.589	54.3996
903.263	54.6922
904.94	55.4689
906.614	56.2141
908.289	56.7202
909.962	56.7442
911.635	56.8799
913.31	57.4626
914.982	57.6175
916.656	57.8028
918.328	56.8792
920.001	57.0286
921.672	56.6973
923.345	55.5979
925.015	54.8819
926.685	55.2013
928.357	54.5544
930.026	53.4307
931.698	52.637
933.366	52.4362
935.035	51.1609
936.705	50.0722
938.373	48.5823
940.041	47.6345
941.71	45.959
943.377	44.2207
945.044	43.5925
946.712	42.2121
948.378	42.1822
950.044	41.6446
951.709	41.6402
953.376	41.7149
955.041	41.835
956.706	41.7687
958.372	41.7037
960.036	40.6154
961.699	40.1717
963.362	40.5811
965.027	40.944
966.69	41.0461
968.352	40.5023
970.014	40.6934
971.676	40.1021
973.339	40.6436
975	40.8013
976.661	40.2407
978.322	40.3086
979.982	41.1083
981.642	42.4652
983.303	43.4327
984.962	42.8551
986.621	42.7507
988.28	43.3305
989.938	43.3694
991.596	43.0347
993.254	42.5522
994.911	42.7134
996.57	42.194
998.227	40.5241
999.884	40.084
1001.54	39.5708
1003.2	39.9468
1004.85	39.0925
1006.51	38.7843
1008.16	38.6947
1009.82	39.0377
1011.47	38.5492
1013.12	38.3863
1014.78	38.2814
1016.43	38.7481
1018.08	38.0265
1019.74	38.3963
1021.39	37.7569
1023.04	37.1146
1024.69	36.5463
1026.34	36.9792
1028	37.6408
1029.65	38.1819
1031.3	38.2332
1032.95	38.3448
1034.6	38.3662
1036.25	38.7307
1037.9	38.1855
1039.54	37.4838
1041.19	36.8267
1042.84	36.8023
1044.49	36.8883
1046.14	37.4733
1047.78	37.171
1049.43	36.7235
1051.08	36.6203
1052.72	36.7564
1054.37	35.4306
1056.02	35.5765
1057.66	35.1811
1059.31	33.6154
1060.95	34.0782
1062.6	33.0143
1064.24	31.9409
1065.88	31.6756
1067.53	30.6363
1069.17	30.3305
1070.81	30.067
1072.45	28.6805
1074.1	27.7497
1075.74	26.8
1077.38	26.3765
1079.02	25.3706
1080.66	25.4871
1082.3	25.767
1083.94	25.7014
1085.58	25.5077
1087.22	25.0027
1088.86	24.9474
1090.5	24.8877
1092.14	25.5936
1093.78	24.958
1095.42	24.3943
1097.05	24.7214
1098.69	24.5227
1100.33	23.7029
1101.96	23.9232
1103.6	23.1266
1105.24	22.4921
1106.87	22.0799
1108.51	22.5886
1110.14	22.3353
1111.78	22.4605
1113.41	21.6442
1115.05	22.0836
1116.68	21.4472
1118.31	21.4622
1119.95	20.5266
1121.58	20.9356
1123.21	20.7567
1124.85	19.9846
1126.48	20.2633
1128.11	19.7258
1129.74	18.7926
1131.37	18.5538
1133	17.2125
1134.63	15.5765
1136.26	15.0015
1137.89	15.387
1139.52	14.2108
1141.15	13.5268
1142.78	13.3498
1144.41	12.1245
1146.04	13.334
1147.66	14.2442
1149.29	13.8862
1150.92	13.0534
1152.55	12.1721
1154.17	11.0884
1155.8	11.2741
1157.43	10.777
1159.05	10.8102
1160.68	9.55844
1162.3	9.1893
1163.93	7.59765
1165.55	7.01853
1167.17	6.63874
1168.8	5.8836
1170.42	6.06442
1172.05	5.51322
1173.67	5.75416
1175.29	5.55296
1176.91	5.89121
1178.54	6.65344
1180.16	7.04987
1181.78	8.05154
1183.4	8.61179
1185.02	8.10537
1186.64	8.78087
1188.26	10.2533
1189.88	11.8338
1191.5	11.9075
1193.12	12.5771
1194.74	13.6001
1196.36	14.3445
1197.97	15.1857
1199.59	16.1362
1201.21	16.2136
1202.83	17.7579
1204.44	18.0122
1206.06	19.175
1207.68	20.2532
1209.29	20.962
1210.91	22.4066
1212.52	24.545
1214.14	26.037
1215.75	28.5433
1217.37	30.9133
1218.98	33.3284
1220.59	34.3479
1222.21	35.9243
1223.82	37.1662
1225.43	39.1438
1227.05	40.9502
1228.66	42.4372
1230.27	43.0902
1231.88	43.5625
1233.49	44.7893
1235.1	45.9463
1236.72	47.2967
1238.33	47.4206
1239.94	48.729
1241.55	49.0938
1243.16	50.5678
1244.76	51.4766
1246.37	52.6503
1247.98	53.6766
1249.59	54.0704
1251.2	54.8386
1252.8	54.8696
1254.41	56.4856
1256.02	56.9669
1257.62	57.2186
1259.23	58.2542
1260.84	58.5363
1262.44	58.8677
1264.05	59.4812
1265.66	60.593
1267.26	62.4389
1268.86	63.2478
1270.47	63.6017
1272.07	64.6522
1273.67	65.8739
1275.28	66.8608
1276.88	67.8464
1278.48	68.3377
1280.09	67.4554
1281.69	67.7568
1283.29	68.6347
1284.89	69.1219
1286.49	69.1578
1288.09	69.719
1289.69	70.1988
1291.29	70.7305
1292.89	72.4486
1294.49	71.9808
1296.09	73.0179
1297.69	72.9516
1299.29	73.4625
1300.89	73.4381
1302.49	74.0375
1304.08	74.9523
1305.68	75.274
1307.28	75.192
1308.88	76.0152
1310.47	74.7544
1312.07	75.7116
1313.66	76.261
1315.26	76.1792
1316.85	76.1427
1318.45	75.1461
1320.04	75.0037
1321.64	73.4489
1323.23	72.7299
1324.83	71.1159
1326.42	69.7245
1328.01	68.9503
1329.61	67.7943
1331.2	66.4609
1332.79	65.9269
1334.38	65.2079
1335.97	62.971
1337.56	61.5176
1339.16	60.6309
1340.75	60.2275
1342.34	60.1459
1343.93	59.4529
1345.52	58.4002
1347.11	57.3549
1348.7	55.7912
1350.29	55.1161
1351.87	54.6139
1353.46	53.0923
1355.05	51.9964
1356.64	51.2498
1358.22	48.8601
1359.81	47.3845
1361.4	46.9567
1362.98	46.5016
1364.57	45.641
1366.16	42.9737
1367.74	42.7473
1369.33	42.3259
1370.91	41.888
1372.5	41.4463
1374.08	40.0223
1375.67	40.5591
1377.25	39.6688
1378.83	39.2296
1380.41	38.9581
1382	38.0777
1383.58	37.2969
1385.16	36.7839
1386.74	35.3383
1388.33	35.6791
1389.91	35.3569
1391.49	36.2659
1393.07	36.1242
1394.65	34.4427
1396.23	34.1316
1397.81	34.0952
1399.39	33.4266
1400.97	32.4898
1402.55	32.6844
1404.13	32.2258
1405.7	32.7917
1407.28	32.9699
1408.86	33.7658
1410.44	34.7476
1412.01	36.1729
1413.59	36.4532
1415.17	37.5265
1416.74	39.4347
1418.32	40.7271
1419.89	42.3581
1421.47	43.9057
1423.04	45.6967
1424.62	47.5364
1426.19	49.9946
1427.77	52.1996
1429.34	55.0901
1430.91	57.3795
1432.49	59.0669
1434.06	61.5255
1435.63	63.0487
1437.2	64.9878
1438.78	66.6363
1440.35	67.6112
1441.92	68.8176
1443.49	68.1726
1445.06	68.9584
1446.63	70.7214
1448.2	71.9449
1449.77	71.1662
1451.34	70.6532
1452.91	70.012
1454.48	69.4696
1456.05	68.384
1457.62	67.8248
1459.18	66.7125
1460.75	65.0499
1462.32	64.2252
1463.89	61.9628
1465.45	59.4855
1467.02	59.0467
1468.59	56.285
1470.15	53.8325
1471.72	51.109
1473.28	48.5251
1474.85	46.7347
1476.41	43.7198
1477.98	41.0614
1479.54	38.8509
1481.1	36.8961
1482.67	34.5509
1484.23	33.3793
1485.79	31.734
1487.36	30.7929
1488.92	28.5609
1490.48	25.8375
1492.04	24.0316
1493.61	22.2075
1495.17	20.8874
1496.73	20.2843
1498.29	20.1461
1499.85	19.8636
1501.41	19.3373
1502.97	18.3573
1504.53	17.7034
1506.09	17.3555
1507.65	17.1441
1509.2	16.8616
1510.76	16.8748
1512.32	17.2832
1513.88	16.677
1515.43	17.7432
1516.99	16.9502
1518.55	16.9611
1520.1	17.7415
1521.66	18.066
1523.22	19.4217
1524.77	20.3337
1526.33	20.769
1527.88	20.6779
1529.44	22.4747
1530.99	23.3095
1532.54	24.8214
1534.1	25.9302
1535.65	26.8535
1537.21	27.6319
1538.76	29.0564
1540.31	30.2975
1541.86	30.7201
1543.42	32.372
1544.97	34.0396
1546.52	34.9947
1548.07	36.4724
1549.62	38.2473
1551.17	39.376
1552.72	40.1133
1554.27	41.1688
1555.82	42.517
1557.37	43.7343
1558.92	44.3694
1560.47	45.489
1562.02	47.1488
1563.56	47.2599
1565.11	48.0389
1566.66	47.6137
1568.21	48.1289
1569.75	48.426
1571.3	49.5024
1572.85	51.1214
1574.39	52.2805
1575.94	52.7481
1577.49	53.8019
1579.03	55.2397
1580.57	55.5669
1582.12	55.7766
1583.66	57.5693
1585.21	58.5044
1586.75	59.3391
1588.3	59.6254
1589.84	59.1216
1591.38	59.5395
1592.92	60.8841
1594.47	60.0756
1596.01	60.1405
1597.55	60.2022
1599.09	60.4667
1600.63	60.163
1602.17	60.7969
1603.71	60.477
1605.25	60.2711
1606.79	61.0035
1608.33	60.2368
1609.87	60.9753
1611.41	61.1278
1612.95	61.7276
1614.49	62.2339
1616.03	62.4522
1617.57	62.152
1619.1	62.3621
1620.64	62.5372
1622.18	63.2206
1623.72	62.9207
1625.25	63.6772
1626.79	64.1559
1628.32	64.8023
1629.86	65.4499
1631.39	65.9096
1632.93	67.0463
1634.46	68.3716
1636	68.948
1637.53	69.9798
1639.07	70.6846
1640.6	71.0905
1642.13	72.7757
1643.67	73.6786
1645.2	75.3406
1646.73	76.72
1648.26	78.7069
1649.8	79.4707
1651.33	80.5362
1652.86	81.3564
1654.39	82.2111
1655.92	82.4405
1657.45	82.2885
1658.98	82.0956
1660.51	82.8348
1662.04	82.185
1663.57	81.1534
1665.1	80.3059
1666.63	79.1097
1668.16	78.1577
1669.68	76.2778
1671.21	73.3848
1672.74	71.8
1674.27	70.1721
1675.79	67.909
1677.32	65.5223
1678.85	63.239
1680.37	60.5054
1681.9	57.6573
1683.42	55.1392
1684.95	52.6398
1686.47	50.2153
1688	47.4416
1689.52	44.3462
1691.05	41.3685
1692.57	38.7975
1694.09	36.0923
1695.62	33.6459
1697.14	30.994
1698.66	28.998
1700.18	26.5863
1701.71	25.0184
1703.23	23.0017
1704.75	21.2044
1706.27	19.0381
1707.79	17.7606
1709.31	16.5089
1710.83	14.6181
1712.35	12.8111
1713.87	10.6571
1715.39	9.80023
1716.91	8.9375
1718.43	8.67414
1719.95	7.5659
1721.47	6.60526
1722.99	6.05413
1724.5	5.61033
1726.02	5.38247
1727.54	5.19392
1729.06	4.72772
1730.57	4.44402
1732.09	4.50347
1733.61	4.33592
1735.12	3.43161
1736.64	3.63141
1738.15	3.05351
1739.67	2.54316
1741.18	2.23506
1742.7	1.59354
1744.21	1.32717
1745.72	1.4672
1747.24	1.37328
1748.75	1.68722
1750.26	1.61318
1751.77	1.26977
1753.29	0.994965
1754.8	0.969285
1756.31	1.47258
1757.82	0.93531
1759.33	0.848043
1760.84	1.3544
1762.36	1.05144
1763.87	1.11539
1765.38	0.96849
1766.89	1.17271
1768.4	1.11205
1769.91	0.773664
1771.41	0.859618
1772.92	0.767946
1774.43	1.18097
1775.94	1.1136
1777.45	0.905559
1778.95	1.24171
1780.46	1.2217
1781.97	1.19441
1783.48	0.916845
1784.98	0.134293
1786.49	-0.462671
1787.99	-0.5552
1789.5	-0.151375
1791.01	0.151336
1792.51	-0.217704
1794.01	0.214722
1795.52	0.272053
1797.02	0.0636694
1798.53	0.0981263
1800.03	-0.164941
1801.53	-0.177123
1803.04	-0.247363
1804.54	-0.115065
1806.04	0.251406
1807.54	0.423712
1809.05	0.17274
1810.55	0.0464256
1812.05	0.518205
1813.55	0.870288
1815.05	0.587111
1816.55	0.610162
1818.05	0.420644
1819.55	0.657815
1821.05	1.09843
1822.55	1.01196
1824.05	1.31654
1825.55	0.998019
1827.05	0.636121
1828.55	0.214541
1830.04	0.128316
1831.54	-0.115487
1833.04	-0.490032
1834.54	-0.246401
1836.03	0.175115
1837.53	0.425393
1839.03	0.201671
1840.52	0.0850123
1842.02	0.319293
1843.51	0.380882
1845.01	1.05209
1846.5	1.69798
1848	1.80315
1849.49	2.54444
1850.99	3.13904
1852.48	3.7504
1853.97	4.02615
1855.47	4.06193
1856.96	3.64055
1858.45	3.96969
1859.94	4.41861
1861.44	4.54387
1862.93	5.05336
1864.42	4.80073
1865.91	4.84914
1867.4	5.09212
1868.89	5.55156
1870.38	5.86572
1871.87	5.90645
1873.36	6.18304
1874.85	6.06419
1876.34	6.05996
1877.83	6.68741
1879.32	6.90709
1880.81	7.47201
1882.3	7.71985
1882.57	7.76179
1884.07	8.21701
1885.56	8.52086
1887.06	8.33157
1888.55	7.68459
1890.04	7.92706
1891.54	7.40686
1893.03	6.91502
1894.52	6.66635
1896.02	6.19733
1897.51	5.71573
1899	5.38989
1900.49	4.93625
1901.98	5.08462
1903.47	5.57761
1904.96	5.77503
1906.45	6.08639
1907.94	6.30892
1909.43	7.02808
1910.92	6.55726
1912.41	6.47484
1913.9	6.69494
1915.39	7.57601
1916.88	7.75147
1918.37	8.08733
1919.85	8.66282
1921.34	8.46911
1922.83	9.01545
1924.32	8.96337
1925.8	8.50045
1927.29	8.07556
1928.78	7.50981
1930.26	7.37544
1931.75	7.80343
1933.23	7.26642
1934.72	7.0763
1936.2	7.73455
1937.69	7.57708
1939.17	7.79962
1940.66	8.12815
1942.14	8.24307
1943.63	8.40275
1945.11	8.09227
1946.59	8.1977
1948.07	8.02696
1949.56	8.0594
1951.04	8.7267
1952.52	8.9551
1954	9.64667
1955.48	9.37843
1956.96	9.46101
1958.45	9.3135
1959.93	9.04413
1961.41	8.91583
1962.89	8.95468
1964.37	9.02295
1965.85	8.48321
1967.32	8.37205
1968.8	9.06835
1970.28	8.74235
1971.76	9.04675
1973.24	9.14258
1974.72	9.2346
1976.19	9.64986
1977.67	9.27433
1979.15	8.64562
1980.63	8.433
1982.1	8.04412
1983.58	7.50841
1985.05	6.21297
1986.53	6.01272
1988	5.61229
1989.48	5.72537
1990.95	5.57179
1992.43	5.5414
1993.9	5.37971
1995.38	4.90987
1996.85	4.84058
1998.32	4.95289
1999.8	4.94171
2001.27	4.86736
2002.74	4.9326
2004.22	5.38599
2005.69	5.43395
2007.16	5.51864
2008.63	5.59909
2010.1	5.45898
2011.57	5.59468
2013.04	5.87931
2014.51	6.40178
2015.98	6.5917
2017.45	6.73602
2018.92	6.95104
2020.39	7.21029
2021.86	7.18375
2023.33	7.81439
2024.8	8.49285
2026.27	9.55461
2027.74	10.0569
2029.2	10.2747
2030.67	10.9391
2032.14	11.4092
2033.61	12.543
2035.07	12.7667
2036.54	13.0472
2038.01	12.929
2039.47	12.7567
2040.94	12.607
2042.4	13.3768
2043.87	12.2931
2045.33	12.8762
2046.8	12.5716
2048.26	12.5544
2049.72	11.5458
2051.19	11.8267
2052.65	11.104
2054.12	11.3695
2055.58	10.7224
2057.04	10.3049
2058.5	10.7
2059.97	11.2431
2061.43	11.5819
2062.89	12.1505
2064.35	12.4807
2065.81	12.7887
2067.27	13.2704
2068.73	13.8926
2070.19	14.0534
2071.65	14.4452
2073.11	14.5843
2074.57	14.6733
2076.03	14.5098
2077.49	14.7316
2078.95	14.7739
2080.41	15.6335
2081.87	16.0303
2083.32	17.0046
2084.78	18.4263
2086.24	18.755
2087.7	19.0365
2089.15	19.5946
2090.61	19.9559
2092.07	20.9342
2093.52	21.933
2094.98	23.2243
2096.43	25.1847
2097.89	26.4766
2099.34	27.8157
2100.8	29.1438
2102.25	29.8576
2103.71	30.7611
2105.16	31.7826
2106.61	33.1227
2108.07	33.4836
2109.52	34.0446
2110.97	34.473
2112.43	35.4591
2113.88	36.4862
2115.33	38.5011
2116.78	39.0413
2118.23	40.3789
2119.68	41.3252
2121.13	42.3162
2122.59	43.3034
2124.04	45.0839
2125.49	45.4117
2126.94	47.5889
2128.39	48.0549
2129.83	50.2757
2131.28	52.738
2132.73	54.3997
