#Acq. time (s)=	45
#Accumulations=	2
#Range (cm-¹)=	200...3150
#Windows=	2
#Auto scanning=	Off
#Autofocus=	Off
#Macrospot=	Off
#AutoExposure=	Off
#Spike filter=	Multiple accum.
#Delay time (s)=	0
#Binning=	1
#Readout mode=	Signal
#DeNoise=	Off
#ICS correction=	On
#Dark correction=	Off
#Inst. Process=	Off
#Detector Gain=	Best Dynamic Range
#Detector ADC=	20 kHz       
#Detector temperature (°C)=	-69.85
#Instrument=	LabRAM HR Evol
#Detector=	Synapse
#Objective=	x100
#Grating=	600 gr/mm
#ND Filter=	100%
#Laser (nm)=	532 
#Hole=	100.021
#Range=	Auto
#Laser Pol.=	No
#Raman. Pol.=	No
#Laser Pol. (°)=	-0.0007625
#Raman Pol. (°)=	89.9995
#Collection=	Microscope
#StageXY=	Marzhauser
#StageZ=	Marzhauser
#X (µm)=	-5090.6
#Y (µm)=	1478.6
#Z (µm)=	63.8
#Full time(mm:ss)=	3:18
#Project=	
#Sample=	
#Site=	
#Title=	Thy_50_12_50_2x_45s_532 nm_x100_100%_600 gr_mm
#Remark=	
#Date=	07.07.2022 12:57
#Acquired=	07.07.2022 12:57:09
#Base:Fit=	10.08.2022 10:04:30
#Base:Sub=	10.08.2022 10:04:45
#Filter:Polynom=	16.08.2022 10:20:25
#AxisType[0]=Intens
#AxisUnit[0]=Cnt
#AxisType[1]=Spectr
#AxisUnit[1]=1/cm
200.43	29.1147
202.246	25.5102
204.061	21.3376
205.875	19.5605
207.688	17.4772
209.501	15.7908
211.316	13.7677
213.129	12.5818
214.941	11.3409
216.753	10.1798
218.566	9.1137
220.377	8.63698
222.188	7.48446
223.999	6.52722
225.809	5.84625
227.618	5.49385
229.43	4.60535
231.239	4.60841
233.047	3.57231
234.855	3.88513
236.663	3.51988
238.471	3.63627
240.278	2.2395
242.087	2.70331
243.894	2.28584
245.7	2.15183
247.506	2.72799
249.311	3.4938
251.116	4.08422
252.921	4.81817
254.725	5.21185
256.529	5.32581
258.333	6.17884
260.136	6.48609
261.939	7.52723
263.744	7.9667
265.546	8.43112
267.348	9.83196
269.15	11.0941
270.951	11.9198
272.752	12.4563
274.552	13.2619
276.353	14.35
278.152	13.3851
279.952	12.7786
281.751	13.6252
283.55	15.2639
285.348	14.6274
287.146	15.1619
288.942	15.6226
290.739	17.1761
292.536	18.0593
294.333	17.9907
296.129	17.2337
297.925	16.7639
299.721	17.1121
301.516	16.6131
303.311	17.7126
305.106	17.7289
306.9	18.4623
308.694	18.8436
310.486	19.0712
312.279	18.1712
314.072	17.8448
315.864	17.1259
317.656	17.1773
319.448	15.9783
321.24	15.6736
323.029	15.1768
324.819	15.3106
326.61	14.4222
328.4	14.2478
330.19	13.9199
331.977	14.5524
333.766	14.1847
335.555	15.0538
337.343	15.4167
339.131	14.7975
340.917	15.177
342.704	15.8632
344.491	16.3696
346.277	16.9297
348.062	17.4987
349.848	17.2994
351.633	18.2097
353.416	18.6678
355.201	18.4952
356.986	18.6908
358.77	18.2061
360.552	16.7403
362.335	15.9801
364.118	16.1725
365.899	15.6116
367.682	14.6466
369.464	14.1179
371.243	14.8298
373.025	14.0633
374.806	13.6377
376.585	14.4002
378.365	13.8274
380.143	13.8565
381.923	11.9071
383.702	10.8232
385.479	10.197
387.258	9.4197
389.034	10.1581
390.812	10.1319
392.59	9.51785
394.365	9.29091
396.142	8.69667
397.916	7.74307
399.693	5.84736
401.467	4.73878
403.242	3.66676
405.015	3.4382
406.79	3.69213
408.565	2.73054
410.337	3.79317
412.111	4.38446
413.882	4.66918
415.656	4.89274
417.426	5.66736
419.197	6.46349
420.969	6.77813
422.739	7.99663
424.51	9.27559
426.279	9.18063
428.05	9.88687
429.819	11.778
431.589	12.6666
433.356	13.2311
435.124	13.1087
436.893	13.0425
438.66	12.5499
440.428	12.8856
442.194	12.8019
443.96	11.5579
445.727	11.9595
447.492	11.7494
449.259	11.7496
451.023	12.3527
452.787	13.3068
454.553	13.1899
456.316	13.4604
458.079	14.0038
459.844	14.5144
461.606	14.5734
463.368	14.4962
465.132	14.8304
466.893	13.5404
468.654	13.3161
470.415	13.5115
472.177	13.3241
473.937	12.9191
475.696	13.2932
477.456	13.965
479.217	13.8839
480.975	14.3096
482.733	14.9242
484.491	14.5697
486.251	14.8969
488.008	14.4868
489.765	15.6009
491.522	15.2238
493.278	16.9756
495.036	17.5762
496.791	17.9876
498.546	17.6573
500.301	18.0336
502.056	19.1409
503.81	19.0819
505.566	20.1608
507.319	21.2721
509.073	21.4442
510.825	22.0688
512.578	22.111
514.33	21.8992
516.082	22.4454
517.833	22.2441
519.587	21.9844
521.337	21.0393
523.088	20.1144
524.838	18.8695
526.588	18.8503
528.337	18.0292
530.087	17.4774
531.835	17.0419
533.584	16.607
535.332	15.5776
537.08	14.8072
538.827	14.8439
540.574	14.3846
542.321	14.0423
544.068	13.5307
545.814	13.0667
547.56	12.0418
549.305	11.6067
551.05	10.3675
552.795	9.8542
554.54	9.75473
556.284	10.1754
558.027	10.2269
559.771	8.35861
561.514	9.19648
563.257	9.1743
564.999	8.58908
566.742	8.19837
568.481	8.00149
570.223	7.0899
571.964	5.74063
573.705	5.60528
575.445	5.1492
577.185	5.21082
578.925	5.31965
580.665	5.65721
582.402	4.67762
584.141	4.36404
585.879	3.27433
587.617	4.53383
589.355	3.91168
591.092	2.94397
592.828	3.71006
594.564	4.09789
596.301	3.47774
598.037	2.78071
599.773	2.63174
601.506	2.49668
603.242	3.03402
604.976	2.35611
606.711	2.84238
608.443	2.24656
610.177	2.64978
611.91	3.03253
613.644	3.5829
615.374	3.7733
617.107	4.72009
618.839	4.87783
620.569	5.68978
622.3	6.39325
624.032	7.25852
625.761	8.30045
627.491	8.59049
629.221	9.04193
630.949	8.88448
632.679	8.93665
634.408	9.05449
636.135	9.39722
637.863	9.45397
639.592	11.3361
641.318	12.0382
643.045	12.2986
644.77	12.7454
646.497	12.675
648.224	14.537
649.948	14.6092
651.674	15.8296
653.398	16.5001
655.123	17.19
656.846	17.2738
658.57	17.5521
660.293	18.5234
662.017	19.4251
663.738	19.8428
665.462	19.6859
667.185	19.5515
668.905	19.3964
670.628	19.1146
672.348	18.0648
674.067	18.9203
675.789	19.6188
677.508	20.0271
679.228	21.0788
680.947	20.9689
682.667	20.9646
684.385	21.7925
686.104	23.038
687.821	24.4587
689.538	25.56
691.256	26.1211
692.972	27.2565
694.69	28.1953
696.406	29.1413
698.121	29.6001
699.837	30.1564
701.552	30.6377
703.268	31.6067
704.982	32.252
706.695	32.7204
708.41	32.9973
710.123	32.5869
711.836	32.6261
713.55	31.7665
715.262	31.4745
716.973	32.3362
718.685	32.8802
720.398	33.6764
722.108	33.8429
723.818	34.1799
725.53	35.6405
727.24	35.7153
728.949	36.5425
730.658	37.3644
732.369	38.6533
734.077	39.2064
735.785	39.2232
737.493	39.7565
739.2	38.9903
740.909	40.0081
742.616	40.1751
744.322	41.4757
746.028	42.1345
747.734	43.0554
749.441	43.0335
751.146	42.7151
752.851	43.9108
754.555	44.4106
756.26	45.5674
757.963	47.1957
759.667	49.391
761.372	50.7088
763.075	51.556
764.777	53.5663
766.479	53.9487
768.181	55.8317
769.883	57.2418
771.584	58.9661
773.285	60.5361
774.986	60.9955
776.686	62.3433
778.386	63.2142
780.085	64.9119
781.785	65.7937
783.484	67.0377
785.182	68.1459
786.881	69.1345
788.579	70.5261
790.276	69.6238
791.974	69.1862
793.671	69.9329
795.367	69.3657
797.064	69.6289
798.76	69.6474
800.456	71.4564
802.151	72.3206
803.846	72.4912
805.541	72.2451
807.236	71.7708
808.93	72.015
810.624	72.1242
812.317	71.3532
814.01	70.6542
815.703	71.3785
817.394	70.8287
819.086	70.6318
820.778	71.1792
822.47	70.5393
824.161	70.0361
825.852	70.8474
827.543	70.0814
829.231	68.6546
830.921	67.0748
832.611	66.6505
834.3	65.5309
835.989	64.9685
837.676	65.2806
839.364	63.982
841.053	63.3891
842.74	62.8086
844.426	61.5537
846.113	60.6611
847.8	59.5911
849.486	57.6913
851.171	55.4141
852.857	55.3843
854.542	54.0009
856.227	53.673
857.911	51.7827
859.595	50.3643
861.279	49.4877
862.961	48.9196
864.645	48.4816
866.329	46.698
868.01	46.0791
869.692	45.2092
871.375	44.7356
873.055	43.1364
874.737	42.0702
876.418	42.4947
878.097	42.4516
879.778	42.2154
881.457	42.2113
883.137	42.3858
884.817	42.1511
886.495	41.3491
888.174	40.7649
889.851	40.6693
891.53	40.5635
893.206	40.4444
894.884	40.6448
896.562	41.3797
898.237	41.8468
899.914	43.5052
901.589	43.1987
903.265	43.5166
904.94	43.0201
906.615	42.7221
908.289	43.3853
909.964	43.0677
911.637	41.969
913.31	41.7081
914.984	42.2974
916.656	42.7728
918.33	40.8893
920.001	40.9697
921.674	40.819
923.345	40.9884
925.015	42.2211
926.687	41.9222
928.357	40.7342
930.028	40.3762
931.698	38.8639
933.366	37.8015
935.037	38.2021
936.705	39.5889
938.373	38.7485
940.043	37.7714
941.71	36.6805
943.379	35.6645
945.046	35.0234
946.712	34.5173
948.378	34.0105
950.046	33.6679
951.711	34.7413
953.376	34.7299
955.043	35.1018
956.708	34.1638
958.372	34.5372
960.036	34.2387
961.701	34.36
963.364	34.1615
965.027	34.2994
966.69	33.9393
968.354	33.0182
970.016	33.0901
971.678	33.2931
973.339	33.3433
975	32.605
976.661	33.0462
978.324	33.5354
979.984	33.3339
981.644	32.1629
983.303	32.2167
984.962	31.1496
986.621	31.3335
988.282	31.1235
989.94	30.91
991.598	29.886
993.256	29.378
994.913	29.5517
996.57	29.4444
998.227	28.7446
999.884	27.7479
1001.54	26.8456
1003.2	28.9305
1004.85	28.5836
1006.51	28.7581
1008.16	27.9099
1009.82	27.1629
1011.47	26.866
1013.12	27.3234
1014.78	27.6114
1016.43	28.6385
1018.08	29.6407
1019.74	29.4942
1021.39	28.3966
1023.04	28.5587
1024.69	29.0068
1026.34	29.115
1028	30.3272
1029.65	31.5147
1031.3	32.6011
1032.95	34.517
1034.6	34.6811
1036.25	34.8399
1037.9	34.8398
1039.55	34.5443
1041.19	35.0868
1042.84	35.0663
1044.49	35.734
1046.14	34.576
1047.79	34.4814
1049.43	33.494
1051.08	33.4563
1052.73	33.3679
1054.37	33.138
1056.02	31.9595
1057.66	31.7674
1059.31	31.0842
1060.95	30.3258
1062.6	29.4872
1064.24	28.2964
1065.88	28.3474
1067.53	27.5072
1069.17	26.7995
1070.81	25.2854
1072.46	24.2617
1074.1	22.8142
1075.74	21.9371
1077.38	21.2595
1079.02	20.3088
1080.66	19.2817
1082.3	19.1433
1083.94	18.7539
1085.58	18.5939
1087.22	16.9054
1088.86	16.8801
1090.5	17.1843
1092.14	17.751
1093.78	17.8708
1095.42	18.1875
1097.05	18.1751
1098.69	18.9555
1100.33	19.56
1101.97	19.3569
1103.6	19.304
1105.24	19.7217
1106.87	19.081
1108.51	19.5145
1110.15	18.8965
1111.78	18.4386
1113.41	17.9629
1115.05	17.6327
1116.68	16.5606
1118.31	16.3387
1119.95	15.6473
1121.58	15.256
1123.21	15.1452
1124.85	14.1452
1126.48	13.5919
1128.11	12.1964
1129.74	12.2684
1131.37	11.4468
1133	12.1474
1134.63	11.5115
1136.26	10.9838
1137.89	10.9832
1139.52	11.4755
1141.15	10.8343
1142.78	10.7415
1144.41	10.5281
1146.04	9.78212
1147.66	8.8566
1149.29	7.96815
1150.92	6.94602
1152.55	6.48726
1154.17	5.76087
1155.8	4.99887
1157.43	5.30585
1159.05	4.79311
1160.68	4.33984
1162.3	3.88971
1163.93	4.82414
1165.55	4.76882
1167.17	5.97073
1168.8	6.10891
1170.42	7.74738
1172.05	8.16164
1173.67	8.12116
1175.29	8.14405
1176.91	7.40815
1178.54	7.81381
1180.16	8.52956
1181.78	7.31199
1183.4	7.29926
1185.02	6.90589
1186.64	7.10764
1188.26	5.55563
1189.88	5.77597
1191.5	5.93173
1193.12	6.55899
1194.74	6.99771
1196.36	7.31503
1197.97	8.44929
1199.59	8.07003
1201.21	8.59276
1202.83	9.78075
1204.44	10.326
1206.06	10.965
1207.68	11.9261
1209.29	13.0532
1210.91	14.7529
1212.52	15.8418
1214.14	17.872
1215.75	19.3716
1217.37	20.1874
1218.98	21.7359
1220.6	22.0911
1222.21	21.8846
1223.82	22.8879
1225.44	23.463
1227.05	24.0111
1228.66	24.3655
1230.27	26.2019
1231.88	26.7598
1233.49	27.3469
1235.1	27.8947
1236.72	28.5423
1238.33	29.6483
1239.94	30.9812
1241.55	32.4916
1243.16	33.8755
1244.76	35.2542
1246.37	35.8608
1247.98	36.7698
1249.59	37.2284
1251.2	37.8395
1252.8	38.1218
1254.41	38.9208
1256.02	39.3624
1257.63	39.5824
1259.23	41.1632
1260.84	41.4897
1262.44	42.2593
1264.05	43.0348
1265.66	42.5204
1267.26	43.7113
1268.87	43.8119
1270.47	45.656
1272.07	46.6663
1273.68	48.1262
1275.28	49.3856
1276.88	49.8106
1278.48	50.7396
1280.09	51.395
1281.69	52.7399
1283.29	53.9276
1284.89	54.7714
1286.49	55.6255
1288.09	56.4615
1289.69	56.9757
1291.3	57.4002
1292.9	58.4181
1294.49	59.0761
1296.09	60.3083
1297.69	59.4911
1299.29	59.4114
1300.89	58.5746
1302.49	58.7767
1304.09	59.6094
1305.68	59.7421
1307.28	60.6013
1308.88	60.5911
1310.47	60.4669
1312.07	59.9287
1313.66	59.4754
1315.26	59.9275
1316.86	60.1987
1318.45	60.6015
1320.05	60.094
1321.64	59.1613
1323.23	58.3323
1324.83	57.9838
1326.42	57.7862
1328.01	57.7363
1329.61	57.3686
1331.2	56.5803
1332.79	55.532
1334.38	54.4455
1335.98	53.5474
1337.57	53.4775
1339.16	53.1344
1340.75	52.5943
1342.34	52.5612
1343.93	51.2266
1345.52	50.846
1347.11	50.1286
1348.7	48.7234
1350.29	48.4933
1351.87	47.304
1353.46	46.6485
1355.05	44.6221
1356.64	43.237
1358.23	42.4986
1359.81	41.2832
1361.4	40.0826
1362.99	39.5319
1364.57	38.6811
1366.16	38.1242
1367.74	36.8374
1369.33	35.9995
1370.91	35.6601
1372.5	34.7511
1374.08	33.6618
1375.67	33.2783
1377.25	32.1181
1378.83	31.4402
1380.42	31.5611
1382	31.9948
1383.58	32.4094
1385.16	32.9131
1386.75	33.853
1388.33	32.8114
1389.91	32.8784
1391.49	33.3381
1393.07	33.0052
1394.65	33.7579
1396.23	33.9574
1397.81	32.6288
1399.39	32.4086
1400.97	32.0893
1402.55	32.5333
1404.13	33.7057
1405.7	34.6109
1407.28	36.0355
1408.86	36.792
1410.44	37.768
1412.01	39.5526
1413.59	41.1687
1415.17	42.9689
1416.74	45.5944
1418.32	47.027
1419.89	49.5808
1421.47	51.1688
1423.05	52.2907
1424.62	54.4721
1426.19	56.5441
1427.77	58.5032
1429.34	60.06
1430.92	61.1723
1432.49	63.675
1434.06	64.5042
1435.63	65.8594
1437.2	67.2705
1438.78	68.4964
1440.35	70.3841
1441.92	71.4119
1443.49	72.2178
1445.06	73.0008
1446.63	72.4146
1448.2	73.6508
1449.77	73.316
1451.34	73.0612
1452.91	73.4389
1454.48	72.8424
1456.05	71.493
1457.62	70.6546
1459.18	70.318
1460.75	69.1475
1462.32	67.3539
1463.89	65.7742
1465.45	63.2816
1467.02	59.7191
1468.59	57.553
1470.15	54.7644
1471.72	51.955
1473.28	49.2884
1474.85	45.6283
1476.41	42.043
1477.98	40.1645
1479.54	37.4191
1481.11	35.7342
1482.67	34.2222
1484.23	32.5188
1485.8	31.497
1487.36	29.0452
1488.92	27.1615
1490.48	25.4237
1492.05	23.4169
1493.61	22.5379
1495.17	21.8855
1496.73	19.9831
1498.29	19.3076
1499.85	18.4638
1501.41	17.7168
1502.97	16.9463
1504.53	15.9791
1506.09	14.9462
1507.65	15.242
1509.2	14.7029
1510.76	14.415
1512.32	14.157
1513.88	14.6918
1515.44	15.4627
1516.99	16.2815
1518.55	16.5121
1520.1	17.1615
1521.66	18.5974
1523.22	19.498
1524.77	19.917
1526.33	21.0116
1527.88	20.8655
1529.44	22.2206
1530.99	23.034
1532.55	23.2975
1534.1	25.0299
1535.65	27.2911
1537.21	27.8979
1538.76	28.8125
1540.31	29.2627
1541.86	31.4372
1543.42	32.4039
1544.97	34.1424
1546.52	35.623
1548.07	37.7934
1549.62	39.8133
1551.17	41.3738
1552.72	43.3958
1554.27	45.4607
1555.82	47.4182
1557.37	49.0972
1558.92	50.6419
1560.47	52.0418
1562.02	52.6143
1563.57	54.2365
1565.11	54.8126
1566.66	56.1266
1568.21	57.4967
1569.75	58.5433
1571.3	59.1129
1572.85	59.7266
1574.39	60.5677
1575.94	62.2801
1577.49	62.8677
1579.03	63.1413
1580.58	63.3262
1582.12	64.1855
1583.67	64.5904
1585.21	65.2262
1586.75	65.0131
1588.3	65.8346
1589.84	65.9806
1591.38	65.8191
1592.93	65.3692
1594.47	64.7715
1596.01	64.1918
1597.55	64.4714
1599.09	64.1982
1600.63	63.3196
1602.18	62.112
1603.72	60.8967
1605.26	59.2637
1606.8	58.9284
1608.34	58.3776
1609.87	57.9741
1611.41	57.6858
1612.95	56.2372
1614.49	55.6924
1616.03	56.1681
1617.57	57.358
1619.11	57.3344
1620.64	57.4979
1622.18	58.2954
1623.72	57.7809
1625.25	58.0798
1626.79	58.3642
1628.32	58.312
1629.86	59.1317
1631.4	59.0181
1632.93	58.3574
1634.47	58.3095
1636	58.9508
1637.53	60.3709
1639.07	61.1465
1640.6	61.5279
1642.14	61.5117
1643.67	62.1432
1645.2	63.1608
1646.73	63.7617
1648.27	63.8719
1649.8	64.5349
1651.33	65.3258
1652.86	65.6774
1654.39	65.7408
1655.92	65.6293
1657.45	65.2028
1658.98	65.4476
1660.51	65.6652
1662.04	65.8455
1663.57	65.0471
1665.1	64.1854
1666.63	63.0252
1668.16	61.7944
1669.69	60.5257
1671.21	58.8005
1672.74	57.3614
1674.27	55.5704
1675.79	53.1246
1677.32	51.0919
1678.85	48.7619
1680.37	46.138
1681.9	44.5279
1683.42	43.1419
1684.95	41.7092
1686.47	39.1672
1688	37.5451
1689.52	36.6922
1691.05	35.1036
1692.57	32.3936
1694.1	30.0548
1695.62	27.731
1697.14	26.9674
1698.66	24.44
1700.19	21.5734
1701.71	19.9823
1703.23	19.0384
1704.75	17.6203
1706.27	17.0998
1707.79	15.13
1709.32	14.3153
1710.83	14.2025
1712.35	14.0612
1713.88	13.1538
1715.39	11.5041
1716.91	9.88506
1718.43	10.1827
1719.95	9.71474
1721.47	9.3038
1722.99	8.36768
1724.5	7.10067
1726.02	6.73685
1727.54	6.84579
1729.06	6.93617
1730.57	6.74992
1732.09	6.97676
1733.61	7.4699
1735.12	8.08523
1736.64	8.04405
1738.15	7.86428
1739.67	7.16128
1741.18	6.74777
1742.7	5.92369
1744.21	5.57304
1745.72	5.23988
1747.24	4.48732
1748.75	4.84893
1750.26	4.99411
1751.78	4.9819
1753.29	5.16302
1754.8	4.93009
1756.31	4.57935
1757.82	4.80777
1759.34	4.52263
1760.85	5.11425
1762.36	4.57535
1763.87	4.44794
1765.38	3.89697
1766.89	2.71054
1768.4	2.6417
1769.91	3.30227
1771.41	4.13763
1772.92	3.59592
1774.43	3.13789
1775.94	3.7923
1777.45	4.41881
1778.96	4.85599
1780.46	4.72435
1781.97	5.02475
1783.48	4.33611
1784.98	4.58188
1786.49	3.69265
1788	3.42128
1789.5	2.83618
1791.01	2.56407
1792.51	2.36401
1794.01	2.53145
1795.52	2.1836
1797.02	2.886
1798.53	2.92048
1800.03	2.68434
1801.54	3.12584
1803.04	2.88147
1804.54	2.81031
1806.04	2.62299
1807.54	3.02906
1809.05	2.63728
1810.55	3.19178
1812.05	3.10606
1813.55	3.15632
1815.05	2.94908
1816.55	2.91767
1818.05	2.80183
1819.55	2.81147
1821.05	2.97177
1822.55	3.37066
1824.05	3.28409
1825.55	3.08893
1827.05	2.96116
1828.55	3.01521
1830.04	3.47827
1831.54	3.81342
1833.04	4.36338
1834.54	4.42554
1836.03	4.74005
1837.53	4.14186
1839.03	4.14806
1840.52	4.94756
1842.02	5.16786
1843.51	5.27764
1845.01	5.3894
1846.5	5.61875
1848	5.49206
1849.49	5.31723
1850.99	5.23575
1852.48	4.56656
1853.97	4.90273
1855.47	5.01657
1856.96	4.94039
1858.45	4.27043
1859.94	4.14132
1861.44	4.01752
1862.93	4.77922
1864.42	4.61038
1865.91	4.53885
1867.4	3.94964
1868.89	4.23744
1870.38	3.95445
1871.87	3.36419
1873.36	2.36108
1874.85	1.70554
1876.34	1.60965
1877.83	0.723999
1879.32	1.91319
1880.81	2.10524
1882.3	2.27293
1882.56	2.49733
1884.06	2.56134
1885.55	1.15608
1887.04	0.945036
1888.54	1.0073
1890.03	0.117936
1891.52	0.156201
1893.02	0.410531
1894.51	0.42777
1896	0.00951828
1897.49	-0.152986
1898.99	0.0440942
1900.48	0.0593463
1901.97	0.269071
1903.46	1.09014
1904.95	1.23414
1906.44	1.4362
1907.93	0.793967
1909.42	1.25591
1910.91	1.77987
1912.4	2.65631
1913.89	2.26262
1915.38	1.91031
1916.86	1.28263
1918.35	1.60465
1919.84	1.8046
1921.33	2.03341
1922.82	2.01972
1924.3	2.05483
1925.79	2.01438
1927.28	3.10551
1928.76	3.0435
1930.25	2.76701
1931.74	3.65533
1933.22	4.13184
1934.71	4.33181
1936.19	4.26727
1937.67	3.58074
1939.16	3.55647
1940.64	4.00756
1942.13	4.43191
1943.61	3.91255
1945.09	3.89953
1946.58	3.9486
1948.06	4.39433
1949.54	4.3436
1951.03	4.47231
1952.51	4.82738
1953.99	4.41538
1955.47	4.17834
1956.95	3.25797
1958.43	2.59294
1959.91	2.63122
1961.39	2.54284
1962.87	2.13159
1964.35	2.26281
1965.83	1.77243
1967.31	1.83764
1968.79	1.25234
1970.27	0.745075
1971.75	0.450264
1973.22	0.501839
1974.7	0.597428
1976.18	1.61726
1977.66	2.80876
1979.13	2.30131
1980.61	1.99001
1982.09	1.84739
1983.56	2.59805
1985.04	3.12916
1986.52	2.53494
1987.99	2.10809
1989.47	2.98965
1990.94	3.24505
1992.41	3.84689
1993.89	3.34041
1995.36	3.84643
1996.84	4.60055
1998.31	5.07488
1999.78	6.61478
2001.26	7.25514
2002.73	7.95382
2004.2	8.11984
2005.67	8.9369
2007.15	8.51431
2008.62	8.6988
2010.09	9.04254
2011.56	9.69319
2013.03	10.3603
2014.5	11.1888
2015.97	10.5562
2017.44	10.7844
2018.91	10.653
2020.38	10.5928
2021.85	10.5759
2023.32	9.78963
2024.79	10.4493
2026.25	10.3654
2027.72	10.3837
2029.19	10.3325
2030.66	10.2975
2032.13	10.5664
2033.59	10.384
2035.06	9.51665
2036.53	9.87885
2037.99	9.85338
2039.46	8.80571
2040.92	9.49307
2042.39	9.13993
2043.85	9.40989
2045.32	10.0601
2046.78	10.4509
2048.25	10.6429
2049.71	11.1483
2051.18	10.8637
2052.64	10.4296
2054.1	10.4051
2055.56	10.4197
2057.03	10.572
2058.49	10.5069
2059.95	10.0831
2061.42	10.4937
2062.88	10.1996
2064.34	10.7188
2065.8	10.5626
2067.26	10.5869
2068.72	12.7707
2070.18	12.8884
2071.64	12.4933
2073.1	12.7876
2074.56	12.847
2076.02	13.463
2077.48	13.1769
2078.94	13.6295
2080.39	14.4419
2081.85	15.2451
2083.31	16.3427
2084.77	16.9297
2086.22	17.484
2087.68	18.6601
2089.14	18.9018
2090.6	19.5698
2092.05	20.1763
2093.51	20.3898
2094.96	21.2993
2096.42	21.768
2097.87	23.7692
2099.33	24.353
2100.78	25.2862
2102.24	26.8584
2103.69	27.7991
2105.15	28.7142
2106.6	29.6219
2108.05	30.6352
2109.51	31.449
2110.96	32.0384
2112.41	32.9003
2113.86	34.2106
2115.32	34.6913
2116.77	35.3343
2118.22	35.7749
2119.67	36.1729
2121.12	37.2988
2122.57	38.8101
2124.02	40.1224
2125.47	41.451
2126.92	42.3083
2128.37	43.5852
2129.82	45.7441
2131.27	47.2256
2132.72	48.3973
2134.17	49.5205
2135.62	50.5934
