#Acq. time (s)=	45
#Accumulations=	2
#Range (cm-¹)=	200...3150
#Windows=	2
#Auto scanning=	Off
#Autofocus=	Off
#Macrospot=	Off
#AutoExposure=	Off
#Spike filter=	Multiple accum.
#Delay time (s)=	0
#Binning=	1
#Readout mode=	Signal
#DeNoise=	Off
#ICS correction=	On
#Dark correction=	Off
#Inst. Process=	Off
#Detector Gain=	Best Dynamic Range
#Detector ADC=	20 kHz       
#Detector temperature (°C)=	-69.85
#Instrument=	LabRAM HR Evol
#Detector=	Synapse
#Objective=	x100
#Grating=	600 gr/mm
#ND Filter=	100%
#Laser (nm)=	532 
#Hole=	100.021
#Range=	Auto
#Laser Pol.=	No
#Raman. Pol.=	No
#Laser Pol. (°)=	-0.0007625
#Raman Pol. (°)=	89.9995
#Collection=	Microscope
#StageXY=	Marzhauser
#StageZ=	Marzhauser
#X (µm)=	-5101.8
#Y (µm)=	1499.1
#Z (µm)=	63.1
#Full time(mm:ss)=	3:19
#Project=	
#Sample=	
#Site=	
#Title=	Thy_50_12_08_2x_45s_532 nm_x100_100%_600 gr_mm
#Remark=	
#Date=	07.07.2022 09:49
#Acquired=	07.07.2022 09:49:12
#Base:Fit=	10.08.2022 10:03:08
#Base:Fit=	10.08.2022 10:03:15
#Base:Fit=	10.08.2022 10:03:19
#Base:Fit=	10.08.2022 10:04:29
#Base:Sub=	10.08.2022 10:04:45
#Filter:Polynom=	16.08.2022 10:20:24
#AxisType[0]=Intens
#AxisUnit[0]=Cnt
#AxisType[1]=Spectr
#AxisUnit[1]=1/cm
200.43	23.8332
202.246	26.3774
204.061	25.997
205.875	25.4075
207.688	24.1076
209.501	22.8006
211.316	21.7175
213.129	20.635
214.941	19.8919
216.753	17.9668
218.566	16.9234
220.377	15.0144
222.188	15.0865
223.999	14.366
225.809	13.9107
227.618	13.0149
229.43	10.9275
231.239	10.2034
233.047	9.66116
234.855	8.56592
236.663	8.46693
238.471	8.19832
240.278	7.56193
242.087	6.8341
243.894	6.27478
245.7	5.95878
247.506	5.50769
249.311	4.75787
251.116	3.47793
252.921	2.21492
254.725	2.32176
256.529	2.61752
258.333	1.92667
260.136	2.12398
261.939	1.49362
263.744	1.16421
265.546	0.734142
267.348	1.16389
269.15	2.32841
270.951	1.35386
272.752	1.15866
274.552	2.18507
276.353	2.3341
278.152	2.63837
279.952	3.625
281.751	3.91184
283.55	5.53665
285.348	5.12124
287.146	5.94768
288.942	5.83342
290.739	6.33412
292.536	7.01789
294.333	7.87471
296.129	8.53728
297.925	9.45894
299.721	9.9568
301.516	10.4574
303.311	9.79224
305.106	9.80263
306.9	9.89732
308.694	10.9804
310.486	10.9877
312.279	12.0942
314.072	11.7662
315.864	11.5539
317.656	10.4545
319.448	9.67214
321.24	10.4397
323.029	10.471
324.819	9.74915
326.61	10.249
328.4	9.50915
330.19	8.75049
331.977	8.48744
333.766	8.24085
335.555	7.69652
337.343	7.21477
339.131	5.89955
340.917	4.80537
342.704	4.36912
344.491	3.58437
346.277	2.70616
348.062	1.96453
349.848	1.94144
351.633	1.62089
353.416	1.79198
355.201	2.20865
356.986	2.51658
358.77	2.65238
360.552	2.18415
362.335	3.16523
364.118	4.24475
365.899	4.57699
367.682	4.99505
369.464	6.49148
371.243	5.92027
373.025	7.021
374.806	7.40462
376.585	7.78471
378.365	7.57781
380.143	8.16488
381.923	7.87562
383.702	7.99298
385.479	8.43128
387.258	8.3193
389.034	8.13569
390.812	6.81259
392.59	6.26371
394.365	6.89066
396.142	6.80713
397.916	7.40579
399.693	6.66273
401.467	6.76536
403.242	6.28961
405.015	5.42355
406.79	5.04708
408.565	5.14407
410.337	5.05601
412.111	4.01171
413.882	3.63071
415.656	3.5242
417.426	2.53034
419.197	2.46936
420.969	2.83241
422.739	2.46048
424.51	2.49222
426.279	2.71541
428.05	2.17608
429.819	2.08071
431.589	2.27691
433.356	2.63822
435.124	2.93288
436.893	2.65011
438.66	3.10526
440.428	3.70333
442.194	4.03038
443.96	4.5619
445.727	4.49171
447.492	4.85209
449.259	4.88657
451.023	5.67855
452.787	5.59949
454.553	5.60384
456.316	5.90942
458.079	7.03701
459.844	6.81429
461.606	7.45274
463.368	7.84405
465.132	7.76452
466.893	8.52429
468.654	9.25613
470.415	10.1333
472.177	10.2585
473.937	11.2692
475.696	11.39
477.456	10.8388
479.217	10.5643
480.975	11.8747
482.733	11.9567
484.491	12.8591
486.251	13.4676
488.008	13.1328
489.765	13.8157
491.522	13.9067
493.278	14.11
495.036	14.5753
496.791	14.6666
498.546	14.1635
500.301	15.114
502.056	16.0482
503.81	17.0219
505.566	17.9416
507.319	18.4159
509.073	19.1221
510.825	19.4976
512.578	19.3023
514.33	19.4444
516.082	18.6093
517.833	18.8868
519.587	19.406
521.337	19.3441
523.088	19.0775
524.838	18.7389
526.588	20.0797
528.337	19.6007
530.087	19.6238
531.835	20.0451
533.584	19.3446
535.332	19.1406
537.08	19.561
538.827	19.4683
540.574	18.5295
542.321	17.9975
544.068	18.5894
545.814	17.6288
547.56	16.3329
549.305	16.5268
551.05	16.2867
552.795	15.7422
554.54	15.541
556.284	15.1749
558.027	13.6385
559.771	12.4983
561.514	11.9529
563.257	10.6569
564.999	9.9474
566.742	9.47612
568.481	9.02396
570.223	7.689
571.964	7.66402
573.705	6.78278
575.445	6.73758
577.185	6.52043
578.925	5.85312
580.665	5.73218
582.402	5.92261
584.141	5.22803
585.879	4.55023
587.617	4.83078
589.355	3.67897
591.092	3.67456
592.828	2.8025
594.564	1.18704
596.301	0.982664
598.037	0.13702
599.773	-0.542837
601.506	0.365846
603.242	0.0266974
604.976	0.453119
606.711	0.770991
608.443	1.06388
610.177	1.63109
611.91	2.3072
613.644	3.26833
615.374	3.23934
617.107	4.40019
618.839	4.74547
620.569	4.21678
622.3	4.27716
624.032	4.84053
625.761	4.45642
627.491	4.90469
629.221	5.17749
630.949	6.51529
632.679	5.65929
634.408	6.04871
636.135	7.09256
637.863	7.43841
639.592	7.92762
641.318	8.25094
643.045	8.84742
644.77	8.65577
646.497	10.1893
648.224	11.5201
649.948	12.1753
651.674	12.5552
653.398	12.3427
655.123	12.9707
656.846	13.7554
658.57	14.7837
660.293	15.5962
662.017	16.4625
663.738	16.8536
665.462	17.1334
667.185	18.0884
668.905	18.4145
670.628	18.2179
672.348	18.5942
674.067	19.5667
675.789	21.3244
677.508	22.348
679.228	22.4438
680.947	22.9916
682.667	24.8077
684.385	25.791
686.104	26.5155
687.821	27.4113
689.538	27.9559
691.256	28.927
692.972	31.1923
694.69	32.9105
696.406	34.7288
698.121	36.075
699.837	36.492
701.552	36.8787
703.268	36.654
704.982	36.6068
706.695	36.2475
708.41	37.6345
710.123	39.4372
711.836	40.7143
713.55	41.343
715.262	40.9462
716.973	41.6835
718.685	41.4787
720.398	42.0941
722.108	42.6589
723.818	43.7475
725.53	43.7275
727.24	43.8279
728.949	44.3122
730.658	44.4836
732.369	44.9332
734.077	44.5684
735.785	44.3486
737.493	45.1732
739.2	46.0366
740.909	47.5255
742.616	47.7825
744.322	48.604
746.028	49.0152
747.734	49.1673
749.441	49.0136
751.146	50.4465
752.851	51.1842
754.555	51.4519
756.26	52.905
757.963	53.5055
759.667	55.5608
761.372	56.6827
763.075	57.3519
764.777	58.9244
766.479	60.6263
768.181	61.1183
769.883	62.8972
771.584	64.9208
773.285	67.1298
774.986	69.3289
776.686	71.0695
778.386	72.7742
780.085	74.029
781.785	75.6376
783.484	75.626
785.182	76.5342
786.881	76.4626
788.579	76.7892
790.276	78.0642
791.974	78.5554
793.671	79.3971
795.367	79.6325
797.064	80.2744
798.76	79.8276
800.456	80.8843
802.151	81.7944
803.846	81.7096
805.541	81.4452
807.236	82.032
808.93	82.8375
810.624	82.659
812.317	83.2836
814.01	83.8451
815.703	83.507
817.394	82.9976
819.086	83.2422
820.778	84.2764
822.47	84.5315
824.161	83.7576
825.852	82.7766
827.543	81.3434
829.231	81.0291
830.921	79.86
832.611	78.7217
834.3	78.0739
835.989	78.3494
837.676	76.8051
839.364	76.214
841.053	75.8076
842.74	74.7882
844.426	74.9743
846.113	74.3571
847.8	74.7328
849.486	73.6719
851.171	72.7281
852.857	71.8387
854.542	72.1045
856.227	71.0821
857.911	70.0034
859.595	68.3627
861.279	67.4108
862.961	66.2074
864.645	65.0634
866.329	62.9102
868.01	60.8837
869.692	60.0784
871.375	58.2227
873.055	56.6083
874.737	56.1402
876.418	54.8898
878.097	54.0766
879.778	54.2031
881.457	54.5422
883.137	53.7645
884.817	53.301
886.495	52.2183
888.174	51.7972
889.851	51.8325
891.53	52.6601
893.206	52.0619
894.884	51.5698
896.562	51.2252
898.237	51.0361
899.914	50.3537
901.589	50.0288
903.265	50.0686
904.94	49.9651
906.615	48.8025
908.289	48.2999
909.964	48.5827
911.637	48.5768
913.31	48.0298
914.984	47.1508
916.656	46.2223
918.33	45.5149
920.001	44.7306
921.674	43.1826
923.345	42.3657
925.015	41.8494
926.687	41.4134
928.357	40.9468
930.028	39.5633
931.698	39.1599
933.366	37.3855
935.037	36.6439
936.705	36.2932
938.373	35.5597
940.043	34.1545
941.71	33.7485
943.379	31.9991
945.046	31.6613
946.712	30.3661
948.378	30.506
950.046	29.5711
951.711	30.0299
953.376	30.2224
955.043	29.5615
956.708	29.5923
958.372	30.9035
960.036	29.8092
961.701	29.8054
963.364	31.1045
965.027	31.6931
966.69	32.3334
968.354	32.8765
970.016	33.799
971.678	34.3299
973.339	33.8739
975	33.5164
976.661	33.4373
978.324	34.2065
979.984	35.3831
981.644	36.2949
983.303	35.8922
984.962	36.7423
986.621	37.4487
988.282	38.3656
989.94	38.2201
991.598	38.2008
993.256	38.3062
994.913	37.4366
996.57	36.266
998.227	36.2261
999.884	35.0015
1001.54	34.3965
1003.2	33.8954
1004.85	33.2685
1006.51	32.6468
1008.16	32.4289
1009.82	31.3482
1011.47	31.0946
1013.12	30.1593
1014.78	31.104
1016.43	29.9567
1018.08	29.5278
1019.74	29.5821
1021.39	28.7478
1023.04	28.7381
1024.69	29.1482
1026.34	28.3427
1028	28.9331
1029.65	29.45
1031.3	29.2416
1032.95	28.5838
1034.6	28.7717
1036.25	28.3235
1037.9	27.3731
1039.55	27.4857
1041.19	26.2319
1042.84	24.7975
1044.49	25.5402
1046.14	25.3099
1047.79	23.904
1049.43	23.0832
1051.08	22.0128
1052.73	22.2139
1054.37	21.9757
1056.02	20.7657
1057.66	20.8695
1059.31	20.6829
1060.95	20.6371
1062.6	20.5123
1064.24	19.3224
1065.88	18.1117
1067.53	17.6403
1069.17	16.4676
1070.81	16.6272
1072.46	15.6352
1074.1	15.6832
1075.74	16.3766
1077.38	15.9624
1079.02	16.2551
1080.66	15.8567
1082.3	14.8461
1083.94	14.5951
1085.58	14.6901
1087.22	14.3794
1088.86	14.5113
1090.5	14.8513
1092.14	15.3795
1093.78	15.6955
1095.42	16.3521
1097.05	17.2764
1098.69	17.4898
1100.33	18.725
1101.97	19.3522
1103.6	19.1919
1105.24	20.225
1106.87	20.8914
1108.51	21.5475
1110.15	21.9633
1111.78	22.2778
1113.41	21.1912
1115.05	21.8043
1116.68	21.6138
1118.31	21.1548
1119.95	20.9785
1121.58	20.3628
1123.21	19.465
1124.85	19.2328
1126.48	18.9265
1128.11	18.0091
1129.74	17.298
1131.37	17.3028
1133	17.6942
1134.63	18.1355
1136.26	16.648
1137.89	15.0347
1139.52	14.295
1141.15	13.7396
1142.78	13.7413
1144.41	13.1561
1146.04	12.5155
1147.66	12.7009
1149.29	12.4882
1150.92	12.6396
1152.55	12.8604
1154.17	11.6747
1155.8	11.2123
1157.43	10.565
1159.05	8.52454
1160.68	7.89568
1162.3	6.30411
1163.93	5.55981
1165.55	5.36486
1167.17	5.40286
1168.8	5.39853
1170.42	5.1023
1172.05	5.61743
1173.67	6.27299
1175.29	6.26057
1176.91	6.82327
1178.54	6.3364
1180.16	5.92227
1181.78	5.61337
1183.4	3.82091
1185.02	5.19168
1186.64	5.64812
1188.26	5.65816
1189.88	5.20015
1191.5	5.52148
1193.12	5.23565
1194.74	4.75507
1196.36	4.85684
1197.97	4.17207
1199.59	3.55018
1201.21	4.15672
1202.83	3.81881
1204.44	4.30979
1206.06	5.17781
1207.68	5.40941
1209.29	6.99045
1210.91	7.07424
1212.52	8.94951
1214.14	10.5144
1215.75	11.2106
1217.37	11.9454
1218.98	12.7967
1220.6	14.8554
1222.21	16.3571
1223.82	17.7913
1225.44	19.5765
1227.05	19.7372
1228.66	20.3189
1230.27	20.9773
1231.88	21.536
1233.49	23.1788
1235.1	24.1603
1236.72	25.5833
1238.33	27.1811
1239.94	27.9951
1241.55	30.1936
1243.16	30.9498
1244.76	33.0737
1246.37	34.8302
1247.98	36.2033
1249.59	38.167
1251.2	39.6595
1252.8	41.3329
1254.41	41.7353
1256.02	42.0886
1257.63	42.4475
1259.23	43.3284
1260.84	44.577
1262.44	46.1326
1264.05	47.6809
1265.66	50.3617
1267.26	50.0217
1268.87	50.3704
1270.47	50.7394
1272.07	52.4052
1273.68	53.0756
1275.28	54.3127
1276.88	55.0567
1278.48	55.8383
1280.09	57.2426
1281.69	58.6029
1283.29	59.1584
1284.89	60.8307
1286.49	62.2919
1288.09	61.9811
1289.69	63.7557
1291.3	64.4036
1292.9	65.693
1294.49	65.5785
1296.09	65.6202
1297.69	66.8577
1299.29	67.2565
1300.89	67.7104
1302.49	67.1848
1304.09	67.2619
1305.68	67.9111
1307.28	67.4146
1308.88	68.177
1310.47	69.1124
1312.07	69.6908
1313.66	70.3064
1315.26	69.904
1316.86	69.8962
1318.45	70.4745
1320.05	69.9079
1321.64	69.816
1323.23	69.6917
1324.83	69.4435
1326.42	67.9739
1328.01	67.1678
1329.61	66.5116
1331.2	65.8647
1332.79	64.2468
1334.38	62.8667
1335.98	61.2909
1337.57	59.4713
1339.16	58.6915
1340.75	57.284
1342.34	56.3757
1343.93	55.1224
1345.52	53.0184
1347.11	51.556
1348.7	50.5926
1350.29	50.034
1351.87	49.9436
1353.46	48.7913
1355.05	47.0107
1356.64	45.182
1358.23	43.6879
1359.81	43.2584
1361.4	41.6738
1362.99	40.5934
1364.57	40.2325
1366.16	39.4756
1367.74	38.2262
1369.33	38.3213
1370.91	36.5408
1372.5	34.9086
1374.08	33.7309
1375.67	32.825
1377.25	32.1277
1378.83	31.7605
1380.42	30.8672
1382	30.6357
1383.58	31.024
1385.16	31.4359
1386.75	30.8975
1388.33	30.2928
1389.91	29.3074
1391.49	29.0926
1393.07	28.6649
1394.65	28.6534
1396.23	27.871
1397.81	27.4453
1399.39	27.4023
1400.97	27.3685
1402.55	27.66
1404.13	27.2282
1405.7	28.0667
1407.28	28.8973
1408.86	29.6889
1410.44	29.7299
1412.01	29.503
1413.59	30.4192
1415.17	31.5074
1416.74	33.2404
1418.32	35.9696
1419.89	37.5772
1421.47	40.6333
1423.05	43.9148
1424.62	45.7998
1426.19	48.7113
1427.77	51.1083
1429.34	53.4461
1430.92	55.8179
1432.49	57.6948
1434.06	60.0117
1435.63	62.506
1437.2	65.177
1438.78	66.9896
1440.35	67.785
1441.92	69.9138
1443.49	71.3967
1445.06	71.5069
1446.63	71.3371
1448.2	72.1671
1449.77	71.8941
1451.34	72.0425
1452.91	72.3919
1454.48	72.3854
1456.05	71.8967
1457.62	70.7063
1459.18	68.1805
1460.75	67.2257
1462.32	65.4232
1463.89	62.9321
1465.45	61.242
1467.02	58.8622
1468.59	56.5371
1470.15	54.8593
1471.72	51.9355
1473.28	49.4935
1474.85	47.3888
1476.41	45.1585
1477.98	43.1907
1479.54	39.9316
1481.11	37.0809
1482.67	34.4205
1484.23	32.0257
1485.8	28.9361
1487.36	26.1868
1488.92	23.0046
1490.48	21.5358
1492.05	20.4598
1493.61	18.3879
1495.17	17.8428
1496.73	17.8449
1498.29	16.7214
1499.85	16.6609
1501.41	16.0897
1502.97	14.1622
1504.53	14.0003
1506.09	13.7173
1507.65	14.2398
1509.2	14.0847
1510.76	13.9345
1512.32	13.7774
1513.88	13.0358
1515.44	12.6955
1516.99	12.2155
1518.55	12.445
1520.1	13.1674
1521.66	13.0452
1523.22	13.6354
1524.77	14.8119
1526.33	16.0065
1527.88	16.6848
1529.44	17.9378
1530.99	18.6535
1532.55	19.2849
1534.1	20.3776
1535.65	21.8675
1537.21	23.5555
1538.76	25.7601
1540.31	27.0499
1541.86	29.2926
1543.42	31.1121
1544.97	32.5958
1546.52	34.7442
1548.07	36.9875
1549.62	39.1505
1551.17	41.0133
1552.72	41.8831
1554.27	42.9223
1555.82	44.3451
1557.37	44.8975
1558.92	46.0635
1560.47	47.7132
1562.02	48.631
1563.57	49.9771
1565.11	50.181
1566.66	51.1794
1568.21	53.3989
1569.75	54.3026
1571.3	56.1174
1572.85	58.3733
1574.39	59.499
1575.94	59.7693
1577.49	61.0323
1579.03	61.9937
1580.58	62.9307
1582.12	63.9173
1583.67	65.3632
1585.21	65.5992
1586.75	64.3633
1588.3	64.3462
1589.84	64.4793
1591.38	63.7151
1592.93	63.2166
1594.47	62.5496
1596.01	61.0589
1597.55	60.4616
1599.09	60.2108
1600.63	60.0335
1602.18	59.1827
1603.72	58.8229
1605.26	58.3154
1606.8	57.6455
1608.34	56.7318
1609.87	56.1355
1611.41	55.7499
1612.95	55.0991
1614.49	54.3559
1616.03	53.7066
1617.57	53.2038
1619.11	53.811
1620.64	53.3633
1622.18	53.9609
1623.72	54.0385
1625.25	53.5364
1626.79	53.4201
1628.32	53.7011
1629.86	53.7031
1631.4	54.4511
1632.93	54.3875
1634.47	55.0179
1636	56.0543
1637.53	56.9677
1639.07	58.2719
1640.6	59.742
1642.14	61.2021
1643.67	63.6058
1645.2	66.1861
1646.73	68.1091
1648.27	70.1895
1649.8	70.8725
1651.33	71.1896
1652.86	71.7829
1654.39	72.9089
1655.92	73.8521
1657.45	75.1041
1658.98	75.4135
1660.51	75.3441
1662.04	73.9616
1663.57	73.3191
1665.1	73.0805
1666.63	71.4808
1668.16	70.576
1669.69	69.623
1671.21	67.988
1672.74	66.1349
1674.27	65.0377
1675.79	63.6614
1677.32	61.3387
1678.85	59.2479
1680.37	57.05
1681.9	54.9591
1683.42	52.5851
1684.95	49.602
1686.47	47.5303
1688	45.9177
1689.52	43.2409
1691.05	41.4325
1692.57	39.2772
1694.1	37.106
1695.62	35.076
1697.14	32.3172
1698.66	30.8272
1700.19	28.9594
1701.71	26.8758
1703.23	25.5632
1704.75	23.2445
1706.27	21.2202
1707.79	19.7462
1709.32	18.2574
1710.83	17.5064
1712.35	16.0819
1713.88	16.1557
1715.39	15.0755
1716.91	14.2262
1718.43	13.5615
1719.95	12.9972
1721.47	12.6565
1722.99	11.1347
1724.5	9.71339
1726.02	9.22556
1727.54	8.53156
1729.06	8.70605
1730.57	8.56711
1732.09	8.20707
1733.61	7.78726
1735.12	6.90065
1736.64	6.0837
1738.15	5.66769
1739.67	5.58091
1741.18	5.34885
1742.7	5.07849
1744.21	5.38172
1745.72	4.86202
1747.24	4.21648
1748.75	3.99858
1750.26	4.06098
1751.78	4.20411
1753.29	4.00717
1754.8	4.47071
1756.31	4.96869
1757.82	5.61487
1759.34	5.21461
1760.85	4.26179
1762.36	4.94324
1763.87	5.15982
1765.38	5.11353
1766.89	5.63368
1768.4	4.92727
1769.91	4.36652
1771.41	4.08709
1772.92	3.74492
1774.43	3.69754
1775.94	3.618
1777.45	3.3669
1778.96	3.13433
1780.46	2.7595
1781.97	3.15629
1783.48	3.10004
1784.98	3.10619
1786.49	3.36087
1788	3.35444
1789.5	3.34206
1791.01	2.48214
1792.51	2.64272
1794.01	3.02783
1795.52	2.72902
1797.02	1.96882
1798.53	1.76789
1800.03	2.1944
1801.54	2.57615
1803.04	2.29855
1804.54	2.67883
1806.04	2.51456
1807.54	2.72816
1809.05	3.14165
1810.55	3.12572
1812.05	3.12853
1813.55	3.4313
1815.05	3.34442
1816.55	3.70672
1818.05	4.05775
1819.55	3.97156
1821.05	3.36322
1822.55	3.12371
1824.05	3.38572
1825.55	3.45303
1827.05	4.00401
1828.55	4.20662
1830.04	4.45441
1831.54	3.78124
1833.04	2.96696
1834.54	2.38126
1836.03	2.38846
1837.53	3.57104
1839.03	3.52223
1840.52	3.04862
1842.02	2.53155
1843.51	2.4735
1845.01	2.75627
1846.5	2.98727
1848	2.74148
1849.49	3.69344
1850.99	3.73531
1852.48	3.86737
1853.97	3.6154
1855.47	3.42403
1856.96	3.28683
1858.45	3.41266
1859.94	3.11604
1861.44	2.53502
1862.93	2.24409
1864.42	2.02289
1865.91	2.19786
1867.4	1.91857
1868.89	1.99598
1870.38	1.4574
1871.87	1.92223
1873.36	2.07529
1874.85	2.002
1876.34	1.63855
1877.83	1.15068
1879.32	0.800109
1880.81	0.510938
1882.3	1.43961
1882.56	1.29273
1884.06	1.14204
1885.55	0.775821
1887.04	0.725262
1888.54	0.773523
1890.03	0.736057
1891.52	0.61308
1893.02	0.572582
1894.51	0.364608
1896	1.02631
1897.49	0.624066
1898.99	0.579455
1900.48	1.23199
1901.97	1.73298
1903.46	1.59275
1904.95	1.62498
1906.44	2.58172
1907.93	2.54298
1909.42	2.81588
1910.91	3.1017
1912.4	2.73147
1913.89	3.20141
1915.38	3.75858
1916.86	4.19301
1918.35	4.39325
1919.84	4.21532
1921.33	4.02593
1922.82	4.09331
1924.3	4.06938
1925.79	4.50036
1927.28	3.71724
1928.76	4.00298
1930.25	3.81998
1931.74	4.04159
1933.22	3.56055
1934.71	3.44971
1936.19	3.31434
1937.67	3.13949
1939.16	2.64306
1940.64	2.91453
1942.13	2.751
1943.61	2.02351
1945.09	1.86251
1946.58	1.71634
1948.06	1.84792
1949.54	1.54661
1951.03	0.964182
1952.51	1.4982
1953.99	2.11313
1955.47	2.18407
1956.95	2.00979
1958.43	2.38443
1959.91	2.61015
1961.39	3.43948
1962.87	3.75361
1964.35	3.40075
1965.83	3.69416
1967.31	3.95302
1968.79	3.59298
1970.27	3.70437
1971.75	4.10715
1973.22	5.09886
1974.7	5.96025
1976.18	5.59987
1977.66	4.865
1979.13	5.22188
1980.61	4.95513
1982.09	4.17862
1983.56	4.33632
1985.04	4.4457
1986.52	4.77216
1987.99	5.34031
1989.47	4.45125
1990.94	4.27968
1992.41	4.62467
1993.89	3.97631
1995.36	3.23194
1996.84	3.00857
1998.31	2.82331
1999.78	2.97274
2001.26	2.57255
2002.73	3.08594
2004.2	2.85831
2005.67	2.61956
2007.15	2.13571
2008.62	1.91313
2010.09	1.51555
2011.56	1.40521
2013.03	1.18831
2014.5	1.67651
2015.97	0.897551
2017.44	0.756038
2018.91	1.52078
2020.38	1.69511
2021.85	1.81688
2023.32	1.44096
2024.79	1.95999
2026.25	3.55039
2027.72	3.69596
2029.19	3.46315
2030.66	4.16962
2032.13	4.26655
2033.59	4.83332
2035.06	4.9381
2036.53	4.38998
2037.99	4.63571
2039.46	5.52405
2040.92	5.87834
2042.39	6.33487
2043.85	7.16464
2045.32	8.30914
2046.78	8.53185
2048.25	8.57469
2049.71	8.36123
2051.18	9.03419
2052.64	10.27
2054.1	10.9881
2055.56	11.7848
2057.03	12.4547
2058.49	12.9991
2059.95	13.0498
2061.42	12.8941
2062.88	13.1398
2064.34	14.6811
2065.8	14.6603
2067.26	14.1289
2068.72	14.7462
2070.18	15.5887
2071.64	16.5477
2073.1	18.0741
2074.56	18.2358
2076.02	19.2096
2077.48	19.2984
2078.94	19.0534
2080.39	19.037
2081.85	19.165
2083.31	20.2164
2084.77	21.0662
2086.22	21.5301
2087.68	22.5464
2089.14	22.6347
2090.6	23.1783
2092.05	24.2647
2093.51	25.0831
2094.96	26.7307
2096.42	27.9792
2097.87	29.5395
2099.33	30.4814
2100.78	30.9535
2102.24	32.157
2103.69	33.5267
2105.15	34.1425
2106.6	35.4133
2108.05	36.3379
2109.51	37.5405
2110.96	38.9491
2112.41	40.8054
2113.86	42.1257
2115.32	43.2983
2116.77	44.5746
2118.22	46.4608
2119.67	47.7337
2121.12	49.4334
2122.57	51.3233
2124.02	53.1277
2125.47	54.5032
