#Acq. time (s)=	45
#Accumulations=	2
#Range (cm-¹)=	200...3150
#Windows=	2
#Auto scanning=	Off
#Autofocus=	Off
#Macrospot=	Off
#AutoExposure=	Off
#Spike filter=	Multiple accum.
#Delay time (s)=	0
#Binning=	1
#Readout mode=	Signal
#DeNoise=	Off
#ICS correction=	On
#Dark correction=	Off
#Inst. Process=	Off
#Detector Gain=	Best Dynamic Range
#Detector ADC=	20 kHz       
#Detector temperature (°C)=	-69.85
#Instrument=	LabRAM HR Evol
#Detector=	Synapse
#Objective=	x100
#Grating=	600 gr/mm
#ND Filter=	100%
#Laser (nm)=	532 
#Hole=	100.021
#Range=	Auto
#Laser Pol.=	No
#Raman. Pol.=	No
#Laser Pol. (°)=	-0.0007625
#Raman Pol. (°)=	89.9995
#Collection=	Microscope
#StageXY=	Marzhauser
#StageZ=	Marzhauser
#X (µm)=	-5936.9
#Y (µm)=	2867.1
#Z (µm)=	-223.35
#Full time(mm:ss)=	3:18
#Project=	
#Sample=	
#Site=	
#Title=	Thy_20_09_49_2x_45s_532 nm_x100_100%_600 gr_mm
#Remark=	
#Date=	29.06.2022 14:04
#Acquired=	29.06.2022 14:04:13
#Base:Fit=	10.08.2022 09:52:02
#Base:Fit=	10.08.2022 09:52:12
#Base:Sub=	10.08.2022 09:54:21
#Filter:Polynom=	16.08.2022 10:24:04
#AxisType[0]=Intens
#AxisUnit[0]=Cnt
#AxisType[1]=Spectr
#AxisUnit[1]=1/cm
200.523	21.2872
202.339	19.6709
204.154	17.6536
205.967	16.0601
207.781	14.7794
209.596	13.61
211.409	12.6917
213.222	11.883
215.034	10.8914
216.848	9.68253
218.659	9.07279
220.47	7.6527
222.281	7.4004
224.091	6.40837
225.903	5.03319
227.713	5.25464
229.522	5.95129
231.331	5.75535
233.14	5.52792
234.948	5.14495
236.756	5.75799
238.566	5.98911
240.373	6.15206
242.18	6.75834
243.986	7.1467
245.792	7.29216
247.598	8.17387
249.403	8.9484
251.208	9.49055
253.013	10.0731
254.818	10.8338
256.624	10.5898
258.427	9.82373
260.231	10.94
262.034	11.4477
263.836	12.0587
265.638	13.4158
267.44	13.8115
269.242	14.9695
271.043	15.4185
272.844	15.2052
274.645	15.7182
276.445	15.784
278.245	16.7908
280.044	16.2118
281.843	16.4135
283.642	16.3635
285.44	16.9984
287.238	17.6787
289.036	17.7807
290.833	17.8653
292.63	19.502
294.425	20.1408
296.221	20.2539
298.017	20.2472
299.813	20.4317
301.608	20.1837
303.403	20.2449
305.198	20.0005
306.992	19.5567
308.786	19.6155
310.579	20.1041
312.371	21.1762
314.163	20.3956
315.956	20.7312
317.748	21.7731
319.54	22.0514
321.331	21.1606
323.122	21.6179
324.911	21.6077
326.701	22.6976
328.491	22.1315
330.281	21.4877
332.071	21.0487
333.857	20.6631
335.646	21.1046
337.434	20.8982
339.222	20.3479
341.008	19.5313
342.795	19.505
344.582	19.1734
346.369	18.022
348.153	17.663
349.939	17.9522
351.724	16.9238
353.51	16.3791
355.292	16.0747
357.077	14.8406
358.861	15.1272
360.643	13.8023
362.426	13.2097
364.21	13.0562
365.99	12.2898
367.773	11.5992
369.555	10.5089
371.335	10.2128
373.116	10.1085
374.897	11.0292
376.676	10.5484
378.456	10.706
380.236	10.4004
382.014	10.6821
383.793	10.1437
385.57	10.7662
387.349	11.4979
389.127	11.6668
390.903	10.7873
392.681	11.2762
394.456	11.6029
396.233	11.7511
398.007	12.6493
399.784	12.3495
401.56	11.3775
403.333	10.5853
405.108	11.2875
406.881	12.0809
408.656	11.9569
410.428	12.1394
412.202	12.6214
413.973	12.3338
415.746	12.5366
417.517	11.6226
419.29	11.1541
421.06	11.456
422.831	11.7289
424.601	11.4785
426.37	10.5633
428.141	10.4311
429.909	9.71105
431.679	9.59679
433.447	9.10674
435.216	8.98023
436.983	8.41689
438.75	7.87008
440.519	7.30279
442.285	6.74151
444.052	6.17955
445.818	5.62488
447.583	5.77437
449.349	5.32944
451.114	4.85922
452.878	4.57762
454.643	3.40771
456.407	2.71595
458.169	3.0523
459.934	2.2399
461.696	1.81608
463.458	1.87336
465.222	1.20357
466.983	1.46231
468.744	1.41292
470.507	2.32555
472.267	2.34713
474.027	2.46171
475.787	1.49538
477.548	0.475841
479.307	0.79557
481.065	2.18205
482.823	2.86502
484.583	2.79949
486.341	3.69725
488.098	3.38062
489.855	3.7833
491.612	5.27973
493.37	6.54273
495.126	7.10584
496.881	7.15531
498.636	7.64698
500.391	7.95939
502.148	8.83419
503.902	9.05402
505.656	9.45641
507.409	10.1185
509.162	10.6262
510.915	10.8938
512.668	11.311
514.42	12.2421
516.174	12.5899
517.925	12.7481
519.676	13.4602
521.427	13.6989
523.178	13.8619
524.928	14.0972
526.678	14.1289
528.427	14.283
530.176	13.9001
531.925	14.6036
533.673	14.5364
535.422	14.2854
537.169	13.6384
538.917	12.0705
540.664	11.4477
542.411	11.2752
544.157	11.2228
545.903	9.96219
547.649	8.41699
549.395	8.3795
551.14	8.66466
552.884	8.25107
554.629	7.3805
556.373	6.74331
558.117	6.36608
559.86	5.46827
561.603	5.00341
563.346	4.44208
565.089	4.04277
566.831	4.90522
568.573	5.02884
570.314	4.77056
572.053	4.39635
573.794	4.07092
575.534	2.844
577.274	2.05512
579.014	2.79652
580.754	2.83785
582.493	2.30178
584.23	2.64928
585.968	2.32212
587.706	2.59153
589.444	2.24533
591.181	2.12633
592.919	2.31099
594.653	2.4768
596.39	2.0745
598.126	2.39697
599.862	2.84236
601.595	3.47327
603.33	2.9204
605.065	2.71681
606.8	2.41237
608.532	1.98232
610.266	1.70381
611.999	1.45539
613.732	1.27582
615.463	1.08759
617.196	0.72317
618.928	1.03526
620.66	0.765365
622.389	0.425445
624.12	-0.275484
625.851	-0.0463593
627.58	0.873754
629.31	1.33523
631.04	0.85909
632.767	0.151647
634.497	1.30988
636.223	2.51381
637.952	3.18551
639.68	3.41268
641.406	2.78708
643.134	3.46036
644.861	4.48486
646.586	5.01572
648.312	5.80081
650.037	6.81196
651.762	7.28711
653.486	8.61026
655.211	9.32595
656.936	9.81321
658.659	11.5385
660.383	12.7073
662.105	13.2132
663.829	14.4204
665.55	16.4372
667.273	17.3704
668.994	17.9377
670.716	17.7526
672.436	18.0681
674.158	19.2007
675.877	20.3
677.598	21.7376
679.317	22.6513
681.035	23.6468
682.755	23.6221
684.473	24.8964
686.192	25.4862
687.909	25.7271
689.628	25.5407
691.344	26.1998
693.06	26.629
694.778	26.69
696.493	26.7257
698.211	26.5348
699.925	26.4874
701.64	26.8633
703.356	27.824
705.07	28.2847
706.783	28.5133
708.498	28.7543
710.211	29.5257
711.924	31.0721
713.638	31.3621
715.35	30.9128
717.061	31.4285
718.774	33.2433
720.485	34.7012
722.196	35.2028
723.906	36.0924
725.618	36.6332
727.328	37.108
729.037	37.9649
730.746	37.9735
732.456	38.0951
734.165	38.1599
735.873	38.005
737.58	38.1355
739.289	39.2236
740.997	39.9753
742.703	40.6801
744.41	41.2495
746.116	40.9126
747.823	40.7761
749.529	42.3814
751.234	43.4557
752.938	43.3763
754.643	43.9635
756.347	43.8064
758.051	45.4784
759.756	46.8498
761.459	47.6842
763.162	47.8561
764.865	48.9205
766.567	49.8682
768.269	49.5425
769.97	51.0066
771.671	51.6194
773.372	52.2914
775.073	52.8612
776.773	53.2426
778.473	53.6714
780.174	53.7184
781.874	54.8354
783.573	55.1819
785.271	55.7528
786.97	57.3625
788.668	58.2153
790.365	58.8604
792.063	59.5762
793.76	60.8973
795.456	61.7966
797.153	61.9748
798.847	62.7232
800.543	63.1791
802.238	63.9938
803.933	64.9851
805.628	64.7686
807.322	64.6691
809.017	65.3518
810.71	64.6731
812.404	64.8238
814.097	63.8822
815.79	64.0072
817.483	64.1663
819.173	63.7669
820.865	64.6144
822.556	64.638
824.248	63.7632
825.939	63.0003
827.629	62.3431
829.318	61.7445
831.008	61.5036
832.697	61.8557
834.387	61.5369
836.076	60.543
837.765	59.1397
839.451	58.5595
841.139	57.4508
842.827	57.4672
844.514	56.7056
846.2	55.4729
847.886	54.739
849.573	54.1294
851.259	53.6983
852.943	52.4822
854.629	51.8662
856.314	51.4062
857.997	49.4233
859.682	48.4783
861.366	47.4355
863.05	46.8357
864.732	45.0972
866.415	44.4594
868.098	42.3921
869.779	42.0726
871.461	42.3827
873.141	41.3772
874.823	40.9068
876.505	39.826
878.184	40.0165
879.865	39.1974
881.545	38.739
883.223	39.8189
884.903	39.4767
886.581	39.0201
888.26	39.7189
889.937	39.234
891.616	39.415
893.294	39.7316
894.97	39.5416
896.648	39.8578
898.323	39.0404
900	40.124
901.675	40.1464
903.351	39.5827
905.026	40.4203
906.701	39.6941
908.375	38.8614
910.05	39.2463
911.723	39.1623
913.398	39.0285
915.07	39.0157
916.742	39.4214
918.415	38.7239
920.087	39.0165
921.76	38.1605
923.43	38.3622
925.103	38.1293
926.773	38.0713
928.443	37.9941
930.114	38.2171
931.783	37.86
933.454	37.117
935.123	37.6964
936.791	36.3517
938.461	35.2798
940.128	34.8588
941.796	33.6545
943.464	33.2478
945.131	32.577
946.797	32.4579
948.465	31.5445
950.131	31.3251
951.797	30.2131
953.462	30.4101
955.128	29.9333
956.793	29.4491
958.457	28.7842
960.121	27.9539
961.786	28.7983
963.45	27.9237
965.113	27.6125
966.775	28.5605
968.44	28.0133
970.102	27.3823
971.763	27.2705
973.425	26.7875
975.086	26.3016
976.748	25.4941
978.409	24.4234
980.069	24.0692
981.729	23.9275
983.388	24.914
985.048	24.3784
986.708	23.9672
988.367	23.1956
990.025	21.8968
991.683	20.8564
993.341	20.8926
994.998	20.6268
996.655	20.0666
998.312	20.5049
999.969	20.9428
1001.62	19.6947
1003.28	19.4766
1004.94	19.0483
1006.59	19.4492
1008.25	19.3107
1009.9	19.2577
1011.56	19.1791
1013.21	17.8189
1014.86	16.8052
1016.52	16.4181
1018.17	16.5238
1019.82	15.6724
1021.48	15.8879
1023.13	15.5895
1024.78	15.7681
1026.43	15.4337
1028.08	15.0709
1029.73	14.2693
1031.38	13.7811
1033.03	13.0694
1034.68	12.4579
1036.33	12.5629
1037.98	12.5513
1039.63	12.5025
1041.28	11.7753
1042.93	13.3733
1044.57	13.8384
1046.22	13.1268
1047.87	13.3823
1049.52	13.4903
1051.16	12.3059
1052.81	12.2219
1054.45	12.705
1056.1	12.4424
1057.75	12.035
1059.39	12.1998
1061.04	12.1993
1062.68	12.9692
1064.32	12.8841
1065.97	12.8818
1067.61	12.274
1069.25	11.0232
1070.9	10.6594
1072.54	10.4073
1074.18	10.3758
1075.82	10.884
1077.47	10.5134
1079.11	9.85141
1080.75	10.2524
1082.39	9.20299
1084.03	7.95413
1085.67	9.31108
1087.31	9.72322
1088.95	9.84268
1090.59	10.0528
1092.22	10.1124
1093.86	10.2606
1095.5	10.2474
1097.14	10.728
1098.78	11.5726
1100.41	12.6004
1102.05	13.3523
1103.69	13.6408
1105.32	13.2136
1106.96	13.589
1108.59	13.1032
1110.23	13.3328
1111.86	13.5598
1113.5	13.6187
1115.13	13.413
1116.77	13.5725
1118.4	13.9683
1120.03	13.2042
1121.67	12.835
1123.3	12.9921
1124.93	13.2868
1126.56	12.0674
1128.19	11.8617
1129.83	11.3418
1131.46	11.2744
1133.09	11.6137
1134.72	11.3322
1136.35	10.9401
1137.98	10.1245
1139.61	9.54217
1141.24	9.34083
1142.86	8.2516
1144.49	7.50992
1146.12	6.95307
1147.75	6.65675
1149.38	5.72496
1151	5.31109
1152.63	5.2342
1154.26	4.70655
1155.88	4.29459
1157.51	4.11505
1159.14	3.34088
1160.76	3.17638
1162.39	3.57962
1164.01	3.87327
1165.63	4.89643
1167.26	6.64049
1168.88	6.43533
1170.51	6.79647
1172.13	7.16833
1173.75	8.04969
1175.38	8.21382
1177	8.39998
1178.62	8.8023
1180.24	9.37586
1181.86	9.70001
1183.48	9.39488
1185.1	9.30884
1186.72	9.68735
1188.34	10.2935
1189.96	10.3947
1191.58	10.318
1193.2	9.6235
1194.82	10.3455
1196.44	10.886
1198.06	10.7715
1199.68	11.4527
1201.29	11.3747
1202.91	12.3239
1204.53	13.1306
1206.14	13.1165
1207.76	13.7139
1209.38	14.0595
1210.99	14.4549
1212.61	15.4598
1214.22	16.114
1215.84	16.8197
1217.45	18.3508
1219.07	19.1365
1220.68	19.7328
1222.29	20.5218
1223.91	21.8718
1225.52	23.591
1227.13	25.0174
1228.74	25.8844
1230.36	26.2184
1231.97	27.4671
1233.58	27.4213
1235.19	28.0392
1236.8	28.4209
1238.41	29.546
1240.02	29.9351
1241.63	31.1706
1243.24	32.6986
1244.85	33.3866
1246.46	33.9029
1248.07	34.4954
1249.67	34.6054
1251.28	34.8877
1252.89	35.475
1254.5	35.7378
1256.1	35.9633
1257.71	36.5985
1259.32	37.0504
1260.92	37.5078
1262.53	37.9119
1264.13	38.6396
1265.74	39.726
1267.34	39.6233
1268.95	40.2784
1270.55	40.6001
1272.15	41.1269
1273.76	42.629
1275.36	43.0193
1276.97	43.5652
1278.57	44.056
1280.17	44.7486
1281.77	44.9929
1283.37	45.8611
1284.97	46.7293
1286.58	47.5892
1288.18	47.9188
1289.78	48.7817
1291.38	49.6155
1292.98	50.0741
1294.58	51.4717
1296.18	51.8921
1297.78	51.3834
1299.37	51.9562
1300.97	53.017
1302.57	53.6133
1304.17	54.2155
1305.77	54.536
1307.36	54.3687
1308.96	53.9859
1310.55	53.7074
1312.15	54.1454
1313.75	53.5163
1315.34	53.901
1316.94	53.6166
1318.53	53.7595
1320.13	54.0618
1321.72	55.342
1323.32	54.7145
1324.91	53.2837
1326.5	52.601
1328.1	52.1944
1329.69	51.2835
1331.28	50.9341
1332.87	50.562
1334.47	50.178
1336.06	49.8994
1337.65	48.8551
1339.24	48.2695
1340.83	48.0414
1342.42	47.3342
1344.01	47.0152
1345.6	46.1553
1347.19	44.7712
1348.78	44.8029
1350.37	43.5249
1351.96	42.6745
1353.54	42.4995
1355.13	41.2695
1356.72	41.5914
1358.31	40.4761
1359.89	40.1723
1361.48	39.073
1363.07	38.0228
1364.65	37.0327
1366.24	36.495
1367.82	35.4996
1369.41	35.2332
1370.99	34.0826
1372.58	33.9855
1374.16	34.3402
1375.75	33.4788
1377.33	33.7366
1378.91	34.2598
1380.5	33.6999
1382.08	33.2841
1383.66	33.2769
1385.25	33.8194
1386.83	33.4696
1388.41	32.944
1389.99	33.2142
1391.57	33.3308
1393.15	33.6475
1394.73	34.4383
1396.31	34.5206
1397.89	35.106
1399.47	35.0045
1401.05	34.9648
1402.63	32.9165
1404.21	32.1026
1405.78	32.5358
1407.36	32.5733
1408.94	32.9573
1410.52	33.6078
1412.1	34.4854
1413.67	36.2572
1415.25	36.3038
1416.82	37.0431
1418.4	38.63
1419.98	39.1497
1421.55	40.0973
1423.13	41.571
1424.7	42.85
1426.28	44.2943
1427.85	46.2553
1429.42	47.3984
1431	49.6126
1432.57	50.9261
1434.14	52.392
1435.71	53.7882
1437.29	54.9983
1438.86	55.8461
1440.43	56.2023
1442	57.4363
1443.57	59.0364
1445.14	59.6918
1446.71	59.7413
1448.28	60.3897
1449.85	61.0117
1451.42	61.3282
1452.99	61.1619
1454.56	60.5372
1456.13	59.2066
1457.7	57.8544
1459.26	56.8485
1460.83	56.3451
1462.4	55.8649
1463.97	54.8509
1465.54	53.372
1467.1	51.8296
1468.67	50.6711
1470.23	49.1404
1471.8	48.0294
1473.36	45.5574
1474.93	43.4678
1476.49	41.1979
1478.06	39.1214
1479.62	36.3981
1481.19	34.0913
1482.75	32.3558
1484.31	30.8247
1485.88	29.1378
1487.44	28.6013
1489	27.5581
1490.56	27.09
1492.13	25.4307
1493.69	23.9509
1495.25	22.7778
1496.81	22.6974
1498.37	21.7693
1499.93	22.1784
1501.49	22.7852
1503.05	23.0562
1504.61	23.286
1506.17	23.5844
1507.73	23.5026
1509.28	24.0444
1510.84	23.9118
1512.4	24.0818
1513.96	24.0879
1515.52	24.002
1517.07	23.4724
1518.63	24.0463
1520.19	24.626
1521.74	25.142
1523.3	24.6238
1524.85	25.3158
1526.41	25.5995
1527.96	25.6646
1529.52	25.9351
1531.07	26.5753
1532.63	27.4198
1534.18	27.7156
1535.73	29.125
1537.29	30.4055
1538.84	33.2241
1540.39	34.4642
1541.94	34.6187
1543.5	35.9442
1545.05	37.1591
1546.6	38.3443
1548.15	39.0853
1549.7	40.1903
1551.25	40.7219
1552.8	41.6181
1554.35	42.0829
1555.9	42.8088
1557.45	43.8676
1559	45.2871
1560.55	46.1467
1562.1	47.7754
1563.65	48.8782
1565.19	50.0972
1566.74	49.721
1568.29	49.8666
1569.83	50.0038
1571.38	51.7703
1572.93	52.7566
1574.47	54.6782
1576.02	55.4375
1577.56	57.2174
1579.11	58.4261
1580.66	58.1888
1582.2	59.0307
1583.74	59.1421
1585.29	58.68
1586.83	58.9591
1588.38	58.9386
1589.92	59.1762
1591.46	59.2325
1593.01	58.4775
1594.55	58.5917
1596.09	58.8153
1597.63	57.9623
1599.17	57.0278
1600.71	56.9862
1602.25	57.3104
1603.79	56.1482
1605.34	55.8351
1606.88	54.9435
1608.41	54.528
1609.95	54.2658
1611.49	53.4256
1613.03	53.235
1614.57	52.5444
1616.11	52.7304
1617.65	51.0133
1619.18	50.0352
1620.72	50.7656
1622.26	50.677
1623.79	50.2114
1625.33	49.4147
1626.87	49.6371
1628.4	48.6976
1629.94	48.583
1631.48	48.438
1633.01	49.0192
1634.55	49.4265
1636.08	48.7153
1637.61	48.8136
1639.15	48.7197
1640.68	48.6446
1642.21	48.5787
1643.75	49.0533
1645.28	50.7894
1646.81	51.4167
1648.34	51.8429
1649.88	51.2468
1651.41	51.3346
1652.94	51.7762
1654.47	52.3051
1656	52.1809
1657.53	51.6325
1659.06	51.6318
1660.59	50.3537
1662.12	49.704
1663.65	49.6912
1665.18	48.879
1666.71	47.8893
1668.24	46.8722
1669.76	45.9256
1671.29	45.0056
1672.82	43.7079
1674.35	41.6077
1675.87	40.6703
1677.4	39.4175
1678.93	37.4645
1680.45	35.2037
1681.98	33.9353
1683.5	32.3048
1685.03	31.6295
1686.55	29.9608
1688.08	28.3067
1689.6	26.5829
1691.13	24.5344
1692.65	23.2822
1694.17	20.9807
1695.7	19.5247
1697.22	18.7399
1698.74	17.038
1700.27	15.3429
1701.79	14.1324
1703.31	12.9011
1704.83	11.1756
1706.35	10.3346
1707.87	9.23476
1709.39	8.35135
1710.91	7.76877
1712.43	7.64673
1713.95	7.64956
1715.47	7.33775
1716.99	6.88409
1718.51	6.00247
1720.03	6.48928
1721.55	5.88292
1723.07	5.40202
1724.58	5.18037
1726.1	5.84153
1727.62	6.38247
1729.13	6.57494
1730.65	6.44448
1732.17	6.86471
1733.68	6.95391
1735.2	7.01222
1736.72	6.85868
1738.23	6.98077
1739.74	7.43267
1741.26	6.70418
1742.77	6.76235
1744.29	6.9794
1745.8	6.25172
1747.32	6.07382
1748.83	6.28816
1750.34	5.85043
1751.85	6.52864
1753.37	6.45986
1754.88	6.68779
1756.39	6.76909
1757.9	6.83923
1759.41	6.87605
1760.92	6.77578
1762.44	5.44601
1763.95	4.86995
1765.46	4.39501
1766.96	4.15333
1768.47	3.82166
1769.98	3.24406
1771.49	3.75933
1773	4.13938
1774.51	3.85283
1776.02	4.06542
1777.53	4.19331
1779.03	3.77316
1780.54	3.86559
1782.05	4.23027
1783.55	4.6066
1785.06	5.2041
1786.57	5.9778
1788.07	6.18988
1789.58	5.93791
1791.08	6.15941
1792.59	6.51804
1794.09	6.6212
1795.6	7.26864
1797.1	7.20897
1798.61	7.36509
1800.11	6.97699
1801.61	7.24131
1803.12	7.30565
1804.62	7.92914
1806.12	8.03673
1807.62	8.09718
1809.12	7.82177
1810.63	7.72402
1812.13	7.72697
1813.63	7.3379
1815.13	6.90306
1816.63	6.52704
1818.13	7.04726
1819.63	7.09531
1821.13	6.60112
1822.63	6.97619
1824.13	7.16735
1825.63	6.68871
1827.13	6.82917
1828.62	6.6463
1830.12	6.1468
1831.62	5.94421
1833.12	5.6647
1834.61	5.3583
1836.11	4.55417
1837.61	4.10636
1839.1	4.2236
1840.6	3.92391
1842.09	3.63418
1843.59	3.46835
1845.09	3.3697
1846.58	3.64521
1848.08	3.72125
1849.57	3.39298
1851.06	3.3639
1852.56	3.40224
1854.05	3.1217
1855.54	3.1371
1857.04	2.78177
1858.53	2.91689
1860.02	2.6132
1861.51	2.15863
1863.01	2.14622
1864.5	2.28718
1865.99	2.3609
1867.48	2.28335
1868.97	2.23648
1870.46	2.77509
1871.95	2.78745
1873.44	2.44925
1874.93	2.08649
1876.42	2.65336
1877.91	2.81467
1879.4	3.25976
1880.89	3.12525
1882.37	3.55371
1882.46	4.30233
1883.95	4.31059
1885.45	4.45192
1886.94	4.6526
1888.43	5.30294
1889.93	6.0234
1891.42	6.64903
1892.91	7.14181
1894.41	6.76932
1895.9	6.59243
1897.39	6.18283
1898.88	6.15119
1900.37	6.57422
1901.86	6.575
1903.36	6.24017
1904.85	6.64033
1906.34	7.31845
1907.83	7.51681
1909.32	6.97833
1910.81	6.83501
1912.29	6.33859
1913.78	6.38492
1915.27	6.59149
1916.76	6.54226
1918.25	6.05533
1919.74	6.19198
1921.23	6.15411
1922.71	5.85756
1924.2	5.4959
1925.69	5.02383
1927.17	4.38259
1928.66	3.8252
1930.15	3.3836
1931.63	3.32054
1933.12	3.41618
1934.6	3.26482
1936.09	2.8803
1937.57	2.85601
1939.06	2.44973
1940.54	2.16393
1942.02	2.62684
1943.51	2.46247
1944.99	1.82315
1946.47	1.32063
1947.96	0.750457
1949.44	1.54074
1950.92	1.89202
1952.4	2.21057
1953.88	2.28206
1955.37	3.26114
1956.85	3.48634
1958.33	3.48743
1959.81	3.55923
1961.29	3.44535
1962.77	2.57496
1964.25	2.40565
1965.73	2.1185
1967.21	1.89633
1968.69	1.79832
1970.16	1.5111
1971.64	1.50023
1973.12	1.75318
1974.6	2.09829
1976.08	2.11037
1977.55	2.42023
1979.03	2.68655
1980.51	2.90037
1981.98	2.26386
1983.46	2.18244
1984.94	2.48829
1986.41	2.83847
1987.89	3.32312
1989.36	3.7195
1990.84	3.59846
1992.31	3.38295
1993.79	3.89608
1995.26	3.82786
1996.73	3.55851
1998.21	4.24499
1999.68	4.36121
2001.15	5.11111
2002.63	5.64577
2004.1	6.0855
2005.57	6.42288
2007.04	6.44694
2008.51	5.97905
2009.99	5.89392
2011.46	6.36186
2012.93	6.46743
2014.4	5.98551
2015.87	6.43781
2017.34	6.29271
2018.81	6.38129
2020.28	6.6697
2021.75	7.23639
2023.21	8.09197
2024.68	8.41153
2026.15	8.76709
2027.62	9.1638
2029.09	9.8746
2030.56	9.03619
2032.02	8.91977
2033.49	8.5199
2034.96	8.72932
2036.42	8.54091
2037.89	8.71912
2039.36	9.19363
2040.82	9.48794
2042.29	9.27982
2043.75	8.75454
2045.22	8.82337
2046.68	9.08718
2048.14	9.57182
2049.61	9.7448
2051.07	9.9687
2052.54	9.88254
2054	10.2652
2055.46	10.7069
2056.93	11.1214
2058.39	11.2601
2059.85	11.4185
2061.31	11.5612
2062.77	11.684
2064.23	11.5255
2065.7	11.2615
2067.16	11.4199
2068.62	11.4093
2070.08	11.4775
2071.54	11.6321
2073	10.8542
2074.46	10.7777
2075.92	10.1152
2077.38	9.48337
2078.83	8.96032
2080.29	8.271
2081.75	7.8229
2083.21	7.18916
2084.67	7.14237
2086.12	6.64988
2087.58	6.52584
2089.04	7.00548
2090.49	6.79035
2091.95	6.47147
2093.41	6.21737
2094.86	6.29417
2096.32	5.96029
2097.77	6.09389
2099.23	6.3659
2100.68	5.98715
2102.14	6.53081
2103.59	6.40398
2105.05	6.34769
2106.5	6.22867
2107.95	6.56631
2109.41	6.35802
2110.86	6.79871
2112.31	7.37334
2113.76	7.22891
2115.21	7.07675
2116.67	7.73432
2118.12	8.14374
2119.57	9.05371
2121.02	9.22414
2122.47	9.55539
2123.92	10.0033
2125.37	10.6078
2126.82	11.2263
2128.27	11.923
2129.72	12.1074
2131.17	12.5662
2132.62	12.9614
2134.07	13.7175
