#Acq. time (s)=	45
#Accumulations=	2
#Range (cm-¹)=	200...3150
#Windows=	2
#Auto scanning=	Off
#Autofocus=	Off
#Macrospot=	Off
#AutoExposure=	Off
#Spike filter=	Multiple accum.
#Delay time (s)=	0
#Binning=	1
#Readout mode=	Signal
#DeNoise=	Off
#ICS correction=	On
#Dark correction=	Off
#Inst. Process=	Off
#Detector Gain=	Best Dynamic Range
#Detector ADC=	20 kHz       
#Detector temperature (°C)=	-69.85
#Instrument=	LabRAM HR Evol
#Detector=	Synapse
#Objective=	x100
#Grating=	600 gr/mm
#ND Filter=	100%
#Laser (nm)=	532 
#Hole=	100.021
#Range=	Auto
#Laser Pol.=	No
#Raman. Pol.=	No
#Laser Pol. (°)=	-0.0007625
#Raman Pol. (°)=	89.9995
#Collection=	Microscope
#StageXY=	Marzhauser
#StageZ=	Marzhauser
#X (µm)=	-2373.6
#Y (µm)=	224.7
#Z (µm)=	521.55
#Full time(mm:ss)=	3:18
#Project=	
#Sample=	
#Site=	
#Title=	Thy_10_08_36_2x_45s_532 nm_x100_100%_600 gr_mm
#Remark=	
#Date=	06.07.2022 14:21
#Acquired=	06.07.2022 14:21:06
#Base:Fit=	10.08.2022 09:46:25
#Base:Sub=	10.08.2022 09:46:49
#Filter:Polynom=	16.08.2022 10:24:56
#AxisType[0]=Intens
#AxisUnit[0]=Cnt
#AxisType[1]=Spectr
#AxisUnit[1]=1/cm
200.398	-4.01697
202.213	-0.744467
204.027	-0.142428
205.843	0.569061
207.657	1.59987
209.47	2.6491
211.283	3.314
213.097	4.0025
214.909	4.30925
216.721	4.48792
218.533	4.38805
220.344	5.18309
222.157	5.34607
223.967	5.64064
225.777	5.78809
227.587	6.80763
229.396	7.05358
231.205	6.19065
233.016	6.44439
234.824	6.4214
236.632	7.0944
238.439	6.9035
240.247	6.94933
242.053	6.81764
243.86	6.72944
245.666	6.86045
247.474	6.40421
249.279	7.32859
251.085	7.00431
252.889	7.54905
254.694	7.34396
256.498	6.91086
258.301	7.14451
260.105	7.64174
261.908	8.55475
263.71	8.80472
265.513	8.76725
267.315	8.56915
269.116	8.80582
270.918	9.31916
272.718	10.1436
274.519	10.2963
276.319	11.1236
278.119	11.928
279.918	12.2482
281.718	12.6058
283.516	12.7514
285.315	13.1664
287.113	12.7254
288.911	12.3564
290.708	12.3095
292.505	12.5778
294.302	13.5351
296.098	13.7719
297.894	13.2061
299.69	13.1935
301.485	13.1279
303.278	13.3344
305.073	13.1536
306.867	13.9638
308.661	14.3591
310.454	14.2748
312.247	13.7209
314.04	13.5193
315.833	13.156
317.623	12.741
319.415	11.6129
321.206	10.5817
322.997	10.1771
324.788	9.77034
326.579	9.49439
328.367	8.66437
330.156	8.57408
331.946	7.62129
333.735	7.06342
335.523	7.21807
337.31	6.35796
339.098	6.78501
340.885	6.16462
342.673	6.89013
344.458	6.36181
346.244	6.0111
348.03	5.46123
349.816	5.11845
351.6	4.45138
353.385	3.82957
355.17	2.81762
356.953	2.68023
358.737	2.41115
360.521	2.48716
362.304	2.69222
364.085	2.54598
365.868	2.84776
367.65	3.0736
369.431	2.66496
371.212	2.05267
372.994	2.17256
374.773	1.97394
376.554	2.3337
378.332	3.10729
380.112	4.25274
381.892	4.5733
383.669	4.77777
385.448	4.64532
387.225	4.984
389.003	5.27785
390.781	5.61552
392.557	5.91547
394.334	6.40923
396.109	7.27295
397.885	6.84917
399.66	6.56918
401.436	6.56709
403.211	6.05678
404.984	5.9096
406.759	5.8062
408.532	5.98176
410.306	6.39026
412.078	6.86356
413.851	7.54682
415.623	7.75793
417.395	7.59614
419.166	7.60725
420.938	7.41242
422.708	7.57016
424.477	7.24368
426.248	6.90839
428.017	7.37049
429.788	7.26165
431.556	6.2053
433.326	5.1233
435.093	4.65915
436.86	4.47683
438.629	4.68631
440.395	4.88134
442.163	5.29687
443.929	4.90359
445.694	5.26603
447.461	5.47015
449.226	5.4328
450.99	5.76006
452.756	5.37682
454.52	5.88499
456.285	5.52717
458.048	5.50857
459.811	6.12618
461.573	6.99623
463.337	8.30077
465.099	8.84038
466.86	9.07303
468.623	9.50964
470.384	9.26404
472.144	9.70164
473.906	10.5207
475.666	10.6757
477.425	10.6836
479.184	11.5458
480.944	11.794
482.703	12.1921
484.461	12.5058
486.218	12.6115
487.975	13.1852
489.734	12.1488
491.491	12.4687
493.247	13.1314
495.003	13.5148
496.759	14.0011
498.516	14.7734
500.271	13.9381
502.025	13.3132
503.779	12.9039
505.533	12.1494
507.287	11.7891
509.042	11.1163
510.795	10.4768
512.547	10.2974
514.299	10.8364
516.051	10.0933
517.803	10.0403
519.554	10.2278
521.305	10.6794
523.055	11.1022
524.805	10.6781
526.555	10.2741
528.307	10.5808
530.056	9.60408
531.805	8.47856
533.553	8.49332
535.301	8.61113
537.049	8.22036
538.797	8.83044
540.544	8.5045
542.291	7.92906
544.037	7.56587
545.783	7.85554
547.529	7.53928
549.275	8.06586
551.02	7.61606
552.765	6.88052
554.509	7.02603
556.253	6.73892
557.997	6.59052
559.738	6.68383
561.482	6.27374
563.224	5.63048
564.967	6.4219
566.709	7.04462
568.451	7.08679
570.192	6.8591
571.933	6.79338
573.674	6.75541
575.415	5.28978
577.153	4.40237
578.893	4.95516
580.632	4.48719
582.371	4.26434
584.11	4.10225
585.849	3.80829
587.587	2.20389
589.323	2.24883
591.06	2.09895
592.797	2.24476
594.534	2.12096
596.271	2.64647
598.005	3.54006
599.741	3.49573
601.476	4.42193
603.211	4.13522
604.944	4.76228
606.679	5.67241
608.413	5.63514
610.147	5.8302
611.878	5.55963
613.611	5.83463
615.344	5.90078
617.077	5.65321
618.807	5.81973
620.539	6.73546
622.27	8.15378
623.999	8.71701
625.73	9.29139
627.461	9.1468
629.189	9.17389
630.919	10.101
632.648	9.79941
634.376	9.88308
636.105	10.405
637.833	10.2647
639.559	11.1182
641.287	11.4623
643.013	11.8121
644.74	12.7299
646.467	13.0449
648.192	13.8455
649.918	14.6098
651.642	14.9868
653.368	15.1621
655.091	15.3228
656.816	15.5651
658.538	15.9815
660.263	16.3861
661.987	16.5415
663.708	18.0822
665.432	18.5497
667.153	18.9657
668.875	20.2459
670.596	20.3505
672.318	20.2355
674.037	20.1041
675.759	21.5816
677.478	21.2916
679.196	21.5391
680.917	21.8716
682.635	22.8012
684.355	23.2678
686.072	23.8665
687.791	25.4547
689.508	25.9068
691.224	26.9548
692.942	28.1231
694.658	28.7203
696.376	29.5305
698.091	30.3854
699.805	30.5408
701.522	30.891
703.236	31.9025
704.95	32.7262
706.665	33.0529
708.379	35.1133
710.093	35.1752
711.806	35.2988
713.518	35.8286
715.23	36.6586
716.943	37.1572
718.655	37.0432
720.366	37.7711
722.078	37.5529
723.788	38.2058
725.498	39.5153
727.208	40.9852
728.919	42.2643
730.628	42.7615
732.337	43.2731
734.045	44.3514
735.755	45.1117
737.463	46.0744
739.17	47.6135
740.877	48.7621
742.584	50.0409
744.292	51.1916
745.998	52.1769
747.704	52.7096
749.409	54.0698
751.114	54.4878
752.819	55.2535
754.526	57.0287
756.23	57.5291
757.934	58.4883
759.637	59.7215
761.34	60.7715
763.043	61.3061
764.746	62.9105
766.448	64.9614
768.152	66.1973
769.853	67.5862
771.554	69.0333
773.255	69.4468
774.956	70.5216
776.656	71.3169
778.356	71.7992
780.056	71.9391
781.755	72.4727
783.454	72.9417
785.153	73.1903
786.851	73.762
788.549	74.2245
790.247	74.7368
791.944	76.2554
793.641	78.4558
795.338	78.362
797.034	78.5838
798.73	78.6716
800.426	79.0827
802.121	79.0933
803.817	79.0197
805.511	79.8651
807.206	80.495
808.9	82.1971
810.592	82.9393
812.286	83.0046
813.979	83.3534
815.672	83.2119
817.364	83.6576
819.057	84.3215
820.748	84.0281
822.44	84.3807
824.129	84.8851
825.82	84.6314
827.511	84.3077
829.201	83.1852
830.891	81.8813
832.581	81.2611
834.269	80.9436
835.958	80.077
837.646	79.6814
839.335	79.2683
841.023	77.7452
842.709	76.2404
844.396	75.4697
846.084	74.1132
847.77	72.8871
849.455	71.5365
851.141	71.0747
852.827	69.4102
854.513	67.94
856.196	66.5122
857.881	65.3696
859.566	64.0438
861.248	62.8276
862.932	60.5165
864.616	59.776
866.297	59.84
867.98	58.9502
869.663	58.4893
871.343	57.9612
873.026	57.6373
874.707	57.8026
876.387	58.509
878.068	58.0865
879.747	56.826
881.428	56.3815
883.108	56.6334
884.786	57.488
886.465	57.1525
888.143	56.8903
889.822	57.7804
891.498	57.3759
893.177	57.1576
894.855	57.2284
896.53	57.1292
898.208	56.9683
899.883	55.9789
901.56	55.892
903.234	55.9152
904.91	55.5481
906.584	55.6406
908.26	54.9544
909.933	53.449
911.608	52.7096
913.28	51.9257
914.955	51.6192
916.627	51.4735
918.298	51.051
919.972	49.9434
921.643	49.4334
923.315	49.1543
924.986	48.5281
926.656	47.4904
928.328	47.5471
929.997	47.3452
931.668	47.5587
933.337	47.8096
935.006	48.5595
936.676	48.1578
938.344	47.9617
940.012	47.8579
941.681	48.0184
943.348	47.4905
945.014	48.5471
946.683	47.845
948.349	48.962
950.015	49.6828
951.682	50.0163
953.347	50.3717
955.012	50.8433
956.676	49.2505
958.343	48.593
960.006	49.0403
961.67	48.6233
963.333	48.2039
964.998	48.8345
966.661	49.4183
968.323	49.1517
969.985	49.1128
971.649	49.5551
973.31	49.9665
974.971	49.4266
976.632	49.4754
978.293	49.5477
979.953	49.2595
981.615	49.2613
983.274	48.6295
984.933	48.0263
986.592	48.1262
988.251	47.9124
989.909	46.6923
991.567	45.5089
993.225	44.9854
994.884	44.7425
996.541	44.5223
998.198	43.9999
999.855	42.9555
1001.51	42.2667
1003.17	41.3501
1004.82	41.3327
1006.48	40.6826
1008.13	40.5578
1009.79	40.281
1011.44	39.751
1013.1	38.9714
1014.75	38.2165
1016.4	36.9098
1018.06	36.8704
1019.71	35.754
1021.36	34.9285
1023.01	34.0899
1024.66	34.1591
1026.32	33.7817
1027.97	32.9173
1029.62	31.1786
1031.27	30.6652
1032.92	29.5583
1034.57	28.2791
1036.22	28.1847
1037.87	27.4998
1039.52	25.5042
1041.16	25.7008
1042.81	26.2347
1044.46	26.1597
1046.11	26.7888
1047.76	26.0748
1049.4	25.805
1051.05	25.2151
1052.7	24.8694
1054.34	24.6795
1055.99	24.6905
1057.63	24.8658
1059.28	24.0381
1060.92	23.9562
1062.57	23.587
1064.21	22.7059
1065.85	22.578
1067.5	22.4359
1069.14	22.3729
1070.78	22.295
1072.43	21.9302
1074.07	22.7511
1075.71	22.7999
1077.35	22.1631
1078.99	22.0577
1080.63	20.844
1082.27	20.7873
1083.91	20.5422
1085.55	20.8102
1087.19	21.2744
1088.83	21.8946
1090.47	21.3404
1092.11	20.5246
1093.75	19.9691
1095.39	20.7039
1097.03	21.2923
1098.66	21.1042
1100.3	22.3767
1101.94	22.8343
1103.57	22.4901
1105.21	22.2499
1106.84	22.3724
1108.48	21.7094
1110.11	20.7404
1111.75	20.0113
1113.38	19.6736
1115.02	18.8076
1116.65	18.6436
1118.29	18.5478
1119.92	16.9517
1121.55	16.1616
1123.19	15.5692
1124.82	14.4842
1126.45	14.5431
1128.08	13.9056
1129.71	12.2389
1131.34	11.866
1132.97	11.5063
1134.6	11.043
1136.23	11.8957
1137.86	10.8621
1139.49	10.1802
1141.12	9.27952
1142.75	9.3097
1144.38	8.86659
1146.01	8.75718
1147.64	8.48411
1149.26	7.82166
1150.89	8.09964
1152.52	8.54895
1154.15	8.31014
1155.77	8.27538
1157.4	7.68529
1159.02	7.32229
1160.65	7.6788
1162.27	8.07523
1163.9	9.15212
1165.52	9.58322
1167.15	10.1353
1168.77	10.2827
1170.39	10.5488
1172.02	10.8781
1173.64	12.5623
1175.26	13.1037
1176.89	14.1534
1178.51	15.0016
1180.13	15.2861
1181.75	16.4192
1183.37	16.1373
1184.99	15.8018
1186.61	16.0864
1188.23	16.8614
1189.85	17.4378
1191.47	17.3693
1193.09	18.3237
1194.71	19.3904
1196.33	19.8896
1197.94	21.0746
1199.56	21.6133
1201.18	22.1188
1202.8	22.9887
1204.41	23.1176
1206.03	24.3101
1207.65	26.4599
1209.26	27.1967
1210.88	28.2746
1212.49	29.2332
1214.11	30.5399
1215.72	31.3974
1217.34	32.7229
1218.95	33.0532
1220.57	34.9202
1222.18	35.6912
1223.79	36.7306
1225.41	37.9758
1227.02	39.5644
1228.63	40.6313
1230.24	42.056
1231.85	43.7519
1233.47	44.5488
1235.08	45.1477
1236.69	45.7923
1238.3	46.5983
1239.91	46.6043
1241.52	47.1402
1243.13	48.1053
1244.74	48.4378
1246.34	48.8967
1247.95	49.1286
1249.56	49.8947
1251.17	49.5121
1252.78	50.4271
1254.38	50.1764
1255.99	49.0037
1257.6	49.4628
1259.2	49.1298
1260.81	49.4846
1262.42	50.3063
1264.02	49.9888
1265.63	51.2587
1267.23	52.2321
1268.84	53.5574
1270.44	53.5715
1272.04	53.5305
1273.65	54.6259
1275.25	54.2217
1276.85	53.4938
1278.46	53.9309
1280.06	53.697
1281.66	54.0664
1283.26	54.4208
1284.86	55.0232
1286.46	55.455
1288.07	55.1457
1289.67	54.4133
1291.27	54.0634
1292.87	53.6693
1294.47	53.5194
1296.06	53.1231
1297.66	53.0071
1299.26	53.838
1300.86	54.3247
1302.46	54.4645
1304.06	55.5532
1305.65	55.8789
1307.25	55.8903
1308.85	56.6336
1310.44	57.0517
1312.04	57.4998
1313.64	56.981
1315.23	57.2722
1316.83	57.1149
1318.42	57.2464
1320.02	56.5839
1321.61	56.7277
1323.2	57.4782
1324.8	57.5442
1326.39	57.2621
1327.99	56.4207
1329.58	56.1749
1331.17	55.3002
1332.76	56.4364
1334.36	56.1864
1335.95	56.4009
1337.54	56.5764
1339.13	56.2295
1340.72	56.2026
1342.31	56.1752
1343.9	55.0976
1345.49	54.5553
1347.08	53.33
1348.67	51.903
1350.26	50.0932
1351.85	49.5287
1353.43	49.3377
1355.02	47.958
1356.61	46.9918
1358.2	46.7692
1359.78	45.3989
1361.37	44.7508
1362.96	43.4777
1364.54	42.9582
1366.13	41.6837
1367.71	41.0818
1369.3	40.1784
1370.88	39.6112
1372.47	37.8625
1374.05	37.3167
1375.64	36.9439
1377.22	36.9514
1378.8	37.4371
1380.39	36.8758
1381.97	36.5232
1383.55	35.5344
1385.13	34.8604
1386.72	35.7849
1388.3	36.4138
1389.88	36.0846
1391.46	35.1729
1393.04	34.5427
1394.62	34.4435
1396.2	33.8988
1397.78	34.1494
1399.36	34.1761
1400.94	34.7415
1402.52	35.2114
1404.1	34.6414
1405.68	34.3945
1407.25	34.5276
1408.83	34.9852
1410.41	35.6523
1411.98	37.1856
1413.56	37.5197
1415.14	38.1055
1416.71	38.1653
1418.29	39.024
1419.87	40.3596
1421.44	41.7217
1423.02	43.1069
1424.59	44.8334
1426.16	46.5863
1427.74	47.9549
1429.31	50.4359
1430.89	52.8509
1432.46	55.1831
1434.03	56.8956
1435.6	59.0375
1437.18	60.5239
1438.75	62.209
1440.32	64.077
1441.89	64.5746
1443.46	65.9603
1445.03	66.81
1446.6	67.4472
1448.17	67.6546
1449.74	68.0331
1451.31	67.73
1452.88	68.0309
1454.45	66.9298
1456.02	66.4656
1457.59	65.7786
1459.16	65.0584
1460.72	63.3314
1462.29	61.8988
1463.86	60.7438
1465.43	59.7009
1466.99	57.2629
1468.56	54.2688
1470.13	50.8757
1471.69	48.7858
1473.26	46.7367
1474.82	44.0282
1476.38	41.478
1477.95	38.9112
1479.51	36.359
1481.08	33.8871
1482.64	31.3064
1484.2	29.1671
1485.77	27.4383
1487.33	25.7536
1488.89	24.6949
1490.46	23.23
1492.02	20.944
1493.58	19.3202
1495.14	17.3939
1496.7	15.9487
1498.26	15.1522
1499.82	14.3106
1501.38	13.9679
1502.94	13.4188
1504.5	12.6057
1506.06	12.4519
1507.62	13.1738
1509.18	12.1067
1510.73	12.555
1512.29	12.1338
1513.85	11.9516
1515.41	11.8953
1516.96	12.0732
1518.52	12.2325
1520.08	12.5565
1521.63	13.247
1523.19	13.9564
1524.75	14.1418
1526.3	14.55
1527.85	14.8581
1529.41	14.5939
1530.96	15.7352
1532.52	17.3199
1534.07	18.641
1535.62	19.6263
1537.18	20.2679
1538.73	20.2016
1540.28	21.567
1541.84	22.5983
1543.39	23.247
1544.94	23.9809
1546.49	23.9569
1548.04	24.8925
1549.59	26.4095
1551.14	26.8528
1552.69	27.3001
1554.25	27.6736
1555.79	28.5817
1557.34	29.1818
1558.89	29.9722
1560.44	30.6542
1561.99	31.5563
1563.54	32.2699
1565.08	32.2501
1566.63	32.8942
1568.18	33.2306
1569.73	33.6666
1571.27	34.3801
1572.82	35.332
1574.37	36.1933
1575.91	37.118
1577.46	38.4276
1579	39.2111
1580.55	39.933
1582.09	40.4074
1583.64	41.5996
1585.18	42.5405
1586.73	42.8651
1588.27	43.8775
1589.81	44.3553
1591.35	45.1004
1592.9	45.2888
1594.44	45.7387
1595.98	46.6191
1597.52	46.5011
1599.06	46.0341
1600.61	46.5276
1602.15	47.2835
1603.69	48.4195
1605.23	49.228
1606.77	49.7991
1608.31	50.8219
1609.85	50.4277
1611.39	50.0277
1612.93	49.5189
1614.46	49.4107
1616	49.2729
1617.54	49.1746
1619.08	49.1639
1620.61	48.3881
1622.15	48.2447
1623.69	48.2226
1625.23	48.5778
1626.76	48.6374
1628.3	47.9748
1629.83	48.766
1631.37	48.7121
1632.9	49.5499
1634.44	49.7922
1635.97	50.5527
1637.51	51.8788
1639.04	52.7914
1640.57	54.1724
1642.11	56.3102
1643.64	57.8009
1645.17	58.5707
1646.71	60.0153
1648.24	60.6842
1649.77	61.9296
1651.3	63.2583
1652.83	64.5716
1654.36	65.6411
1655.89	66.0417
1657.42	66.1454
1658.96	67.2905
1660.48	68.1889
1662.01	68.607
1663.54	68.0182
1665.07	67.8132
1666.6	67.5798
1668.13	67.0648
1669.66	66.3987
1671.19	66.6925
1672.71	65.385
1674.24	63.761
1675.77	62.7152
1677.29	61.9296
1678.82	61.5781
1680.35	60.0162
1681.87	57.8498
1683.4	55.9547
1684.92	53.9489
1686.45	52.6682
1687.97	50.6316
1689.5	48.0081
1691.02	46.5195
1692.54	44.4845
1694.07	42.685
1695.59	40.7981
1697.11	38.165
1698.64	37.1065
1700.16	35.654
1701.68	33.797
1703.2	31.7816
1704.72	30.3426
1706.25	29.4896
1707.77	27.5927
1709.29	26.6026
1710.81	25.7238
1712.33	25.039
1713.85	24.3638
1715.37	23.1486
1716.89	22.5299
1718.41	21.7717
1719.92	20.4757
1721.44	19.6199
1722.96	19.3115
1724.48	18.0945
1725.99	17.3859
1727.51	16.7134
1729.03	15.4463
1730.55	13.9816
1732.06	13.4416
1733.58	12.8889
1735.09	13.1942
1736.61	12.5807
1738.13	11.7972
1739.64	10.9876
1741.15	10.8544
1742.67	10.6094
1744.18	10.9606
1745.7	10.5754
1747.21	10.0898
1748.72	9.018
1750.24	9.00897
1751.75	9.43104
1753.26	9.40835
1754.77	9.68315
1756.29	9.09603
1757.8	8.87669
1759.31	8.91009
1760.82	8.61678
1762.33	8.37549
1763.84	7.27538
1765.35	6.96014
1766.86	7.03392
1768.37	6.52145
1769.88	6.37866
1771.39	6.0587
1772.9	5.95215
1774.4	6.16779
1775.91	5.84817
1777.42	5.57776
1778.93	5.01224
1780.44	5.0959
1781.94	4.38298
1783.45	3.88645
1784.96	3.70138
1786.46	3.66599
1787.97	3.32572
1789.47	2.94961
1790.98	2.48996
1792.48	2.40787
1793.99	2.00948
1795.49	1.50263
1797	0.29224
1798.5	0.0778566
1800.01	-0.414588
1801.51	-0.661678
1803.01	-0.72408
1804.51	-0.401691
1806.02	-0.264435
1807.52	-0.0105862
1809.02	0.00563378
1810.52	0.127686
1812.02	0.16638
1813.52	0.352155
1815.02	0.370567
1816.53	0.409427
1818.03	0.684156
1819.52	0.652547
1821.02	0.155584
1822.52	0.171412
1824.02	0.444486
1825.52	0.221531
1827.02	0.344279
1828.52	0.056884
1830.02	0.297425
1831.51	0.0349129
1833.01	-0.54252
1834.51	-0.598775
1836.01	-0.533536
1837.5	-0.172529
1839	0.305493
1840.49	0.437293
1841.99	0.526436
1843.49	0.923575
1844.98	1.06699
1846.48	0.796177
1847.97	0.837788
1849.47	1.24394
1850.96	1.49792
1852.45	1.62103
1853.95	1.52169
1855.44	1.98262
1856.93	1.48217
1858.42	2.47463
1859.92	3.10976
1861.41	3.42103
1862.9	3.43995
1864.39	3.25277
1865.88	3.56238
1867.38	3.58863
1868.87	3.77144
1870.36	3.70986
1871.85	4.08674
1873.34	5.12216
1874.83	5.6093
1876.32	6.32445
1877.81	6.87979
1879.29	7.20723
1880.78	6.79715
1882.27	7.1183
1882.53	7.31029
1884.03	7.10144
1885.52	7.23771
1887.01	7.41711
1888.51	7.50834
1890	7.57441
1891.5	8.06129
1892.99	7.85249
1894.48	8.06316
1895.97	8.18258
1897.47	8.20344
1898.96	8.03001
1900.45	7.67232
1901.94	6.96088
1903.43	6.80806
1904.92	6.11524
1906.41	6.03554
1907.9	6.38469
1909.39	6.22303
1910.88	6.53747
1912.37	6.66429
1913.86	6.40638
1915.35	6.63567
1916.84	6.67481
1918.33	6.70464
1919.81	6.56783
1921.3	6.50893
1922.79	6.32378
1924.28	6.07767
1925.76	5.64186
1927.25	5.52231
1928.73	5.49512
1930.22	4.8963
1931.71	5.46464
1933.19	4.88742
1934.68	4.60962
1936.16	4.60972
1937.65	4.45519
1939.13	4.58503
1940.62	4.3555
1942.1	4.52648
1943.58	4.36314
1945.07	5.32075
1946.55	5.76639
1948.03	5.88845
1949.51	6.0481
1951	5.39501
1952.48	5.32515
1953.96	5.36888
1955.44	5.71243
1956.92	5.77334
1958.4	5.8282
1959.88	6.56369
1961.36	6.74356
1962.84	6.2891
1964.32	6.59508
1965.8	6.50261
1967.28	5.90699
1968.76	6.21234
1970.24	5.59907
1971.72	5.46221
1973.2	5.07796
1974.67	4.68065
1976.15	4.54811
1977.63	4.50543
1979.1	4.40413
1980.58	4.72447
1982.06	4.95858
1983.54	4.75485
1985.01	5.22462
1986.49	5.35692
1987.96	5.02862
1989.44	5.05851
1990.91	4.54069
1992.39	4.28857
1993.86	3.93658
1995.33	3.73021
1996.81	3.22508
1998.28	2.97425
1999.75	3.22056
2001.23	2.89218
2002.7	2.6121
2004.17	2.43522
2005.65	2.61638
2007.12	2.23747
2008.59	2.91654
2010.06	2.77379
2011.53	2.69238
2013	2.96081
2014.47	2.75571
2015.94	3.12547
2017.41	3.76874
2018.88	4.64732
2020.35	4.71695
2021.82	4.88295
2023.29	4.76558
2024.76	4.51051
2026.23	5.43376
2027.69	5.38326
2029.16	5.73559
2030.63	6.05291
2032.1	6.14146
2033.56	6.31926
2035.03	6.49543
2036.5	6.93486
2037.96	7.11726
2039.43	6.69351
2040.89	7.1246
2042.36	7.83325
2043.83	7.87972
2045.29	8.00881
2046.75	8.07099
2048.22	8.13074
2049.68	8.52495
2051.15	8.82094
2052.61	9.41482
2054.07	9.57723
2055.54	10.2458
2057	10.383
2058.46	11.3592
2059.92	11.0149
2061.39	10.9511
2062.85	10.8334
2064.31	10.279
2065.77	10.5214
2067.23	10.8815
2068.69	10.9718
2070.15	11.0092
2071.61	11.1883
2073.07	11.0634
2074.53	10.5164
2075.99	10.4945
2077.45	10.3827
2078.91	10.7565
2080.37	11.2656
2081.82	11.438
2083.28	11.1265
2084.74	11.4253
2086.2	11.6962
2087.65	11.0698
2089.11	11.1224
2090.57	10.9168
2092.02	10.4065
2093.48	9.82613
2094.94	9.52145
2096.39	9.04201
2097.85	9.42785
2099.3	9.76894
2100.76	9.39694
2102.21	9.98373
2103.66	10.5941
2105.12	10.9138
2106.57	11.4283
2108.03	11.5267
2109.48	11.4658
2110.93	11.1002
2112.38	11.3576
2113.84	11.7259
2115.29	11.5894
2116.74	11.7648
2118.19	11.7297
2119.64	12.3321
2121.09	12.5685
2122.54	12.7164
2123.99	12.3942
2125.45	12.7075
2126.89	13.3092
2128.34	13.7393
2129.79	14.1815
