#Acq. time (s)=	45
#Accumulations=	2
#Range (cm-¹)=	200...3150
#Windows=	2
#Auto scanning=	Off
#Autofocus=	Off
#Macrospot=	Off
#AutoExposure=	Off
#Spike filter=	Multiple accum.
#Delay time (s)=	0
#Binning=	1
#Readout mode=	Signal
#DeNoise=	Off
#ICS correction=	On
#Dark correction=	Off
#Inst. Process=	Off
#Detector Gain=	Best Dynamic Range
#Detector ADC=	20 kHz       
#Detector temperature (°C)=	-69.85
#Instrument=	LabRAM HR Evol
#Detector=	Synapse
#Objective=	x100
#Grating=	600 gr/mm
#ND Filter=	100%
#Laser (nm)=	532 
#Hole=	100.021
#Range=	Auto
#Laser Pol.=	No
#Raman. Pol.=	No
#Laser Pol. (°)=	-0.0007625
#Raman Pol. (°)=	89.9995
#Collection=	Microscope
#StageXY=	Marzhauser
#StageZ=	Marzhauser
#X (µm)=	2204.1
#Y (µm)=	1241.1
#Z (µm)=	442.45
#Full time(mm:ss)=	3:18
#Project=	
#Sample=	
#Site=	
#Title=	Thy_10_08_20_2x_45s_532 nm_x100_100%_600 gr_mm
#Remark=	
#Date=	05.07.2022 15:36
#Acquired=	05.07.2022 15:36:22
#Base:Fit=	10.08.2022 09:46:25
#Base:Sub=	10.08.2022 09:46:49
#Filter:Polynom=	16.08.2022 10:24:56
#AxisType[0]=Intens
#AxisUnit[0]=Cnt
#AxisType[1]=Spectr
#AxisUnit[1]=1/cm
200.43	-11.3004
202.244	-4.39011
204.059	2.80761
205.873	7.88054
207.688	11.5087
209.501	14.7433
211.314	17.5628
213.127	18.8753
214.941	18.8694
216.753	19.853
218.564	20.5439
220.375	20.3017
222.186	20.1427
223.999	20.5787
225.809	21.2137
227.618	21.6004
229.428	21.3438
231.236	21.7009
233.045	21.6631
234.855	21.8531
236.663	21.1809
238.471	20.0985
240.278	19.362
242.085	18.8914
243.891	18.6722
245.698	17.4136
247.503	15.406
249.309	14.5603
251.116	13.0757
252.921	12.3
254.725	11.2169
256.529	10.4194
258.333	10.5294
260.136	9.40696
261.939	8.54779
263.742	7.93384
265.544	8.61007
267.346	9.02001
269.148	9.12127
270.949	9.93694
272.75	10.6196
274.55	10.8251
276.351	11.3182
278.15	10.6942
279.95	9.45862
281.749	10.4377
283.548	10.0008
285.346	11.0657
287.144	11.5874
288.942	11.6553
290.739	11.6652
292.536	11.7379
294.333	11.6196
296.129	12.01
297.925	12.6029
299.721	11.6276
301.514	12.3492
303.309	11.7415
305.104	11.7173
306.898	13.3395
308.692	13.4998
310.486	13.6779
312.279	14.1902
314.072	14.829
315.862	14.7867
317.654	15.5428
319.446	16.0348
321.238	15.5057
323.029	15.0532
324.819	15.1964
326.608	14.649
328.398	14.4245
330.188	14.1026
331.977	13.2695
333.766	13.0854
335.553	12.6
337.341	13.2734
339.129	13.877
340.917	13.7754
342.704	13.6065
344.489	13.5475
346.275	12.8346
348.062	12.3302
349.845	11.582
351.631	11.506
353.416	11.3437
355.201	11.3034
356.984	10.9367
358.768	10.5986
360.552	10.1526
362.333	8.59474
364.116	7.42536
365.899	6.71681
367.68	5.56148
369.462	5.54872
371.243	5.60905
373.023	4.49258
374.804	4.43577
376.585	5.07029
378.363	5.3279
380.143	5.19073
381.923	5.24538
383.7	4.47585
385.479	4.18584
387.256	3.86316
389.034	3.40967
390.812	5.11536
392.588	5.07351
394.365	4.32378
396.14	5.16872
397.916	5.29256
399.691	5.39824
401.467	4.86073
403.24	5.52645
405.015	6.08238
406.788	6.95773
408.563	7.30887
410.335	7.65281
412.109	8.72077
413.88	9.42552
415.654	8.83432
417.424	8.56819
419.197	8.71288
420.967	8.90264
422.739	9.01608
424.508	8.78972
426.279	8.14865
428.048	8.10106
429.819	8.39761
431.587	7.11963
433.356	7.09723
435.124	6.95152
436.891	7.21867
438.66	7.32586
440.426	7.64102
442.194	7.88524
443.96	7.72594
445.725	8.00426
447.492	7.54646
449.257	5.93189
451.021	6.28558
452.787	6.53181
454.551	5.71953
456.314	5.92373
458.079	6.47481
459.842	7.00001
461.604	8.07897
463.368	8.20488
465.13	9.70119
466.891	10.5273
468.654	11.0492
470.415	11.9089
472.175	12.2333
473.935	12.6371
475.696	13.1437
477.456	13.9725
479.215	15.485
480.973	15.5979
482.733	16.2234
484.491	17.0683
486.249	18.2448
488.006	18.5197
489.765	19.0939
491.522	21.5941
493.278	22.838
495.034	23.9771
496.789	24.3876
498.544	24.8149
500.301	24.1476
502.056	24.7054
503.81	24.2398
505.564	24.6085
507.317	24.5173
509.071	24.7216
510.825	24.5028
512.578	25.2963
514.33	25.3643
516.082	25.4275
517.833	24.7287
519.585	24.671
521.335	24.3694
523.086	24.5992
524.836	23.8969
526.586	23.4846
528.335	23.3921
530.085	23.0256
531.835	21.2047
533.584	19.6579
535.332	17.8577
537.08	17.1465
538.827	17.5971
540.574	16.3135
542.321	14.8956
544.068	14.5225
545.814	14.1447
547.56	13.603
549.305	13.2695
551.05	13.0272
552.795	13.2812
554.54	11.0866
556.282	9.99449
558.025	9.17358
559.769	8.16377
561.512	7.76836
563.255	7.37146
564.997	6.7312
566.739	6.80407
568.481	7.01588
570.223	6.55116
571.964	6.27581
573.705	6.5974
575.443	5.73655
577.183	5.2121
578.923	4.59267
580.663	3.60982
582.402	2.49553
584.141	1.95183
585.879	2.57655
587.615	1.7941
589.353	1.88275
591.09	1.06028
592.828	2.14294
594.564	2.92363
596.299	3.57485
598.035	2.80673
599.771	2.97498
601.506	2.55414
603.242	2.67457
604.974	3.71021
606.709	4.21395
608.443	4.4351
610.177	5.25746
611.908	5.19237
613.642	5.49273
615.374	5.99199
617.105	5.97681
618.837	5.6317
620.569	6.72501
622.3	7.11455
624.03	7.75024
625.761	8.27772
627.491	8.39568
629.219	9.09572
630.949	9.22211
632.677	10.4529
634.406	11.1693
636.135	11.7763
637.861	13.3158
639.59	13.6487
641.318	14.182
643.043	14.609
644.77	15.9318
646.495	17.4868
648.222	18.5069
649.948	18.5567
651.672	19.4142
653.398	20.0083
655.121	19.9451
656.846	19.8495
658.569	20.1489
660.293	19.6172
662.015	19.6422
663.738	19.9038
665.46	19.8848
667.183	21.1713
668.903	21.5683
670.626	22.2913
672.346	22.5544
674.067	22.332
675.787	22.667
677.508	23.547
679.226	24.6154
680.947	24.917
682.665	24.1011
684.385	23.4677
686.102	24.118
687.821	23.7601
689.538	24.712
691.254	24.5699
692.972	24.7079
694.688	25.5036
696.406	25.8355
698.121	27.1522
699.835	28.9687
701.552	30.1929
703.266	30.2462
704.98	29.6191
706.695	29.7346
708.409	30.051
710.121	29.8163
711.836	30.8444
713.548	30.6951
715.26	29.8076
716.973	29.5206
718.685	30.8754
720.396	32.3406
722.108	33.9487
723.818	35.4057
725.528	35.7637
727.238	36.3195
728.949	37.1245
730.658	39.6238
732.367	40.466
734.075	41.0153
735.785	41.202
737.493	42.5827
739.2	42.8162
740.907	44.5781
742.614	46.4774
744.322	48.62
746.028	49.6752
747.734	51.0068
749.439	52.8982
751.144	53.6082
752.849	55.4131
754.555	55.564
756.26	56.4091
757.963	57.9011
759.667	58.648
761.37	59.3475
763.073	61.1729
764.775	62.5057
766.477	63.3731
768.179	64.0807
769.883	65.1432
771.584	66.4376
773.285	67.2637
774.986	68.8557
776.686	70.6026
778.386	73.0808
780.085	74.4485
781.785	76.3116
783.484	77.4329
785.182	78.5135
786.881	78.1636
788.579	78.2693
790.276	78.8738
791.974	80.4372
793.671	80.7326
795.367	80.698
797.064	82.0527
798.76	82.2959
800.456	83.1363
802.151	84.9413
803.846	86.2944
805.541	86.9488
807.234	87.6623
808.928	86.8399
810.622	87.0371
812.315	87.8114
814.008	88.466
815.701	88.2201
817.394	88.3866
819.086	88.7549
820.778	89.5543
822.468	88.7981
824.159	88.8398
825.85	89.0625
827.541	88.543
829.231	87.7733
830.921	86.1709
832.609	84.353
834.298	83.4101
835.987	81.6342
837.676	80.9164
839.364	79.7893
841.051	79.4047
842.738	78.7021
844.426	77.4964
846.113	75.7635
847.798	75.5269
849.484	74.4522
851.171	73.5401
852.857	71.5665
854.54	70.0298
856.226	68.471
857.911	68.2104
859.593	67.2051
861.278	67.0992
862.961	65.8881
864.645	65.1696
866.327	65.1411
868.01	64.1011
869.692	63.5475
871.373	62.4562
873.055	62.1057
874.735	61.8617
876.416	60.7484
878.097	59.4407
879.776	58.7623
881.457	57.4185
883.135	56.7767
884.815	56.7139
886.495	55.6421
888.172	54.5904
889.851	54.5579
891.528	53.4505
893.206	52.0775
894.882	52.1852
896.56	51.7651
898.237	51.9166
899.912	51.9466
901.589	52.2235
903.263	52.5886
904.94	52.0656
906.614	51.5638
908.289	51.8236
909.962	50.826
911.635	50.9604
913.31	50.228
914.982	50.3363
916.656	50.3062
918.328	51.2695
920.001	52.2566
921.672	52.7535
923.345	52.689
925.015	52.598
926.685	52.446
928.357	52.4928
930.026	52.141
931.698	53.4957
933.366	52.3084
935.035	52.0947
936.705	50.0338
938.373	50.2948
940.041	50.4152
941.71	51.2866
943.377	50.8885
945.044	50.2959
946.712	49.5777
948.378	49.8078
950.044	49.6534
951.709	48.6705
953.376	48.1491
955.041	47.0862
956.706	46.143
958.372	43.8368
960.036	42.0604
961.699	39.6094
963.362	39.2377
965.027	39.7771
966.69	41.0727
968.352	41.3285
970.014	41.2915
971.676	42.6957
973.339	42.2854
975	42.3979
976.661	43.3372
978.322	44.9796
979.982	46.2927
981.642	47.08
983.303	47.1445
984.962	47.5288
986.621	48.1523
988.28	47.9235
989.938	48.6478
991.596	48.2214
993.254	48.1113
994.911	49.0598
996.57	49.0056
998.227	49.3847
999.884	49.3805
1001.54	49.6695
1003.2	49.2826
1004.85	49.2624
1006.51	49.2156
1008.16	48.3984
1009.82	47.6449
1011.47	47.1906
1013.12	45.8631
1014.78	44.3978
1016.43	43.2867
1018.08	43.5459
1019.74	41.7343
1021.39	41.0596
1023.04	40.1004
1024.69	38.0427
1026.34	36.2731
1028	34.332
1029.65	32.9921
1031.3	31.6086
1032.95	29.3773
1034.6	27.4888
1036.25	25.3392
1037.9	22.8765
1039.54	21.3334
1041.19	18.9275
1042.84	18.3972
1044.49	18.4156
1046.14	20.2664
1047.78	20.8362
1049.43	20.8228
1051.08	21.1666
1052.72	21.6506
1054.37	20.8731
1056.02	18.5404
1057.66	19.8644
1059.31	19.341
1060.95	19.5961
1062.6	19.1391
1064.24	18.6059
1065.88	19.8499
1067.53	20.1831
1069.17	20.3794
1070.81	20.6718
1072.45	21.6632
1074.1	20.9823
1075.74	21.4018
1077.38	21.9253
1079.02	21.7629
1080.66	21.8445
1082.3	22.0175
1083.94	22.9274
1085.58	22.5214
1087.22	23.555
1088.86	24.1921
1090.5	24.0213
1092.14	23.7267
1093.78	24.7738
1095.42	24.5842
1097.05	24.4627
1098.69	24.7019
1100.33	23.527
1101.96	22.0777
1103.6	21.9618
1105.24	21.8711
1106.87	20.516
1108.51	19.9238
1110.14	18.0215
1111.78	16.5341
1113.41	16.045
1115.05	14.9726
1116.68	13.9575
1118.31	13.4766
1119.95	13.0027
1121.58	12.0034
1123.21	10.8004
1124.85	10.6197
1126.48	10.5668
1128.11	9.22712
1129.74	8.11893
1131.37	7.82632
1133	7.05534
1134.63	5.7935
1136.26	4.84541
1137.89	4.95704
1139.52	6.42841
1141.15	6.09188
1142.78	6.51626
1144.41	6.18712
1146.04	6.43244
1147.66	6.45625
1149.29	6.05594
1150.92	5.53323
1152.55	5.33148
1154.17	4.20777
1155.8	3.07815
1157.43	3.08318
1159.05	2.20643
1160.68	2.52923
1162.3	2.47215
1163.93	2.50684
1165.55	3.04972
1167.17	4.19129
1168.8	5.7947
1170.42	5.90124
1172.05	5.97285
1173.67	6.14924
1175.29	7.32318
1176.91	7.86793
1178.54	8.34491
1180.16	9.441
1181.78	9.88361
1183.4	11.2439
1185.02	11.7313
1186.64	11.8371
1188.26	11.8005
1189.88	12.431
1191.5	13.1487
1193.12	14.3949
1194.74	14.7964
1196.36	15.3365
1197.97	16.2757
1199.59	17.4248
1201.21	18.4232
1202.83	19.0632
1204.44	20.0427
1206.06	22.1463
1207.68	23.5783
1209.29	24.7289
1210.91	27.5302
1212.52	29.3833
1214.14	31.4277
1215.75	34.0608
1217.37	35.7772
1218.98	37.3641
1220.59	38.9234
1222.21	40.583
1223.82	41.0303
1225.43	41.7142
1227.05	43.3712
1228.66	43.7671
1230.27	44.5132
1231.88	44.0357
1233.49	45.8749
1235.1	45.6601
1236.72	46.9461
1238.33	48.1902
1239.94	49.4093
1241.55	49.9656
1243.16	50.7785
1244.76	51.9531
1246.37	54.5915
1247.98	56.2762
1249.59	56.4336
1251.2	56.3213
1252.8	58.1132
1254.41	59.0345
1256.02	59.6563
1257.62	60.0653
1259.23	59.9419
1260.84	60.6002
1262.44	59.7218
1264.05	59.3585
1265.66	58.511
1267.26	58.6532
1268.86	58.1965
1270.47	58.7623
1272.07	59.6817
1273.67	59.6678
1275.28	60.2614
1276.88	61.597
1278.48	62.5371
1280.09	63.572
1281.69	64.7109
1283.29	64.2367
1284.89	65.1639
1286.49	66.2607
1288.09	66.74
1289.69	68.5825
1291.29	69.29
1292.89	70.1553
1294.49	71.5419
1296.09	72.0572
1297.69	72.912
1299.29	73.9389
1300.89	75.3218
1302.49	76.4353
1304.08	76.99
1305.68	78.5846
1307.28	79.6884
1308.88	80.3439
1310.47	81.8293
1312.07	83.0919
1313.66	84.4976
1315.26	84.2869
1316.85	85.1745
1318.45	85.7881
1320.04	86.0251
1321.64	85.3438
1323.23	86.3982
1324.83	86.5883
1326.42	86.2617
1328.01	84.5309
1329.61	84.2001
1331.2	83.2409
1332.79	83.1742
1334.38	82.3678
1335.97	80.9223
1337.56	79.3845
1339.16	78.1687
1340.75	76.41
1342.34	73.8854
1343.93	72.6004
1345.52	71.7639
1347.11	69.6131
1348.7	68.8298
1350.29	67.9639
1351.87	66.4565
1353.46	64.6118
1355.05	62.6279
1356.64	61.2251
1358.22	60.5103
1359.81	58.76
1361.4	57.9007
1362.98	56.7867
1364.57	56.3241
1366.16	55.5015
1367.74	55.6593
1369.33	54.8931
1370.91	53.3891
1372.5	53.0692
1374.08	51.9996
1375.67	51.5797
1377.25	50.6681
1378.83	50.7694
1380.41	50.7155
1382	50.23
1383.58	49.3397
1385.16	48.7027
1386.74	48.2289
1388.33	46.3576
1389.91	44.9334
1391.49	43.2878
1393.07	41.7594
1394.65	40.1059
1396.23	39.0115
1397.81	38.6046
1399.39	37.4186
1400.97	36.1467
1402.55	36.4156
1404.13	35.0095
1405.7	33.8982
1407.28	34.0844
1408.86	34.2811
1410.44	33.4378
1412.01	35.1212
1413.59	35.8076
1415.17	36.0658
1416.74	36.6169
1418.32	37.9251
1419.89	40.0246
1421.47	42.1807
1423.04	44.6831
1424.62	47.0444
1426.19	49.6961
1427.77	53.6422
1429.34	56.4387
1430.91	59.7306
1432.49	62.4728
1434.06	65.1424
1435.63	68.958
1437.2	71.9321
1438.78	74.3243
1440.35	77.3861
1441.92	79.5968
1443.49	81.7194
1445.06	83.5965
1446.63	84.9782
1448.2	85.3964
1449.77	85.0115
1451.34	85.792
1452.91	86.7424
1454.48	86.9429
1456.05	86.7074
1457.62	86.6385
1459.18	85.0242
1460.75	83.88
1462.32	81.3736
1463.89	79.1724
1465.45	76.2797
1467.02	72.7134
1468.59	69.845
1470.15	67.2583
1471.72	64.01
1473.28	61.5736
1474.85	58.661
1476.41	54.9461
1477.98	51.1005
1479.54	47.7726
1481.1	44.5326
1482.67	40.2336
1484.23	36.8782
1485.79	33.8005
1487.36	31.3791
1488.92	28.9123
1490.48	27.763
1492.04	25.1782
1493.61	23.371
1495.17	21.0096
1496.73	19.6235
1498.29	18.4175
1499.85	17.2797
1501.41	15.7999
1502.97	14.8216
1504.53	14.0556
1506.09	13.2296
1507.65	13.0879
1509.2	11.708
1510.76	11.4181
1512.32	10.7192
1513.88	10.5159
1515.43	10.6515
1516.99	10.5977
1518.55	10.8663
1520.1	11.3277
1521.66	11.7484
1523.22	12.053
1524.77	13.182
1526.33	13.8848
1527.88	14.3763
1529.44	16.2929
1530.99	17.9959
1532.54	18.6205
1534.1	18.8048
1535.65	19.7848
1537.21	20.6886
1538.76	22.0047
1540.31	22.413
1541.86	23.7914
1543.42	24.6843
1544.97	25.7956
1546.52	27.0135
1548.07	28.8916
1549.62	30.3812
1551.17	31.6669
1552.72	33.1163
1554.27	35.1073
1555.82	36.471
1557.37	38.1262
1558.92	39.2371
1560.47	40.6138
1562.02	41.7363
1563.56	43.409
1565.11	45.8523
1566.66	46.1782
1568.21	47.5954
1569.75	49.6687
1571.3	51.0041
1572.85	52.0231
1574.39	53.6716
1575.94	54.9047
1577.49	56.473
1579.03	56.9796
1580.57	58.5969
1582.12	60.1666
1583.66	61.7622
1585.21	63.1201
1586.75	63.6386
1588.3	64.6486
1589.84	64.8279
1591.38	65.7531
1592.92	66.4197
1594.47	66.8807
1596.01	67.6744
1597.55	68.2035
1599.09	68.7541
1600.63	68.6202
1602.17	69.061
1603.71	68.3105
1605.25	67.7822
1606.79	67.5147
1608.33	67.2355
1609.87	65.3567
1611.41	63.778
1612.95	63.918
1614.49	63.8557
1616.03	64.5362
1617.57	63.9964
1619.1	63.9783
1620.64	64.0754
1622.18	63.7205
1623.72	64.5279
1625.25	65.4692
1626.79	67.0176
1628.32	67.4395
1629.86	68.5785
1631.39	68.5709
1632.93	68.9206
1634.46	70.8025
1636	71.8975
1637.53	73.1855
1639.07	74.5245
1640.6	77.2608
1642.13	78.3869
1643.67	79.8104
1645.2	82.7249
1646.73	85.7517
1648.26	87.1247
1649.8	89.0919
1651.33	90.895
1652.86	92.3747
1654.39	93.328
1655.92	95.1222
1657.45	97.1609
1658.98	97.3067
1660.51	97.0868
1662.04	97.3734
1663.57	96.3661
1665.1	96.0437
1666.63	95.5092
1668.16	94.5884
1669.68	92.9114
1671.21	91.6863
1672.74	90.409
1674.27	87.9877
1675.79	85.9542
1677.32	83.1259
1678.85	79.9849
1680.37	76.5659
1681.9	73.5573
1683.42	70.0464
1684.95	66.0387
1686.47	62.0306
1688	58.8711
1689.52	56.2087
1691.05	52.4759
1692.57	49.0788
1694.09	44.4762
1695.62	41.8061
1697.14	39.0233
1698.66	35.6539
1700.18	33.1827
1701.71	30.2192
1703.23	26.9515
1704.75	22.634
1706.27	19.9642
1707.79	17.1651
1709.31	15.0566
1710.83	13.7197
1712.35	11.8874
1713.87	11.3158
1715.39	10.3336
1716.91	8.97979
1718.43	7.81531
1719.95	7.91095
1721.47	7.20644
1722.99	6.75947
1724.5	5.95632
1726.02	5.73665
1727.54	4.75012
1729.06	4.01555
1730.57	4.15382
1732.09	4.55823
1733.61	3.92126
1735.12	2.9056
1736.64	3.37798
1738.15	4.02179
1739.67	3.74056
1741.18	4.56783
1742.7	4.30366
1744.21	4.7706
1745.72	4.32868
1747.24	5.0394
1748.75	5.5578
1750.26	5.46392
1751.77	5.93237
1753.29	5.61781
1754.8	4.95728
1756.31	5.16318
1757.82	5.25596
1759.33	4.47507
1760.84	4.54207
1762.36	4.40785
1763.87	4.01395
1765.38	3.92313
1766.89	3.45875
1768.4	4.32456
1769.91	4.07205
1771.41	4.57196
1772.92	3.86267
1774.43	2.44196
1775.94	2.04832
1777.45	1.93874
1778.95	1.13307
1780.46	0.703716
1781.97	0.745182
1783.48	0.348049
1784.98	0.85679
1786.49	1.08346
1787.99	1.0272
1789.5	0.599701
1791.01	-0.384895
1792.51	-0.260224
1794.01	-0.46869
1795.52	-1.00534
1797.02	-1.2236
1798.53	-0.476752
1800.03	-0.628634
1801.53	-0.795783
1803.04	-0.808823
1804.54	-0.629914
1806.04	-0.848246
1807.54	-1.23211
1809.05	-0.593607
1810.55	-0.0603754
1812.05	0.429311
1813.55	0.749855
1815.05	0.77626
1816.55	1.00613
1818.05	1.29012
1819.55	1.42788
1821.05	0.99563
1822.55	2.03251
1824.05	2.48781
1825.55	2.12047
1827.05	1.77395
1828.55	2.04766
1830.04	2.23474
1831.54	2.38528
1833.04	2.95122
1834.54	3.46446
1836.03	4.25775
1837.53	4.21967
1839.03	4.58551
1840.52	5.23813
1842.02	5.68064
1843.51	6.20901
1845.01	6.20751
1846.5	6.55336
1848	7.27639
1849.49	8.12564
1850.99	8.11831
1852.48	8.56907
1853.97	9.0497
1855.47	9.58205
1856.96	9.68446
1858.45	10.8526
1859.94	11.264
1861.44	11.2398
1862.93	11.652
1864.42	12.3307
1865.91	13.0802
1867.4	13.7648
1868.89	14.1089
1870.38	15.2237
1871.87	15.5099
1873.36	16.2104
1874.85	15.9782
1876.34	16.609
1877.83	17.3564
1879.32	17.5596
1880.81	17.4561
1882.3	17.3951
1882.57	18.2819
1884.07	18.4104
1885.56	18.5941
1887.06	19.0412
1888.55	19.1592
1890.04	19.2034
1891.54	19.5685
1893.03	19.4995
1894.52	19.2287
1896.02	19.4809
1897.51	18.8726
1899	17.9349
1900.49	18.0211
1901.98	18.0443
1903.47	17.7282
1904.96	17.8248
1906.45	18.7936
1907.94	18.8188
1909.43	18.8357
1910.92	18.2112
1912.41	18.0326
1913.9	17.7543
1915.39	17.7421
1916.88	17.9347
1918.37	18.3936
1919.85	18.2457
1921.34	18.7711
1922.83	18.8427
1924.32	17.8464
1925.8	18.4978
1927.29	18.3938
1928.78	17.7585
1930.26	17.1745
1931.75	17.4543
1933.23	16.8651
1934.72	17.098
1936.2	17.7223
1937.69	18.2551
1939.17	18.6578
1940.66	18.5723
1942.14	18.8937
1943.63	18.6107
1945.11	18.6899
1946.59	19.7248
1948.07	19.9567
1949.56	20.4075
1951.04	20.7979
1952.52	20.6233
1954	21.5223
1955.48	22.0529
1956.96	22.6765
1958.45	22.0341
1959.93	22.0661
1961.41	22.0649
1962.89	21.7038
1964.37	21.8645
1965.85	22.0932
1967.32	22.3859
1968.8	21.8767
1970.28	22.0554
1971.76	21.9763
1973.24	21.6376
1974.72	21.8347
1976.19	21.7311
1977.67	22.1366
1979.15	23.0123
1980.63	22.741
1982.1	22.5964
1983.58	22.0149
1985.05	20.9647
1986.53	21.3492
1988	21.1357
1989.48	21.5892
1990.95	22.1438
1992.43	22.1978
1993.9	22.1846
1995.38	22.6348
1996.85	22.3949
1998.32	21.8692
1999.8	21.7968
2001.27	21.9245
2002.74	21.7745
2004.22	21.9321
2005.69	22.3833
2007.16	22.3536
2008.63	22.2159
2010.1	22.5357
2011.57	22.6379
2013.04	22.768
2014.51	22.0194
2015.98	22.5243
2017.45	22.6395
2018.92	23.233
2020.39	23.6625
2021.86	23.4215
2023.33	23.9823
2024.8	24.7362
2026.27	24.4961
2027.74	24.8584
2029.2	24.2455
2030.67	24.3651
2032.14	25.3386
2033.61	26.3753
2035.07	26.899
2036.54	26.5908
2038.01	27.5076
2039.47	27.8742
2040.94	28.2445
2042.4	27.4452
2043.87	27.9411
2045.33	28.0467
2046.8	28.6304
2048.26	28.6934
2049.72	29.06
2051.19	29.6072
2052.65	30.0175
2054.12	29.3857
2055.58	30.1482
2057.04	29.8011
2058.5	30.5523
2059.97	31.5647
2061.43	31.361
2062.89	31.7185
2064.35	32.1013
2065.81	31.8073
2067.27	31.6437
2068.73	32.0367
2070.19	31.904
2071.65	31.3095
2073.11	31.0561
2074.57	31.344
2076.03	31.2674
2077.49	30.7375
2078.95	30.8969
2080.41	30.2365
2081.87	29.9062
2083.32	29.9096
2084.78	30.032
2086.24	29.0967
2087.7	27.9434
2089.15	28.4249
2090.61	28.3424
2092.07	28.4361
2093.52	28.2259
2094.98	28.7082
2096.43	29.1061
2097.89	29.0692
2099.34	28.5201
2100.8	28.8542
2102.25	29.0157
2103.71	29.4796
2105.16	29.8311
2106.61	29.549
2108.07	29.1179
2109.52	29.0899
2110.97	29.8791
2112.43	29.9958
2113.88	29.7188
2115.33	29.7671
2116.78	30.4927
2118.23	30.647
2119.68	31.53
2121.13	31.7823
2122.59	32.3607
2124.04	33.2462
2125.49	34.1918
2126.94	34.5118
2128.39	36.2225
2129.83	36.5955
2131.28	37.5573
2132.73	38.0401
2134.18	38.4
