#Acq. time (s)=	45
#Accumulations=	2
#Range (cm-¹)=	200...3150
#Windows=	2
#Auto scanning=	Off
#Autofocus=	Off
#Macrospot=	Off
#AutoExposure=	Off
#Spike filter=	Multiple accum.
#Delay time (s)=	0
#Binning=	1
#Readout mode=	Signal
#DeNoise=	Off
#ICS correction=	On
#Dark correction=	Off
#Inst. Process=	Off
#Detector Gain=	Best Dynamic Range
#Detector ADC=	20 kHz       
#Detector temperature (°C)=	-69.85
#Instrument=	LabRAM HR Evol
#Detector=	Synapse
#Objective=	x100
#Grating=	600 gr/mm
#ND Filter=	100%
#Laser (nm)=	532 
#Hole=	100.021
#Range=	Auto
#Laser Pol.=	No
#Raman. Pol.=	No
#Laser Pol. (°)=	-0.0007625
#Raman Pol. (°)=	89.9995
#Collection=	Microscope
#StageXY=	Marzhauser
#StageZ=	Marzhauser
#X (µm)=	1961.9
#Y (µm)=	-59.5
#Z (µm)=	425.3
#Full time(mm:ss)=	3:18
#Project=	
#Sample=	
#Site=	
#Title=	Thy_40_11_13_2x_45s_532 nm_x100_100%_600 gr_mm
#Remark=	
#Date=	05.07.2022 10:47
#Acquired=	05.07.2022 10:47:53
#Base:Fit=	10.08.2022 10:01:35
#Base:Sub=	10.08.2022 10:01:52
#Filter:Polynom=	16.08.2022 10:21:53
#AxisType[0]=Intens
#AxisUnit[0]=Cnt
#AxisType[1]=Spectr
#AxisUnit[1]=1/cm
200.43	24.6204
202.244	20.5091
204.059	18.4035
205.873	15.5983
207.688	13.8288
209.501	12.2508
211.314	10.8856
213.127	9.76998
214.941	8.89215
216.753	7.78293
218.564	6.46963
220.375	5.22869
222.186	4.81724
223.999	5.61218
225.809	4.24636
227.618	3.4538
229.428	3.31589
231.236	2.32658
233.045	2.60072
234.855	1.91801
236.663	0.73652
238.471	0.527132
240.278	-0.078261
242.085	-0.445121
243.891	-0.0340017
245.698	0.335634
247.503	1.09437
249.309	1.20328
251.116	1.80958
252.921	2.84651
254.725	2.56211
256.529	2.61214
258.333	4.36015
260.136	4.21825
261.939	3.94869
263.742	4.18935
265.544	3.89249
267.346	3.99505
269.148	4.16948
270.949	4.87567
272.75	4.2827
274.55	4.74126
276.351	5.22572
278.15	5.98005
279.95	5.61592
281.749	5.335
283.548	5.69352
285.346	6.3227
287.144	5.84669
288.942	6.35654
290.739	5.64368
292.536	6.61115
294.333	7.06645
296.129	7.91916
297.925	7.99398
299.721	9.4505
301.514	9.61501
303.309	9.93133
305.104	10.9706
306.898	11.1475
308.692	12.3654
310.486	13.5447
312.279	14.3898
314.072	14.3541
315.862	13.9305
317.654	14.7424
319.446	14.8994
321.238	14.8158
323.029	15.3886
324.819	14.9311
326.608	14.5359
328.398	15.0433
330.188	15.3571
331.977	16.3359
333.766	17.1868
335.553	17.8774
337.341	17.4722
339.129	17.6118
340.917	17.9936
342.704	18.294
344.489	19.089
346.275	18.8544
348.062	19.9291
349.845	18.6713
351.631	17.6307
353.416	18.1013
355.201	17.0824
356.984	16.1774
358.768	16.7942
360.552	16.1977
362.333	15.0944
364.116	15.5714
365.899	15.293
367.68	14.4822
369.462	13.9632
371.243	13.5462
373.023	13.5354
374.804	13.0321
376.585	11.9554
378.363	12.3946
380.143	12.1378
381.923	12.6728
383.7	12.5928
385.479	12.4372
387.256	12.1553
389.034	12.4337
390.812	12.6162
392.588	12.593
394.365	13.2918
396.14	12.6052
397.916	13.1719
399.691	12.6037
401.467	11.4683
403.24	10.4081
405.015	9.69766
406.788	9.19448
408.563	8.47164
410.335	8.60671
412.109	8.17006
413.88	7.50098
415.654	7.29613
417.424	7.26264
419.197	8.02734
420.967	8.26574
422.739	7.55635
424.508	8.04249
426.279	6.50827
428.048	6.06304
429.819	5.64206
431.587	5.9668
433.356	5.45598
435.124	4.37756
436.891	4.88925
438.66	3.15065
440.426	3.05156
442.194	3.42104
443.96	3.30442
445.725	4.58219
447.492	4.54594
449.257	3.7785
451.021	3.52493
452.787	4.17311
454.551	3.98095
456.314	3.55631
458.079	4.99605
459.842	5.12809
461.604	5.72665
463.368	5.57038
465.13	5.94906
466.891	7.30743
468.654	7.61996
470.415	9.33083
472.175	9.70917
473.935	11.0332
475.696	12.2281
477.456	13.2623
479.215	14.1902
480.973	14.2876
482.733	15.0506
484.491	15.6696
486.249	15.9932
488.006	16.38
489.765	16.1279
491.522	17.4979
493.278	18.1655
495.034	20.0378
496.789	21.1026
498.544	21.9672
500.301	22.6773
502.056	22.9354
503.81	23.5376
505.564	23.5599
507.317	24.2782
509.071	24.0728
510.825	23.07
512.578	24.2749
514.33	24.0001
516.082	24.311
517.833	24.9971
519.585	24.575
521.335	24.1939
523.086	23.5503
524.836	23.5164
526.586	22.5867
528.335	21.6815
530.085	21.466
531.835	20.29
533.584	19.6986
535.332	17.8968
537.08	16.4839
538.827	15.789
540.574	15.3436
542.321	14.1495
544.068	13.1815
545.814	11.9224
547.56	11.6917
549.305	11.5638
551.05	10.242
552.795	8.91344
554.54	8.4624
556.282	7.9097
558.025	8.06019
559.769	7.43748
561.512	6.54633
563.255	5.88594
564.997	4.92643
566.739	4.52158
568.481	4.15181
570.223	4.19594
571.964	4.18544
573.705	3.27023
575.443	3.14045
577.183	3.14406
578.923	3.42772
580.663	3.53914
582.402	3.98941
584.141	3.86655
585.879	3.40321
587.615	2.86935
589.353	1.70304
591.09	1.75174
592.828	2.20221
594.564	3.27648
596.299	2.86559
598.035	3.12822
599.771	4.63994
601.506	4.27206
603.242	4.19716
604.974	5.10865
606.709	5.26335
608.443	5.65781
610.177	5.29483
611.908	6.33274
613.642	6.7196
615.374	6.64245
617.105	7.84593
618.837	7.3518
620.569	8.56546
622.3	7.89749
624.03	7.98644
625.761	8.96403
627.491	9.97468
629.219	9.74148
630.949	10.0832
632.677	10.8301
634.406	12.6267
636.135	11.9171
637.861	12.3423
639.59	13.583
641.318	15.7589
643.043	17.1236
644.77	18.2826
646.495	18.9715
648.222	18.256
649.948	20.1101
651.672	21.506
653.398	22.2439
655.121	23.4538
656.846	24.6572
658.569	24.4899
660.293	24.298
662.015	24.5407
663.738	26.2102
665.46	25.6995
667.183	25.4314
668.903	24.8246
670.626	25.0777
672.346	25.7336
674.067	25.4747
675.787	25.7418
677.508	27.3029
679.226	28.6697
680.947	29.9446
682.665	30.4892
684.385	32.4941
686.102	32.9182
687.821	33.1278
689.538	34.7676
691.254	34.8368
692.972	34.4984
694.688	34.6747
696.406	35.1004
698.121	36.5841
699.835	37.738
701.552	37.7866
703.266	38.4591
704.98	37.9191
706.695	38.8227
708.409	38.5931
710.121	39.5992
711.836	40.4716
713.548	40.9083
715.26	41.0052
716.973	41.969
718.685	42.6305
720.396	43.4385
722.108	43.7116
723.818	44.6721
725.528	45.5099
727.238	46.3728
728.949	47.1697
730.658	48.258
732.367	49.1348
734.075	50.0837
735.785	51.4752
737.493	52.4183
739.2	53.1989
740.907	54.064
742.614	54.4823
744.322	54.7882
746.028	55.7415
747.734	56.6194
749.439	58.8098
751.144	58.9956
752.849	61.1191
754.555	62.5796
756.26	64.3192
757.963	66.4642
759.667	67.3918
761.37	70.0801
763.073	72.3331
764.775	72.9603
766.477	73.0272
768.179	73.3339
769.883	73.5792
771.584	74.3737
773.285	76.0087
774.986	77.5076
776.686	77.6116
778.386	78.4835
780.085	79.6858
781.785	80.7839
783.484	82.0692
785.182	82.4842
786.881	82.2122
788.579	81.8507
790.276	81.7862
791.974	82.0212
793.671	83.0747
795.367	83.6233
797.064	84.188
798.76	83.7834
800.456	84.1642
802.151	84.4858
803.846	84.9447
805.541	85.5277
807.234	85.4559
808.928	85.7523
810.622	86.1167
812.315	87.1227
814.008	87.6707
815.701	88.4986
817.394	87.4633
819.086	87.3543
820.778	87.447
822.468	88.2611
824.159	88.2154
825.85	88.2149
827.541	88.0052
829.231	88.8885
830.921	88.5612
832.609	88.9635
834.298	88.324
835.987	86.9995
837.676	87.1816
839.364	84.8175
841.051	84.0552
842.738	83.1469
844.426	81.5405
846.113	79.6414
847.798	77.1147
849.484	75.8216
851.171	74.923
852.857	75.1008
854.54	75.8224
856.226	75.5053
857.911	73.7514
859.593	72.0941
861.278	70.1709
862.961	68.4192
864.645	66.8198
866.327	64.9799
868.01	63.9366
869.692	63.1517
871.373	61.4966
873.055	61.0868
874.735	60.5672
876.416	59.9735
878.097	60.4115
879.776	59.8125
881.457	59.1953
883.135	58.0483
884.815	57.1007
886.495	56.4483
888.172	55.6726
889.851	55.0032
891.528	53.9227
893.206	54.4771
894.882	54.9113
896.56	54.3344
898.237	53.173
899.912	52.7714
901.589	52.0213
903.263	53.1801
904.94	53.285
906.614	52.7403
908.289	53.0149
909.962	52.408
911.635	51.6203
913.31	51.5475
914.982	50.1505
916.656	48.8129
918.328	47.2711
920.001	47.3314
921.672	46.9476
923.345	44.5984
925.015	45.9182
926.685	46.8974
928.357	46.7799
930.026	47.0185
931.698	47.6265
933.366	48.1056
935.035	46.3741
936.705	46.2226
938.373	46.2146
940.041	45.2115
941.71	43.3651
943.377	42.0148
945.044	41.7004
946.712	41.9043
948.378	42.2302
950.044	43.1802
951.709	44.4331
953.376	44.9782
955.041	44.3845
956.706	43.7423
958.372	41.888
960.036	42.155
961.699	41.6064
963.362	41.7943
965.027	41.9079
966.69	41.9286
968.352	42.2558
970.014	43.415
971.676	44.1948
973.339	44.7627
975	44.588
976.661	45.5138
978.322	45.8008
979.982	45.9836
981.642	47.6563
983.303	48.3476
984.962	49.3752
986.621	49.2299
988.28	48.5182
989.938	48.4831
991.596	48.7024
993.254	48.0306
994.911	48.2933
996.57	48.3157
998.227	48.5086
999.884	48.4699
1001.54	48.7608
1003.2	49.1936
1004.85	48.8805
1006.51	49.4762
1008.16	51.2119
1009.82	50.7882
1011.47	50.1903
1013.12	49.8783
1014.78	49.0257
1016.43	49.0302
1018.08	48.8436
1019.74	49.4514
1021.39	50.7293
1023.04	50.4104
1024.69	50.2339
1026.34	51.3602
1028	53.0212
1029.65	52.4612
1031.3	52.0557
1032.95	51.666
1034.6	49.9613
1036.25	47.9077
1037.9	46.4358
1039.54	45.1915
1041.19	44.1075
1042.84	44.6014
1044.49	44.8056
1046.14	45.6266
1047.78	45.1245
1049.43	43.9403
1051.08	42.9156
1052.72	41.7186
1054.37	40.3046
1056.02	39.5333
1057.66	38.286
1059.31	38.387
1060.95	37.1313
1062.6	36.9403
1064.24	36.2008
1065.88	34.2578
1067.53	34.3789
1069.17	32.8936
1070.81	31.6001
1072.45	31.3349
1074.1	31.5354
1075.74	31.1008
1077.38	30.4412
1079.02	30.1984
1080.66	29.4902
1082.3	29.5464
1083.94	28.9399
1085.58	29.8486
1087.22	30.0204
1088.86	30.7396
1090.5	31.4286
1092.14	31.7717
1093.78	32.1034
1095.42	32.0649
1097.05	33.1326
1098.69	34.0269
1100.33	34.4345
1101.96	33.916
1103.6	34.3895
1105.24	33.7739
1106.87	33.9422
1108.51	33.0448
1110.14	32.9063
1111.78	31.7436
1113.41	31.0365
1115.05	30.5117
1116.68	28.527
1118.31	27.4898
1119.95	26.7406
1121.58	26.0717
1123.21	25.6788
1124.85	25.6717
1126.48	24.8933
1128.11	23.7926
1129.74	21.8273
1131.37	20.7304
1133	18.9011
1134.63	18.4567
1136.26	17.2941
1137.89	17.2113
1139.52	17.0313
1141.15	17.159
1142.78	15.8092
1144.41	15.3829
1146.04	14.5336
1147.66	13.6102
1149.29	13.3181
1150.92	11.7769
1152.55	11.5408
1154.17	11.092
1155.8	10.2106
1157.43	8.5053
1159.05	7.45528
1160.68	6.9197
1162.3	6.47558
1163.93	6.1105
1165.55	4.89446
1167.17	4.58599
1168.8	4.11787
1170.42	5.0612
1172.05	5.59186
1173.67	5.76012
1175.29	5.99732
1176.91	6.40998
1178.54	6.7669
1180.16	7.11998
1181.78	7.86708
1183.4	7.3562
1185.02	7.96689
1186.64	9.58026
1188.26	9.77105
1189.88	10.6657
1191.5	12.1166
1193.12	12.1659
1194.74	12.7638
1196.36	14.252
1197.97	14.4377
1199.59	15.9813
1201.21	17.8604
1202.83	18.969
1204.44	19.9484
1206.06	21.4311
1207.68	21.9912
1209.29	23.5222
1210.91	24.934
1212.52	26.6632
1214.14	28.2775
1215.75	30.8143
1217.37	32.7993
1218.98	35.6735
1220.59	37.8215
1222.21	38.9663
1223.82	40.0738
1225.43	42.1195
1227.05	43.4988
1228.66	44.9341
1230.27	46.1457
1231.88	46.9509
1233.49	47.974
1235.1	48.7518
1236.72	51.0491
1238.33	52.4671
1239.94	54.0604
1241.55	54.7206
1243.16	55.8487
1244.76	56.7615
1246.37	58.3761
1247.98	59.8254
1249.59	62.4406
1251.2	64.5178
1252.8	64.6619
1254.41	66.1918
1256.02	66.2129
1257.62	67.1364
1259.23	67.7174
1260.84	69.0691
1262.44	69.1376
1264.05	69.8707
1265.66	70.5242
1267.26	71.7562
1268.86	72.3078
1270.47	73.5393
1272.07	74.7996
1273.67	74.6141
1275.28	75.0124
1276.88	75.9638
1278.48	75.8146
1280.09	76.7548
1281.69	76.5729
1283.29	77.0469
1284.89	78.7026
1286.49	79.3377
1288.09	80.2272
1289.69	80.7691
1291.29	81.1819
1292.89	81.8801
1294.49	82.6413
1296.09	83.7538
1297.69	85.068
1299.29	85.3395
1300.89	86.0358
1302.49	86.487
1304.08	87.3857
1305.68	88.1752
1307.28	88.425
1308.88	89.5865
1310.47	90.2322
1312.07	91.3809
1313.66	93.0483
1315.26	93.5453
1316.85	93.426
1318.45	93.0958
1320.04	92.3437
1321.64	91.8142
1323.23	92.0112
1324.83	92.361
1326.42	92.1811
1328.01	91.0387
1329.61	90.2254
1331.2	87.9697
1332.79	85.8513
1334.38	84.6883
1335.97	82.3699
1337.56	82.0268
1339.16	80.5035
1340.75	79.1578
1342.34	78.1645
1343.93	77.4224
1345.52	74.9604
1347.11	73.4936
1348.7	71.807
1350.29	69.7015
1351.87	67.8446
1353.46	65.5458
1355.05	64.1185
1356.64	63.856
1358.22	61.7457
1359.81	60.3713
1361.4	58.5541
1362.98	57.097
1364.57	55.6559
1366.16	53.9773
1367.74	52.7955
1369.33	51.0537
1370.91	50.8617
1372.5	49.3906
1374.08	48.1067
1375.67	48.1579
1377.25	47.5559
1378.83	47.5023
1380.41	47.9647
1382	47.6432
1383.58	47.5173
1385.16	47.2843
1386.74	46.2458
1388.33	46.4745
1389.91	46.4291
1391.49	46.586
1393.07	47.1201
1394.65	45.9725
1396.23	45.815
1397.81	45.8276
1399.39	45.6094
1400.97	45.3321
1402.55	45.0562
1404.13	44.4826
1405.7	43.1367
1407.28	42.5295
1408.86	42.9054
1410.44	43.6077
1412.01	43.9927
1413.59	44.936
1415.17	45.7231
1416.74	47.7319
1418.32	49.001
1419.89	50.7293
1421.47	51.9305
1423.04	53.2526
1424.62	55.0841
1426.19	57.9817
1427.77	59.9773
1429.34	62.557
1430.91	65.6653
1432.49	68.7342
1434.06	71.5695
1435.63	74.6616
1437.2	75.969
1438.78	78.2332
1440.35	80.0599
1441.92	81.2768
1443.49	83.3445
1445.06	84.4185
1446.63	84.9238
1448.2	85.7358
1449.77	85.8199
1451.34	86.7198
1452.91	87.3202
1454.48	87.7115
1456.05	87.0152
1457.62	86.229
1459.18	84.9671
1460.75	83.4662
1462.32	82.0896
1463.89	80.0518
1465.45	77.6676
1467.02	76.2838
1468.59	73.7108
1470.15	71.4786
1471.72	68.4707
1473.28	64.4677
1474.85	60.9305
1476.41	57.5207
1477.98	54.0461
1479.54	49.3683
1481.1	46.7946
1482.67	43.3953
1484.23	40.6059
1485.79	38.1322
1487.36	34.7012
1488.92	31.1415
1490.48	27.8461
1492.04	25.8288
1493.61	24.0294
1495.17	22.8127
1496.73	21.7559
1498.29	20.3623
1499.85	18.5058
1501.41	17.6259
1502.97	17.4568
1504.53	17.2624
1506.09	16.9574
1507.65	18.2664
1509.2	18.6475
1510.76	18.1051
1512.32	17.6979
1513.88	18.9182
1515.43	18.2084
1516.99	17.7811
1518.55	18.2709
1520.1	18.1952
1521.66	19.4018
1523.22	20.5984
1524.77	21.6617
1526.33	22.5726
1527.88	23.7703
1529.44	25.2111
1530.99	24.8455
1532.54	25.7096
1534.1	26.6304
1535.65	28.2181
1537.21	29.0382
1538.76	29.7968
1540.31	31.1867
1541.86	31.6621
1543.42	33.0953
1544.97	34.782
1546.52	37.1101
1548.07	37.9815
1549.62	39.3878
1551.17	40.492
1552.72	41.7182
1554.27	42.9805
1555.82	44.3268
1557.37	45.649
1558.92	48.0812
1560.47	49.3082
1562.02	50.9653
1563.56	51.6108
1565.11	52.6806
1566.66	54.1111
1568.21	56.357
1569.75	57.5318
1571.3	59.7929
1572.85	61.2204
1574.39	62.7802
1575.94	63.9509
1577.49	65.59
1579.03	67.5672
1580.57	70.2971
1582.12	71.95
1583.66	72.6018
1585.21	73.3274
1586.75	73.7649
1588.3	73.5507
1589.84	73.6956
1591.38	73.6843
1592.92	72.0572
1594.47	72.0441
1596.01	72.7357
1597.55	72.5636
1599.09	72.675
1600.63	72.892
1602.17	72.0474
1603.71	70.5505
1605.25	70.2612
1606.79	69.6968
1608.33	68.9036
1609.87	69.1319
1611.41	69.0444
1612.95	69.3109
1614.49	68.5309
1616.03	68.8915
1617.57	69.3439
1619.1	69.1401
1620.64	69.6269
1622.18	70.3425
1623.72	70.9164
1625.25	70.4541
1626.79	71.8395
1628.32	73.0863
1629.86	75.4456
1631.39	76.5792
1632.93	78.7087
1634.46	80.9298
1636	82.6854
1637.53	84.4217
1639.07	85.5243
1640.6	86.8225
1642.13	88.6111
1643.67	90.196
1645.2	92.4866
1646.73	93.8289
1648.26	95.7784
1649.8	96.982
1651.33	98.4314
1652.86	99.9641
1654.39	100.224
1655.92	100.432
1657.45	101.26
1658.98	100.928
1660.51	100.378
1662.04	100.36
1663.57	99.7346
1665.1	97.8038
1666.63	95.8298
1668.16	94.299
1669.68	93.2876
1671.21	91.232
1672.74	89.8519
1674.27	87.0179
1675.79	83.97
1677.32	81.808
1678.85	78.5897
1680.37	75.4504
1681.9	72.5739
1683.42	69.0096
1684.95	65.6502
1686.47	62.5826
1688	58.9907
1689.52	55.3359
1691.05	52.1042
1692.57	48.5469
1694.09	44.3513
1695.62	41.0426
1697.14	37.845
1698.66	34.6688
1700.18	31.3193
1701.71	28.6057
1703.23	26.7018
1704.75	24.1173
1706.27	22.2795
1707.79	19.1463
1709.31	17.89
1710.83	15.7141
1712.35	13.9696
1713.87	12.6047
1715.39	10.5648
1716.91	9.63364
1718.43	8.58018
1719.95	8.28321
1721.47	7.53558
1722.99	6.33342
1724.5	6.53358
1726.02	6.01356
1727.54	5.6274
1729.06	5.61236
1730.57	5.36076
1732.09	6.00096
1733.61	6.47285
1735.12	6.36753
1736.64	7.01391
1738.15	7.10303
1739.67	6.90043
1741.18	6.36396
1742.7	6.00745
1744.21	6.29608
1745.72	6.65073
1747.24	6.81308
1748.75	7.27581
1750.26	7.03223
1751.77	7.46195
1753.29	7.84179
1754.8	7.23324
1756.31	6.61341
1757.82	6.31467
1759.33	6.28534
1760.84	6.03793
1762.36	5.85847
1763.87	5.38723
1765.38	4.35818
1766.89	4.14508
1768.4	2.66063
1769.91	2.25814
1771.41	2.22408
1772.92	1.75688
1774.43	1.024
1775.94	1.23545
1777.45	1.59413
1778.95	1.36367
1780.46	1.08908
1781.97	0.958043
1783.48	0.464838
1784.98	0.947628
1786.49	0.532183
1787.99	0.450732
1789.5	0.26643
1791.01	-0.291555
1792.51	0.329771
1794.01	-0.0432904
1795.52	0.0222553
1797.02	-0.290052
1798.53	-0.241103
1800.03	0.199733
1801.53	-0.0778718
1803.04	0.044326
1804.54	0.398463
1806.04	0.556276
1807.54	0.697794
1809.05	1.04524
1810.55	1.13792
1812.05	0.9335
1813.55	0.361618
1815.05	0.0255674
1816.55	-0.186681
1818.05	0.264253
1819.55	0.768617
1821.05	1.21449
1822.55	1.60021
1824.05	1.19424
1825.55	1.35772
1827.05	1.43857
1828.55	1.33976
1830.04	0.971673
1831.54	0.766103
1833.04	1.27552
1834.54	1.1298
1836.03	0.928607
1837.53	1.40132
1839.03	1.37762
1840.52	1.3498
1842.02	1.74857
1843.51	1.70011
1845.01	2.1047
1846.5	2.16897
1848	2.83435
1849.49	2.62079
1850.99	3.28241
1852.48	3.07539
1853.97	2.7984
1855.47	2.5298
1856.96	2.86588
1858.45	3.44552
1859.94	3.55968
1861.44	3.78376
1862.93	3.32349
1864.42	3.65311
1865.91	3.80288
1867.4	3.60305
1868.89	3.4545
1870.38	4.13913
1871.87	4.47931
1873.36	4.87604
1874.85	5.0574
1876.34	5.43199
1877.83	5.62668
1879.32	5.52736
1880.81	5.37029
1882.3	5.44009
1882.57	5.30428
1884.07	4.64666
1885.56	4.58414
1887.06	4.36818
1888.55	4.67731
1890.04	4.48114
1891.54	4.3961
1893.03	4.25841
1894.52	4.66958
1896.02	4.91812
1897.51	5.06139
1899	5.16209
1900.49	4.96043
1901.98	4.80964
1903.47	4.89316
1904.96	5.59246
1906.45	6.24976
1907.94	6.00329
1909.43	5.41648
1910.92	5.25762
1912.41	4.66253
1913.9	4.72762
1915.39	5.07017
1916.88	5.00674
1918.37	4.97124
1919.85	5.31553
1921.34	5.8814
1922.83	5.37906
1924.32	6.0835
1925.8	5.5131
1927.29	5.35847
1928.78	5.76176
1930.26	6.01068
1931.75	5.81534
1933.23	5.4913
1934.72	5.67079
1936.2	5.47921
1937.69	5.93558
1939.17	5.51732
1940.66	5.0463
1942.14	5.83844
1943.63	5.49247
1945.11	5.45671
1946.59	5.78971
1948.07	5.49949
1949.56	5.40941
1951.04	5.11454
1952.52	4.08702
1954	4.22404
1955.48	3.73956
1956.96	3.45076
1958.45	3.18825
1959.93	3.45931
1961.41	2.92938
1962.89	3.05358
1964.37	2.38045
1965.85	2.80617
1967.32	3.21258
1968.8	3.056
1970.28	2.61729
1971.76	2.30577
1973.24	1.3847
1974.72	1.05407
1976.19	0.766473
1977.67	1.0437
1979.15	0.583052
1980.63	0.187039
1982.1	-0.0843158
1983.58	-0.331449
1985.05	-0.250627
1986.53	-0.43049
1988	-0.00568549
1989.48	-0.0333708
1990.95	-0.0989844
1992.43	0.134979
1993.9	0.545911
1995.38	0.872138
1996.85	0.482589
1998.32	1.18533
1999.8	0.766533
2001.27	0.374241
2002.74	1.05576
2004.22	1.06329
2005.69	1.01055
2007.16	0.640969
2008.63	0.829532
2010.1	1.01306
2011.57	1.04964
2013.04	0.775972
2014.51	0.853024
2015.98	1.39402
2017.45	1.82041
2018.92	3.16778
2020.39	3.99726
2021.86	3.59087
2023.33	3.51511
2024.8	3.77402
2026.27	3.70615
2027.74	4.48471
2029.2	4.27488
2030.67	5.14219
2032.14	5.15528
2033.61	5.1712
2035.07	4.55554
2036.54	4.51894
2038.01	5.02355
2039.47	5.50811
2040.94	5.47866
2042.4	5.7563
2043.87	6.66229
2045.33	6.52901
2046.8	7.21075
2048.26	7.74428
2049.72	8.2894
2051.19	8.42666
2052.65	7.97268
2054.12	8.44685
2055.58	8.64281
2057.04	8.90234
2058.5	8.72053
2059.97	9.82516
2061.43	9.95307
2062.89	10.3246
2064.35	11.0585
2065.81	11.5506
2067.27	12.3693
2068.73	13.0782
2070.19	13.5737
2071.65	14.5479
2073.11	15.0105
2074.57	15.2995
2076.03	16.3975
2077.49	17.0889
2078.95	17.0721
2080.41	18.1244
2081.87	19.4128
2083.32	20.3819
2084.78	21.2036
2086.24	22.1646
2087.7	23.3627
2089.15	25.0953
2090.61	25.9387
2092.07	26.5712
2093.52	27.242
2094.98	27.5977
2096.43	28.998
2097.89	29.7678
2099.34	30.6974
2100.8	31.5758
2102.25	32.7273
2103.71	33.9817
2105.16	34.6005
2106.61	35.5098
2108.07	37.1599
2109.52	38.8954
2110.97	40.9887
2112.43	41.762
2113.88	43.3703
2115.33	45.0123
2116.78	46.52
2118.23	46.934
2119.68	48.8278
2121.13	49.8632
2122.59	50.8567
2124.04	52.2924
2125.49	54.1533
2126.94	56.3075
2128.39	58.043
2129.83	59.7642
