#Acq. time (s)=	45
#Accumulations=	2
#Range (cm-¹)=	200...3150
#Windows=	2
#Auto scanning=	Off
#Autofocus=	Off
#Macrospot=	Off
#AutoExposure=	Off
#Spike filter=	Multiple accum.
#Delay time (s)=	0
#Binning=	1
#Readout mode=	Signal
#DeNoise=	Off
#ICS correction=	On
#Dark correction=	Off
#Inst. Process=	Off
#Detector Gain=	Best Dynamic Range
#Detector ADC=	20 kHz       
#Detector temperature (°C)=	-69.85
#Instrument=	LabRAM HR Evol
#Detector=	Synapse
#Objective=	x100
#Grating=	600 gr/mm
#ND Filter=	100%
#Laser (nm)=	532 
#Hole=	100.021
#Range=	Auto
#Laser Pol.=	No
#Raman. Pol.=	No
#Laser Pol. (°)=	-0.0007625
#Raman Pol. (°)=	89.9995
#Collection=	Microscope
#StageXY=	Marzhauser
#StageZ=	Marzhauser
#X (µm)=	9022.5
#Y (µm)=	-3077
#Z (µm)=	-55
#Full time(mm:ss)=	3:18
#Project=	
#Sample=	
#Site=	
#Title=	Thy_00_07_20_2x_45s_532 nm_x100_100%_600 gr_mm
#Remark=	
#Date=	28.06.2022 11:35
#Acquired=	28.06.2022 11:35:42
#Base:Fit=	10.08.2022 10:07:56
#Base:Sub=	10.08.2022 10:08:40
#Filter:Polynom=	16.08.2022 10:26:06
#AxisType[0]=Intens
#AxisUnit[0]=Cnt
#AxisType[1]=Spectr
#AxisUnit[1]=1/cm
200.407	44.0286
202.221	43.674
204.035	44.8332
205.849	45.6085
207.665	44.6
209.478	43.8806
211.291	43.3291
213.104	43.153
214.916	41.6501
216.73	40.8845
218.541	40.7394
220.352	39.078
222.163	37.5191
223.973	35.1376
225.785	34.7286
227.595	32.4916
229.404	31.4205
231.213	30.4526
233.022	29.6107
234.83	28.9427
236.638	27.9134
238.448	27.0535
240.255	25.2708
242.062	24.4552
243.868	24.2372
245.675	24.0005
247.48	22.9727
249.286	21.3997
251.091	19.8114
252.896	19.0807
254.702	16.9296
256.506	14.8582
258.31	14.0256
260.113	13.8495
261.916	13.7426
263.719	12.9149
265.521	12.5207
267.323	11.4951
269.125	11.1655
270.926	11.3461
272.727	10.9875
274.527	9.78586
276.328	9.51949
278.127	8.74843
279.927	7.11873
281.726	6.5931
283.525	5.55838
285.323	6.97223
287.121	9.36728
288.919	9.10855
290.716	7.96536
292.513	8.72391
294.31	8.71483
296.104	9.87416
297.9	12.9881
299.696	14.2556
301.491	14.9519
303.286	15.1943
305.081	15.1206
306.875	16.6196
308.669	17.2736
310.463	17.032
312.256	17.9158
314.047	18.1696
315.839	19.3942
317.631	19.4236
319.423	20.6485
321.215	20.9063
323.006	20.7028
324.794	21.1636
326.585	20.9882
328.375	20.6062
330.165	20.3047
331.954	21.316
333.741	21.0564
335.53	19.8988
337.318	18.8857
339.106	17.2127
340.894	15.8983
342.679	14.5028
344.466	12.8775
346.253	11.6344
348.039	11.13
349.823	10.1313
351.608	8.92337
353.393	7.78163
355.176	7.06002
356.961	6.56207
358.745	5.04292
360.529	4.2297
362.31	2.80781
364.093	2.23068
365.876	2.40645
367.657	1.48061
369.439	-0.00774704
371.221	1.03062
373	0.353408
374.781	1.14177
376.56	1.68301
378.34	0.726656
380.12	1.60324
381.898	3.13622
383.677	3.47309
385.456	4.75897
387.233	5.42862
389.011	5.04848
390.787	5.19268
392.565	5.8603
394.34	7.05428
396.117	7.92828
397.894	8.43254
399.668	8.17335
401.444	8.46584
403.217	8.19593
404.993	8.60071
406.766	8.95864
408.54	9.32672
410.312	9.53758
412.086	9.73271
413.858	10.4993
415.631	9.65752
417.402	9.82321
419.174	9.67276
420.944	9.20778
422.716	8.16452
424.486	7.18997
426.257	7.44485
428.025	7.10877
429.794	7.24482
431.564	7.39608
433.332	7.37776
435.101	7.70583
436.868	7.565
438.637	6.89762
440.403	6.0063
442.169	6.00061
443.937	4.8893
445.703	5.06271
447.468	4.35843
449.234	4.38739
450.999	4.64763
452.765	4.82681
454.528	4.30451
456.292	3.2689
458.057	4.02548
459.819	4.08833
461.582	3.23158
463.344	3.17087
465.107	4.15309
466.868	4.14352
468.629	3.94883
470.392	3.92121
472.152	4.01757
473.912	4.29185
475.672	4.05261
477.433	4.05895
479.192	4.26107
480.951	4.52005
482.709	5.21779
484.469	5.89555
486.226	5.65345
487.984	6.20787
489.74	7.43003
491.499	8.62966
493.255	10.3061
495.011	11.7265
496.767	13.1706
498.522	14.1549
500.277	15.1297
502.033	15.1525
503.788	14.8978
505.541	16.211
507.295	15.6315
509.048	15.5611
510.801	16.7743
512.553	17.5496
514.308	19.1625
516.06	19.5793
517.811	20.1823
519.562	20.8145
521.313	21.0805
523.063	20.8162
524.814	19.9975
526.563	20.5322
528.313	20.627
530.062	21.3704
531.811	21.2819
533.559	21.5785
535.308	22.1539
537.055	22.3392
538.803	22.5987
540.55	21.4043
542.297	19.8112
544.043	18.7282
545.789	18.0119
547.535	16.6476
549.281	16.0661
551.026	16.0197
552.771	15.8121
554.515	14.5161
556.259	13.9163
558.003	12.9773
559.747	12.0386
561.49	11.0059
563.233	10.9158
564.975	10.2781
566.717	10.9733
568.459	10.9104
570.2	10.742
571.942	9.6717
573.68	9.15649
575.421	9.43254
577.161	9.27209
578.901	9.38495
580.64	9.09141
582.379	8.66925
584.118	8.15145
585.855	6.77465
587.593	5.78112
589.331	4.22333
591.068	3.71781
592.805	2.86444
594.54	1.88396
596.277	2.07812
598.013	2.2316
599.749	1.60955
601.484	1.75555
603.217	1.67704
604.952	1.68178
606.687	2.00857
608.421	2.07414
610.153	1.88019
611.886	2.43429
613.619	2.3502
615.35	2.04531
617.083	2.06315
618.815	1.38486
620.547	2.40658
622.276	4.28434
624.008	4.23401
625.738	3.83443
627.467	3.37081
629.197	4.05101
630.927	5.35586
632.655	6.68027
634.384	8.01457
636.113	9.04708
637.839	9.17951
639.568	9.61557
641.293	8.85299
643.021	9.78872
644.748	9.48031
646.473	10.3842
648.2	11.5189
649.924	12.3084
651.65	12.6626
653.376	13.5877
655.099	12.5503
656.824	12.8214
658.546	12.8531
660.271	13.6155
661.993	13.316
663.716	13.6375
665.438	14.0467
667.161	14.0395
668.881	13.0931
670.604	14.1638
672.324	14.5908
674.045	15.4071
675.765	15.4665
677.486	16.5444
679.204	17.524
680.925	17.7846
682.643	18.2749
684.361	18.3117
686.08	18.9108
687.797	18.9439
689.516	18.9049
691.232	20.2129
692.95	21.0288
694.666	20.5601
696.382	20.0232
698.099	20.178
699.813	20.6427
701.528	22.3635
703.244	23.3062
704.958	24.6466
706.673	27.0739
708.387	26.9909
710.099	26.9839
711.814	27.7692
713.526	30.0052
715.238	30.7835
716.949	31.4624
718.663	32.2378
720.374	32.1506
722.084	32.7268
723.796	33.0182
725.506	33.9432
727.216	34.8865
728.925	37.4795
730.636	38.7755
732.345	39.6593
734.053	40.6678
735.761	40.7023
737.471	42.1925
739.178	43.3123
740.885	43.5492
742.592	44.8245
744.298	46.2281
746.006	48.0506
747.712	50.4906
749.417	53.1172
751.122	54.9421
752.827	56.8872
754.532	59.5699
756.236	63.4017
757.942	64.8596
759.645	66.5672
761.348	67.9375
763.051	69.5187
764.753	70.0312
766.456	70.4891
768.158	71.6142
769.859	71.1384
771.56	70.7496
773.261	71.2471
774.964	70.6756
776.664	70.4222
778.364	69.2954
780.064	68.1772
781.763	67.9998
783.462	69.2099
785.16	69.4913
786.859	70.5192
788.557	70.2402
790.255	71.3577
791.952	70.9479
793.649	70.0448
795.346	70.9829
797.042	72.2946
798.738	72.7316
800.434	72.4721
802.127	73.302
803.823	73.8447
805.517	74.0899
807.212	74.8965
808.906	74.0846
810.6	74.7463
812.293	75.4939
813.987	75.1632
815.68	75.4328
817.372	74.0946
819.064	74.8239
820.754	74.8642
822.446	75.759
824.137	75.6455
825.828	75.7093
827.519	76.779
829.209	77.4686
830.897	78.3944
832.587	78.6762
834.276	77.9765
835.966	77.5291
837.654	78.133
839.341	78.8378
841.029	78.4943
842.717	77.4035
844.404	76.0588
846.091	74.894
847.776	73.5023
849.463	71.6845
851.149	69.7384
852.833	67.3583
854.519	64.3494
856.204	61.9498
857.889	60.5318
859.572	57.7743
861.256	56.4846
862.94	55.0328
864.622	53.0398
866.305	52.2203
867.988	51.5861
869.669	50.0197
871.351	49.4562
873.033	47.9841
874.713	47.6666
876.395	46.4264
878.074	46.668
879.755	46.833
881.435	45.8285
883.114	45.6633
884.794	45.3917
886.471	44.7604
888.15	43.8162
889.829	42.943
891.506	42.7623
893.184	41.8337
894.861	42.8618
896.538	42.8021
898.214	41.9937
899.891	42.2118
901.566	41.8216
903.242	42.7715
904.916	42.3153
906.592	43.1186
908.266	43.0415
909.941	43.6021
911.614	43.7074
913.288	43.6956
914.961	44.5899
916.635	44.6745
918.306	44.6427
919.979	45.3505
921.651	46.5517
923.321	46.3791
924.994	46.072
926.664	45.2606
928.336	45.5643
930.005	45.9906
931.674	45.6083
933.345	44.9673
935.014	44.7075
936.682	44.851
938.352	44.3464
940.019	44.3827
941.687	44.8822
943.356	44.6806
945.022	43.8631
946.689	43.3533
948.357	42.9383
950.022	42.776
951.688	42.443
953.355	41.7256
955.02	41.2851
956.684	41.162
958.348	39.9703
960.014	38.1558
961.678	36.5585
963.341	35.7123
965.004	35.9591
966.669	37.9824
968.331	38.8848
969.993	39.6138
971.655	41.2127
973.316	42.6433
974.979	43.7749
976.64	45.6871
978.3	47.2958
979.961	47.7213
981.62	48.1476
983.28	48.7477
984.941	49.1021
986.6	49.0047
988.259	48.5931
989.917	48.3471
991.575	47.8594
993.233	48.6964
994.89	48.9072
996.547	49.0695
998.204	48.8554
999.86	48.4769
1001.52	48.2349
1003.17	49.4686
1004.83	50.6153
1006.49	51.1676
1008.14	51.6934
1009.79	51.5648
1011.45	52.2398
1013.1	52.1228
1014.76	51.6852
1016.41	51.2979
1018.06	51.7973
1019.72	51.245
1021.37	50.7748
1023.02	49.5315
1024.67	49.0266
1026.32	48.5976
1027.97	47.4033
1029.62	46.6451
1031.27	45.2013
1032.92	44.09
1034.57	42.5256
1036.22	41.1539
1037.87	40.2074
1039.52	38.1661
1041.17	35.3351
1042.82	34.3435
1044.47	35.0262
1046.11	35.9866
1047.76	36.7129
1049.41	36.8104
1051.06	36.6874
1052.7	35.2071
1054.35	35.3
1055.99	35.5485
1057.64	34.1765
1059.28	33.8716
1060.93	31.76
1062.57	31.1747
1064.22	30.204
1065.86	29.2769
1067.5	27.8398
1069.15	26.8304
1070.79	26.3406
1072.43	25.6893
1074.08	25.5569
1075.72	25.2624
1077.36	24.0935
1079	22.1602
1080.64	21.7447
1082.28	21.8514
1083.92	21.053
1085.56	20.4037
1087.2	19.3821
1088.84	18.654
1090.48	18.225
1092.12	18.0779
1093.76	18.437
1095.39	17.6786
1097.03	17.5446
1098.67	17.0628
1100.31	16.6165
1101.94	16.6351
1103.58	16.5877
1105.22	16.4093
1106.85	16.5615
1108.49	16.089
1110.12	14.696
1111.76	13.7636
1113.39	12.2319
1115.03	11.4576
1116.66	10.3536
1118.29	10.0152
1119.93	9.61807
1121.56	8.79486
1123.19	8.87233
1124.82	8.45176
1126.46	7.87351
1128.09	7.53844
1129.72	7.59997
1131.35	6.86228
1132.98	7.75034
1134.61	7.20373
1136.24	8.61894
1137.87	9.02203
1139.5	7.87469
1141.13	9.20083
1142.76	9.22162
1144.39	9.6957
1146.01	8.41162
1147.64	7.6633
1149.27	6.64918
1150.9	6.01743
1152.53	5.65914
1154.15	4.21948
1155.78	3.17526
1157.4	3.03887
1159.03	2.67697
1160.65	1.87658
1162.28	2.26441
1163.9	1.02371
1165.53	0.145688
1167.15	1.09902
1168.78	2.41505
1170.4	3.81181
1172.02	4.7322
1173.65	4.88095
1175.27	5.46656
1176.89	5.85665
1178.51	7.26807
1180.14	8.00198
1181.76	9.4205
1183.38	10.6772
1185	10.7241
1186.62	11.8194
1188.24	13.3578
1189.86	13.867
1191.48	15.0766
1193.1	15.9954
1194.71	16.9189
1196.33	18.9997
1197.95	21.0973
1199.57	22.492
1201.19	23.7288
1202.8	24.8162
1204.42	25.3128
1206.04	26.4462
1207.65	28.989
1209.27	31.8679
1210.88	33.787
1212.5	36.2535
1214.12	39.4045
1215.73	40.4625
1217.35	42.7818
1218.96	44.0132
1220.57	44.9494
1222.19	46.2608
1223.8	46.5149
1225.41	48.1023
1227.03	49.5119
1228.64	51.1354
1230.25	53.2508
1231.86	54.0315
1233.47	55.6558
1235.08	56.195
1236.69	57.5796
1238.31	58.46
1239.92	58.6896
1241.52	59.1378
1243.13	59.984
1244.74	59.7998
1246.35	60.1361
1247.96	62.1498
1249.57	62.4867
1251.18	63.1399
1252.78	62.8933
1254.39	62.7412
1256	61.9123
1257.6	61.8492
1259.21	61.8776
1260.82	61.026
1262.42	60.4481
1264.03	60.2461
1265.63	60.3205
1267.24	60.1784
1268.84	60.1403
1270.45	58.5814
1272.05	58.5605
1273.65	57.3968
1275.26	56.357
1276.86	56.9454
1278.46	56.7211
1280.06	56.0731
1281.67	57.2073
1283.27	58.3517
1284.87	58.9539
1286.47	60.1303
1288.07	60.525
1289.67	61.1169
1291.27	62.5898
1292.87	64.8478
1294.47	65.7856
1296.07	67.273
1297.67	69.2245
1299.27	70.6289
1300.87	71.8882
1302.47	73.932
1304.06	76.5081
1305.66	79.0298
1307.26	81.4682
1308.85	82.8148
1310.45	84.5387
1312.05	85.1577
1313.64	86.1423
1315.24	86.7714
1316.83	87.8718
1318.43	88.0764
1320.02	88.5909
1321.62	88.4184
1323.21	87.3695
1324.8	86.714
1326.4	86.3445
1327.99	86.9981
1329.59	85.3764
1331.18	85.2677
1332.77	83.8682
1334.36	83.3218
1335.95	82.21
1337.54	82.7115
1339.14	82.0212
1340.73	79.9379
1342.32	78.8872
1343.91	77.3468
1345.5	75.7578
1347.09	73.3571
1348.67	71.8374
1350.26	70.0257
1351.85	68.2611
1353.44	66.0392
1355.03	64.3678
1356.62	63.874
1358.2	61.288
1359.79	59.0786
1361.38	57.8289
1362.96	55.6323
1364.55	53.9494
1366.14	52.5163
1367.72	51.5717
1369.31	51.4205
1370.89	50.7833
1372.48	48.9142
1374.06	48.2142
1375.64	48.1698
1377.23	47.7742
1378.81	46.8677
1380.39	45.7987
1381.98	45.6485
1383.56	45.847
1385.14	46.1578
1386.72	46.5327
1388.3	45.2331
1389.89	45.162
1391.47	44.3259
1393.05	43.1347
1394.63	43.1377
1396.21	42.4196
1397.79	41.6474
1399.37	41.3319
1400.95	41.1903
1402.52	42.1939
1404.1	43.6694
1405.68	45.5514
1407.26	46.6314
1408.84	48.1608
1410.42	49.8352
1411.99	51.3241
1413.57	54.2227
1415.15	56.3927
1416.72	59.8377
1418.3	62.622
1419.87	64.8755
1421.45	67.9461
1423.02	71.7846
1424.6	75.788
1426.17	79.4788
1427.75	82.607
1429.32	85.8423
1430.89	88.589
1432.47	91.5773
1434.04	94.3495
1435.61	98.0911
1437.18	100.626
1438.76	103.139
1440.33	106.25
1441.9	109.757
1443.47	112.094
1445.04	113.933
1446.61	115.467
1448.18	116.933
1449.75	116.799
1451.32	117.103
1452.89	118.141
1454.46	116.651
1456.03	114.844
1457.6	111.997
1459.16	109.868
1460.73	108.575
1462.3	105.644
1463.87	102.001
1465.43	97.851
1467	93.338
1468.56	88.865
1470.13	83.8251
1471.7	79.019
1473.26	73.9815
1474.83	68.7785
1476.39	63.7175
1477.96	59.2087
1479.52	54.7489
1481.08	50.9955
1482.65	46.644
1484.21	41.9976
1485.77	37.0218
1487.34	33.8489
1488.9	30.18
1490.46	27.4991
1492.02	24.5637
1493.58	21.5111
1495.15	20.1062
1496.71	17.5112
1498.27	14.5981
1499.83	12.7292
1501.39	11.8766
1502.95	9.98129
1504.51	8.7186
1506.07	7.31407
1507.63	7.41887
1509.18	7.12097
1510.74	8.40798
1512.3	8.45664
1513.86	9.10267
1515.41	8.22243
1516.97	8.71078
1518.53	10.0081
1520.08	11.1795
1521.64	11.473
1523.2	12.5019
1524.75	12.9931
1526.31	14.4465
1527.86	15.0274
1529.42	16.1707
1530.97	17.338
1532.52	17.5924
1534.08	18.6878
1535.63	19.8582
1537.19	21.3132
1538.74	21.8154
1540.29	22.3624
1541.84	23.4769
1543.4	25.2922
1544.95	26.7005
1546.5	27.1518
1548.05	28.3835
1549.6	29.6107
1551.15	30.9259
1552.7	31.9972
1554.25	33.7924
1555.8	35.9697
1557.35	37.1568
1558.9	38.5472
1560.45	39.2852
1562	40.1007
1563.54	41.5754
1565.09	42.2708
1566.64	43.1924
1568.19	43.5843
1569.73	44.2156
1571.28	45.6147
1572.83	47.2101
1574.37	47.7812
1575.92	49.4258
1577.47	50.924
1579.01	51.8216
1580.56	53.1246
1582.1	54.9517
1583.64	56.7554
1585.19	57.797
1586.73	59.5791
1588.28	60.7689
1589.82	61.4619
1591.36	62.3033
1592.9	63.3019
1594.45	65.2344
1595.99	66.6052
1597.53	67.5742
1599.07	68.1849
1600.61	68.5879
1602.15	69.1932
1603.69	70.7635
1605.23	71.0071
1606.77	70.6453
1608.31	70.537
1609.85	70.93
1611.39	70.3336
1612.93	70.0039
1614.47	70.071
1616.01	69.4743
1617.55	69.9262
1619.08	69.8289
1620.62	70.5339
1622.16	70.1085
1623.7	69.7626
1625.23	70.702
1626.77	71.7456
1628.3	71.487
1629.84	71.7044
1631.37	73.3463
1632.91	73.1112
1634.44	73.2541
1635.98	74.9174
1637.51	76.2337
1639.05	77.4349
1640.58	79.344
1642.11	81.0642
1643.65	82.9732
1645.18	84.7574
1646.71	86.7716
1648.24	89.1259
1649.78	91.4887
1651.31	92.9356
1652.84	94.787
1654.37	95.5546
1655.9	95.9307
1657.43	97.7493
1658.96	98.9009
1660.49	99.007
1662.02	99.2492
1663.55	99.6762
1665.08	98.5401
1666.61	98.2523
1668.14	96.8713
1669.66	95.9182
1671.19	94.0358
1672.72	92.0173
1674.25	89.4516
1675.77	86.9225
1677.3	84.2783
1678.83	82.1783
1680.35	78.925
1681.88	74.5983
1683.4	70.3012
1684.93	66.9293
1686.45	63.7684
1687.98	59.1067
1689.5	55.9445
1691.03	52.9083
1692.55	49.0887
1694.07	46.179
1695.6	42.5912
1697.12	39.0637
1698.64	35.3529
1700.17	32.0816
1701.69	29.5095
1703.21	26.6103
1704.73	24.2677
1706.25	22.9565
1707.77	21.3491
1709.29	19.6688
1710.81	19.1871
1712.33	18.2529
1713.85	17.0507
1715.37	15.8543
1716.89	15.418
1718.41	15.0246
1719.93	14.3043
1721.45	14.1054
1722.97	13.6884
1724.49	14.1887
1726	13.932
1727.52	13.2125
1729.04	13.232
1730.55	12.8608
1732.07	13.2229
1733.59	14.2048
1735.1	14.0749
1736.62	13.6047
1738.13	13.2614
1739.65	12.6871
1741.16	12.4982
1742.68	12.4756
1744.19	12.6755
1745.7	12.7059
1747.22	12.2688
1748.73	12.1949
1750.24	11.8369
1751.76	11.8676
1753.27	11.662
1754.78	11.5703
1756.29	10.312
1757.8	9.71977
1759.31	9.3713
1760.83	9.12308
1762.34	9.12759
1763.85	8.1309
1765.36	7.52232
1766.87	7.04988
1768.38	5.96782
1769.89	5.56789
1771.39	4.53131
1772.9	3.86802
1774.41	3.20355
1775.92	3.39226
1777.43	3.47252
1778.94	3.25168
1780.44	3.53341
1781.95	2.78527
1783.46	2.47385
1784.96	2.38887
1786.47	2.2219
1787.97	1.7465
1789.48	1.79529
1790.99	1.61582
1792.49	1.97289
1794	2.32837
1795.5	2.49826
1797	2.49265
1798.51	2.04883
1800.01	1.99947
1801.51	1.23629
1803.02	1.37026
1804.52	1.07024
1806.02	1.19571
1807.53	1.389
1809.03	1.32239
1810.53	1.15316
1812.03	1.54576
1813.53	1.6375
1815.03	2.62824
1816.53	2.98437
1818.03	3.00276
1819.53	3.61847
1821.03	3.58407
1822.53	3.52592
1824.03	3.37648
1825.53	3.70896
1827.03	3.46829
1828.53	3.21515
1830.02	2.67223
1831.52	2.71434
1833.02	2.39935
1834.52	2.54118
1836.01	2.96788
1837.51	3.705
1839.01	3.44974
1840.5	3.9296
1842	4.50342
1843.49	4.35663
1844.99	4.57585
1846.48	4.32571
1847.98	4.87841
1849.47	5.3203
1850.97	5.61885
1852.46	6.07748
1853.95	6.72573
1855.45	6.53398
1856.94	6.46662
1858.43	6.3856
1859.93	6.38114
1861.42	5.69962
1862.91	4.95664
1864.4	4.99501
1865.89	4.65195
1867.38	4.57664
1868.87	4.53316
1870.36	4.31306
1871.85	3.95636
1873.34	4.05305
1874.83	3.91903
1876.32	3.68525
1877.81	3.80377
1879.3	3.52086
1880.79	3.9684
1882.28	4.01192
1882.52	3.40919
1884.02	3.61806
1885.51	3.69477
1887.01	3.04348
1888.5	2.93142
1889.99	2.49933
1891.49	2.50205
1892.98	2.93377
1894.47	3.40221
1895.97	2.71154
1897.46	2.89662
1898.95	3.11141
1900.44	2.80045
1901.93	3.10385
1903.42	4.03835
1904.91	4.80191
1906.4	4.84356
1907.89	5.211
1909.38	6.08807
1910.87	6.32669
1912.36	6.42808
1913.85	6.93098
1915.34	6.5275
1916.83	6.35486
1918.32	6.78351
1919.8	7.11664
1921.29	6.92498
1922.78	6.58843
1924.27	6.63967
1925.75	7.16048
1927.24	6.32636
1928.73	5.6177
1930.21	5.73843
1931.7	5.15118
1933.18	5.09357
1934.67	4.2328
1936.15	4.41138
1937.64	4.36787
1939.12	3.9963
1940.61	4.62519
1942.09	4.40794
1943.57	4.43285
1945.06	4.63464
1946.54	4.28533
1948.02	4.1466
1949.51	4.62716
1950.99	4.55914
1952.47	4.55917
1953.95	4.04535
1955.43	3.86995
1956.91	3.5634
1958.4	4.24582
1959.88	3.93064
1961.36	4.47052
1962.84	4.92463
1964.32	4.67183
1965.8	5.24466
1967.27	5.288
1968.75	5.06929
1970.23	4.74025
1971.71	5.41279
1973.19	5.32525
1974.67	4.87549
1976.14	4.99321
1977.62	5.14413
1979.1	4.83302
1980.58	4.87069
1982.05	5.16707
1983.53	5.33407
1985	5.2902
1986.48	5.68575
1987.95	4.94638
1989.43	5.38691
1990.9	5.69497
1992.38	5.46481
1993.85	4.89836
1995.33	4.41974
1996.8	4.76458
1998.27	4.51079
1999.75	4.16137
2001.22	4.10133
2002.69	4.08914
2004.16	4.13941
2005.64	3.69509
2007.11	4.06526
2008.58	3.36145
2010.05	3.45108
2011.52	3.44679
2012.99	3.83662
2014.46	3.45393
2015.93	2.56115
2017.4	2.66534
2018.87	2.48773
2020.34	2.43637
2021.81	3.00898
2023.28	2.89342
2024.75	2.49209
2026.22	2.19201
2027.69	1.65609
2029.15	1.65648
2030.62	1.60399
2032.09	1.76225
2033.56	1.64599
2035.02	1.76823
2036.49	0.722508
2037.96	0.722652
2039.42	1.24098
2040.89	0.674713
2042.35	1.10845
2043.82	1.59774
2045.28	1.40771
2046.75	1.9499
2048.21	2.0106
2049.67	2.70117
2051.14	3.25654
2052.6	3.60151
2054.07	3.93692
2055.53	4.26379
2056.99	4.18389
2058.45	5.22375
2059.92	5.59777
2061.38	5.25772
2062.84	6.28608
2064.3	5.82944
2065.76	5.78658
2067.22	5.67388
2068.68	6.05555
2070.14	6.65827
2071.6	6.74901
2073.06	7.17429
2074.52	6.88654
2075.98	7.21175
2077.44	7.32195
2078.9	7.97815
2080.36	7.76287
2081.82	7.31081
2083.27	7.41176
2084.73	7.52079
2086.19	7.20831
2087.65	6.81953
2089.1	6.87672
2090.56	6.78903
2092.02	6.6618
2093.47	6.57488
2094.93	6.25586
2096.38	6.08239
2097.84	5.80876
2099.29	5.73353
2100.75	5.49234
2102.2	5.65994
2103.66	5.99262
2105.11	6.19109
2106.56	6.0544
2108.02	6.17278
2109.47	6.57766
2110.92	7.21554
2112.38	6.98915
2113.83	6.73556
2115.28	7.05819
2116.73	7.12296
2118.18	6.86226
2119.63	7.21619
2121.09	6.58846
2122.54	6.61425
2123.99	7.33297
2125.44	7.51061
2126.89	8.03884
2128.34	8.42039
2129.79	8.54981
2131.23	8.5626
2132.68	8.02312
2134.13	7.64718
2135.58	8.02889
2137.03	7.53098
2138.48	6.76563
