#Acq. time (s)=	45
#Accumulations=	2
#Range (cm-¹)=	200...3150
#Windows=	2
#Auto scanning=	Off
#Autofocus=	Off
#Macrospot=	Off
#AutoExposure=	Off
#Spike filter=	Multiple accum.
#Delay time (s)=	0
#Binning=	1
#Readout mode=	Signal
#DeNoise=	Off
#ICS correction=	On
#Dark correction=	Off
#Inst. Process=	Off
#Detector Gain=	Best Dynamic Range
#Detector ADC=	20 kHz       
#Detector temperature (°C)=	-69.85
#Instrument=	LabRAM HR Evol
#Detector=	Synapse
#Objective=	x100
#Grating=	600 gr/mm
#ND Filter=	100%
#Laser (nm)=	532 
#Hole=	100.021
#Range=	Auto
#Laser Pol.=	No
#Raman. Pol.=	No
#Laser Pol. (°)=	-0.0007625
#Raman Pol. (°)=	89.9995
#Collection=	Microscope
#StageXY=	Marzhauser
#StageZ=	Marzhauser
#X (µm)=	1962.7
#Y (µm)=	-68.8
#Z (µm)=	424.95
#Full time(mm:ss)=	3:18
#Project=	
#Sample=	
#Site=	
#Title=	Thy_40_11_09_2x_45s_532 nm_x100_100%_600 gr_mm
#Remark=	
#Date=	05.07.2022 10:29
#Acquired=	05.07.2022 10:29:55
#Base:Fit=	10.08.2022 10:01:35
#Base:Sub=	10.08.2022 10:01:52
#Filter:Polynom=	16.08.2022 10:21:53
#AxisType[0]=Intens
#AxisUnit[0]=Cnt
#AxisType[1]=Spectr
#AxisUnit[1]=1/cm
200.43	27.9298
202.244	27.9426
204.059	26.2641
205.873	24.0916
207.688	22.1064
209.501	20.0663
211.314	17.8066
213.127	15.9224
214.941	13.9695
216.753	11.4875
218.564	11.6688
220.375	10.5696
222.186	10.4978
223.999	11.04
225.809	9.70176
227.618	9.55294
229.428	9.80381
231.236	9.76371
233.045	9.16491
234.855	8.85213
236.663	8.86657
238.471	7.40019
240.278	7.73197
242.085	6.6554
243.891	5.63334
245.698	4.61987
247.503	4.71152
249.309	5.17271
251.116	6.04151
252.921	6.44483
254.725	5.23967
256.529	5.06504
258.333	4.59852
260.136	5.33674
261.939	6.94627
263.742	6.79855
265.544	7.4612
267.346	7.8459
269.148	7.85699
270.949	7.53387
272.75	7.85101
274.55	8.30359
276.351	8.13141
278.15	7.28547
279.95	8.04247
281.749	8.30653
283.548	7.76648
285.346	7.94504
287.144	7.94289
288.942	8.32041
290.739	7.90398
292.536	8.22711
294.333	8.30258
296.129	8.88024
297.925	9.55145
299.721	9.998
301.514	10.6771
303.309	12.1278
305.104	12.7948
306.898	13.9426
308.692	15.2044
310.486	15.7452
312.279	16.972
314.072	18.1075
315.862	18.1244
317.654	18.5933
319.446	19.6051
321.238	20.0099
323.029	20.4824
324.819	21.2417
326.608	20.9757
328.398	20.8057
330.188	21.3266
331.977	20.1525
333.766	20.4225
335.553	21.1449
337.341	22.8204
339.129	22.9504
340.917	22.7435
342.704	21.1037
344.489	19.666
346.275	20.2118
348.062	20.0727
349.845	20.1042
351.631	19.3275
353.416	18.8777
355.201	19.2495
356.984	17.5557
358.768	17.1552
360.552	17.2814
362.333	17.4775
364.116	17.2599
365.899	17.075
367.68	17.301
369.462	16.6859
371.243	15.8175
373.023	14.7445
374.804	15.5433
376.585	15.914
378.363	16.7765
380.143	15.9282
381.923	15.547
383.7	15.1724
385.479	16.8656
387.256	16.7892
389.034	16.0674
390.812	15.6747
392.588	16.2127
394.365	15.8424
396.14	15.1269
397.916	14.6908
399.691	15.1299
401.467	14.8484
403.24	14.1563
405.015	13.7196
406.788	12.9841
408.563	13.1896
410.335	12.5795
412.109	12.1131
413.88	11.2615
415.654	10.373
417.424	10.6916
419.197	9.8952
420.967	9.37129
422.739	9.27029
424.508	9.035
426.279	9.02609
428.048	8.82566
429.819	7.78806
431.587	6.71021
433.356	6.59968
435.124	7.37946
436.891	6.43086
438.66	5.91467
440.426	6.42559
442.194	6.83713
443.96	6.61664
445.725	6.3813
447.492	6.39787
449.257	8.02807
451.021	8.00544
452.787	8.12256
454.551	9.03375
456.314	8.7626
458.079	8.99316
459.842	10.6581
461.604	11.8885
463.368	13.8307
465.13	15.6904
466.891	16.8896
468.654	17.2154
470.415	18.813
472.175	20.818
473.935	22.3157
475.696	22.4229
477.456	23.5719
479.215	24.6287
480.973	26.1262
482.733	25.8489
484.491	27.1772
486.249	28.1583
488.006	29.0537
489.765	29.9918
491.522	30.7984
493.278	31.5598
495.034	31.6093
496.789	32.0329
498.544	32.9835
500.301	34.0285
502.056	34.7679
503.81	34.7727
505.564	35.3849
507.317	34.4728
509.071	34.5071
510.825	34.9197
512.578	34.7089
514.33	34.6606
516.082	34.0733
517.833	32.9972
519.585	32.0538
521.335	31.6121
523.086	30.1238
524.836	28.8477
526.586	28.3308
528.335	27.3821
530.085	25.1786
531.835	24.3352
533.584	23.0521
535.332	22.5466
537.08	22.6456
538.827	21.3532
540.574	21.0779
542.321	21.4795
544.068	20.5769
545.814	20.3608
547.56	20.157
549.305	19.5284
551.05	19.4347
552.795	18.6978
554.54	18.0835
556.282	17.1274
558.025	16.5145
559.769	15.4507
561.512	14.5859
563.255	13.4606
564.997	13.0037
566.739	12.8064
568.481	11.5509
570.223	10.1079
571.964	9.70877
573.705	8.21208
575.443	8.04365
577.183	7.70169
578.923	7.39949
580.663	6.58076
582.402	6.64787
584.141	5.92567
585.879	5.79594
587.615	4.9444
589.353	4.44872
591.09	4.1434
592.828	4.60317
594.564	3.76882
596.299	2.94394
598.035	2.69383
599.771	2.75404
601.506	2.37424
603.242	2.31991
604.974	1.89953
606.709	1.35001
608.443	1.15737
610.177	1.54026
611.908	2.4415
613.642	4.00043
615.374	4.2181
617.105	5.35103
618.837	6.25326
620.569	7.3486
622.3	8.891
624.03	10.1541
625.761	11.567
627.491	11.7535
629.219	12.5552
630.949	12.6111
632.677	14.5894
634.406	15.4031
636.135	17.0589
637.861	18.7799
639.59	19.3424
641.318	19.7703
643.043	20.2778
644.77	21.669
646.495	21.9646
648.222	22.3894
649.948	23.1293
651.672	24.5781
653.398	24.786
655.121	24.478
656.846	25.7288
658.569	25.9271
660.293	26.0811
662.015	26.3726
663.738	25.9796
665.46	26.3347
667.183	25.9663
668.903	25.2114
670.626	24.1311
672.346	24.0981
674.067	24.7058
675.787	26.0683
677.508	25.6146
679.226	25.5194
680.947	24.5139
682.665	24.8431
684.385	26.5138
686.102	27.1452
687.821	27.399
689.538	28.6975
691.254	29.805
692.972	30.9592
694.688	32.5189
696.406	34.8864
698.121	35.6524
699.835	36.6739
701.552	36.8023
703.266	37.9931
704.98	38.989
706.695	41.2412
708.409	42.8208
710.121	44.3827
711.836	45.527
713.548	46.5147
715.26	48.5596
716.973	50.2161
718.685	51.7541
720.396	52.2149
722.108	53.3944
723.818	53.6946
725.528	54.393
727.238	54.5202
728.949	54.8935
730.658	55.34
732.367	55.9259
734.075	57.2796
735.785	58.0321
737.493	57.9114
739.2	56.767
740.907	56.8348
742.614	57.0515
744.322	56.7792
746.028	56.614
747.734	57.5159
749.439	57.8381
751.144	59.2308
752.849	59.2459
754.555	59.9331
756.26	61.1002
757.963	62.7411
759.667	64.3572
761.37	65.1239
763.073	65.512
764.775	66.7295
766.477	67.5491
768.179	69.354
769.883	70.4464
771.584	71.7407
773.285	73.6932
774.986	74.4689
776.686	75.7154
778.386	76.3776
780.085	78.4286
781.785	79.2108
783.484	78.79
785.182	79.7905
786.881	81.4659
788.579	81.9736
790.276	83.1939
791.974	84.4946
793.671	85.6066
795.367	86.1902
797.064	87.1277
798.76	86.8886
800.456	87.9891
802.151	88.0473
803.846	89.0686
805.541	88.6405
807.234	88.0676
808.928	88.1458
810.622	87.6498
812.315	87.3689
814.008	88.2499
815.701	88.9211
817.394	88.7417
819.086	87.723
820.778	87.7817
822.468	87.1427
824.159	87.0523
825.85	88.3517
827.541	88.1141
829.231	87.9917
830.921	87.402
832.609	88.1426
834.298	87.9831
835.987	87.994
837.676	87.0249
839.364	86.4193
841.051	86.5047
842.738	85.9522
844.426	85.0909
846.113	83.3903
847.798	81.0722
849.484	79.8545
851.171	78.8646
852.857	78.208
854.54	76.9269
856.226	76.1553
857.911	74.937
859.593	73.7031
861.278	72.4919
862.961	71.8775
864.645	71.3195
866.327	69.6416
868.01	68.6572
869.692	69.2538
871.373	68.7662
873.055	66.9875
874.735	66.3631
876.416	66.251
878.097	66.1649
879.776	64.2498
881.457	62.7207
883.135	62.0219
884.815	61.9662
886.495	60.6839
888.172	60.54
889.851	58.7097
891.528	58.2413
893.206	59.0567
894.882	58.3286
896.56	58.0389
898.237	57.0137
899.912	55.9146
901.589	54.7201
903.263	54.4853
904.94	54.2655
906.614	54.029
908.289	53.7272
909.962	53.4626
911.635	52.9203
913.31	52.9
914.982	51.4844
916.656	50.9435
918.328	50.4291
920.001	50.5248
921.672	50.4941
923.345	49.3364
925.015	48.5437
926.685	47.2252
928.357	46.186
930.026	45.2931
931.698	44.663
933.366	44.6528
935.035	43.5354
936.705	42.2645
938.373	41.259
940.041	41.6561
941.71	41.6793
943.377	40.7863
945.044	39.0531
946.712	39.6758
948.378	39.258
950.044	38.7861
951.709	38.1853
953.376	37.9438
955.041	36.7837
956.706	35.8422
958.372	36.6832
960.036	37.071
961.699	36.7022
963.362	35.7722
965.027	36.8273
966.69	38.7075
968.352	38.511
970.014	39.6728
971.676	40.2195
973.339	40.7302
975	41.0453
976.661	40.9311
978.322	40.2905
979.982	40.454
981.642	41.4021
983.303	42.5549
984.962	42.7395
986.621	42.8127
988.28	43.8235
989.938	44.0585
991.596	43.3316
993.254	43.0694
994.911	44.0202
996.57	44.2974
998.227	44.0971
999.884	45.4789
1001.54	46.0818
1003.2	45.2892
1004.85	44.2038
1006.51	43.4116
1008.16	43.6008
1009.82	42.8172
1011.47	41.7444
1013.12	41.0376
1014.78	39.7814
1016.43	39.1288
1018.08	38.3501
1019.74	38.5611
1021.39	39.4034
1023.04	39.4271
1024.69	38.0971
1026.34	36.5923
1028	36.6062
1029.65	36.8633
1031.3	36.4041
1032.95	35.0174
1034.6	34.1648
1036.25	33.6975
1037.9	32.5535
1039.54	33.1311
1041.19	33.1681
1042.84	32.017
1044.49	31.7563
1046.14	31.7513
1047.78	32.3977
1049.43	32.1878
1051.08	32.0384
1052.72	31.4924
1054.37	29.9626
1056.02	30.0641
1057.66	29.1547
1059.31	29.1298
1060.95	29.8825
1062.6	29.7165
1064.24	29.1754
1065.88	28.6292
1067.53	26.6832
1069.17	25.8589
1070.81	26.6121
1072.45	25.5493
1074.1	25.8986
1075.74	25.9286
1077.38	25.8864
1079.02	24.6264
1080.66	24.0112
1082.3	23.9914
1083.94	23.5407
1085.58	23.0761
1087.22	23.5451
1088.86	23.4737
1090.5	24.0952
1092.14	23.6476
1093.78	24.445
1095.42	24.9778
1097.05	25.5105
1098.69	26.7418
1100.33	27.0598
1101.96	27.5295
1103.6	27.6782
1105.24	27.6458
1106.87	27.7568
1108.51	27.8626
1110.14	28.0048
1111.78	27.3416
1113.41	27.0897
1115.05	26.1487
1116.68	26.3579
1118.31	26.0339
1119.95	25.5002
1121.58	25.2969
1123.21	23.7108
1124.85	22.7265
1126.48	22.4603
1128.11	21.3703
1129.74	19.4312
1131.37	18.2182
1133	17.5699
1134.63	16.281
1136.26	17.1622
1137.89	17.3128
1139.52	16.5908
1141.15	15.7807
1142.78	14.2016
1144.41	12.5445
1146.04	11.568
1147.66	10.3717
1149.29	8.75143
1150.92	8.8209
1152.55	7.84717
1154.17	6.08147
1155.8	4.85222
1157.43	3.05224
1159.05	2.30073
1160.68	2.47443
1162.3	3.06619
1163.93	3.35839
1165.55	3.74609
1167.17	3.85387
1168.8	3.88154
1170.42	4.15426
1172.05	5.47245
1173.67	6.3517
1175.29	6.99027
1176.91	7.62385
1178.54	8.31465
1180.16	9.03228
1181.78	10.2328
1183.4	10.8718
1185.02	11.518
1186.64	12.1749
1188.26	13.0346
1189.88	12.3565
1191.5	13.7677
1193.12	14.7233
1194.74	15.9271
1196.36	16.4272
1197.97	17.2254
1199.59	17.5367
1201.21	17.8137
1202.83	18.9598
1204.44	19.4369
1206.06	21.3719
1207.68	23.4689
1209.29	24.8576
1210.91	26.9715
1212.52	29.0303
1214.14	31.4521
1215.75	33.643
1217.37	36.3248
1218.98	37.7053
1220.59	39.2018
1222.21	40.4847
1223.82	42.9368
1225.43	44.7076
1227.05	46.3425
1228.66	47.9052
1230.27	50.0908
1231.88	51.5859
1233.49	52.6797
1235.1	53.9969
1236.72	56.0172
1238.33	57.3837
1239.94	59.6354
1241.55	61.3907
1243.16	62.6351
1244.76	64.2493
1246.37	66.2125
1247.98	68.0837
1249.59	69.1143
1251.2	70.0745
1252.8	72.0147
1254.41	72.2505
1256.02	72.1761
1257.62	73.0645
1259.23	73.6562
1260.84	74.6181
1262.44	75.9074
1264.05	76.1255
1265.66	76.6799
1267.26	78.0093
1268.86	79.3302
1270.47	80.0384
1272.07	82.2378
1273.67	82.3359
1275.28	82.3086
1276.88	81.7105
1278.48	83.0944
1280.09	84.0806
1281.69	84.6889
1283.29	86.7743
1284.89	87.8026
1286.49	89.4935
1288.09	90.5324
1289.69	91.0215
1291.29	91.7996
1292.89	92.3443
1294.49	93.3671
1296.09	93.9453
1297.69	94.6385
1299.29	95.5681
1300.89	96.2162
1302.49	96.9294
1304.08	97.9813
1305.68	97.4681
1307.28	97.6633
1308.88	97.6788
1310.47	97.3907
1312.07	96.3824
1313.66	95.9188
1315.26	96.1224
1316.85	96.3048
1318.45	95.5204
1320.04	96.0831
1321.64	95.5165
1323.23	94.5218
1324.83	94.6344
1326.42	93.2249
1328.01	92.4651
1329.61	90.5547
1331.2	89.1957
1332.79	88.6953
1334.38	87.628
1335.97	87.209
1337.56	85.2803
1339.16	83.7118
1340.75	83.0674
1342.34	82.1045
1343.93	81.2652
1345.52	79.3876
1347.11	78.6595
1348.7	76.5735
1350.29	74.2675
1351.87	72.9044
1353.46	71.2186
1355.05	69.9304
1356.64	69.2578
1358.22	68.7702
1359.81	67.0678
1361.4	66.8349
1362.98	66.2651
1364.57	64.1362
1366.16	62.9676
1367.74	62.0668
1369.33	60.3498
1370.91	59.5747
1372.5	58.6986
1374.08	57.9304
1375.67	58.0383
1377.25	57.3361
1378.83	56.841
1380.41	55.5548
1382	54.6387
1383.58	54.1475
1385.16	52.4316
1386.74	51.4851
1388.33	50.7372
1389.91	49.8849
1391.49	48.8136
1393.07	48.8451
1394.65	48.4704
1396.23	48.1668
1397.81	47.4289
1399.39	46.0714
1400.97	44.9734
1402.55	44.6022
1404.13	44.7229
1405.7	44.6557
1407.28	45.7546
1408.86	45.0549
1410.44	45.0739
1412.01	45.2741
1413.59	45.2219
1415.17	44.8046
1416.74	45.1058
1418.32	46.5953
1419.89	49.1075
1421.47	51.1261
1423.04	53.525
1424.62	55.9973
1426.19	60.0657
1427.77	63.3467
1429.34	67.7374
1430.91	71.9089
1432.49	75.0754
1434.06	79.7601
1435.63	83.6363
1437.2	86.8916
1438.78	90.1736
1440.35	94.5525
1441.92	96.8005
1443.49	99.4714
1445.06	101.724
1446.63	103.37
1448.2	105.551
1449.77	106.482
1451.34	105.978
1452.91	106.149
1454.48	105.885
1456.05	105.238
1457.62	104.121
1459.18	103.424
1460.75	101.702
1462.32	99.9104
1463.89	96.9748
1465.45	94.714
1467.02	91.1758
1468.59	87.9979
1470.15	85.3667
1471.72	81.4298
1473.28	77.7544
1474.85	74.2535
1476.41	69.4366
1477.98	64.4173
1479.54	60.4981
1481.1	57.0244
1482.67	52.4021
1484.23	48.5747
1485.79	44.3662
1487.36	40.2955
1488.92	36.2383
1490.48	32.823
1492.04	30.4332
1493.61	27.9758
1495.17	27.2938
1496.73	25.75
1498.29	24.9844
1499.85	23.7327
1501.41	24.6536
1502.97	25.2185
1504.53	25.8761
1506.09	25.7177
1507.65	26.3734
1509.2	27.0969
1510.76	27.3112
1512.32	28.7003
1513.88	28.6762
1515.43	29.02
1516.99	28.8868
1518.55	30.17
1520.1	29.8652
1521.66	30.1058
1523.22	30.5833
1524.77	31.8851
1526.33	32.3304
1527.88	33.0161
1529.44	34.652
1530.99	36.4466
1532.54	37.8261
1534.1	39.2507
1535.65	40.9971
1537.21	43.8622
1538.76	45.4029
1540.31	47.113
1541.86	48.656
1543.42	51.2633
1544.97	53.8566
1546.52	57.3246
1548.07	59.8387
1549.62	61.5226
1551.17	63.4038
1552.72	65.6802
1554.27	67.6661
1555.82	69.7638
1557.37	72.2132
1558.92	74.2577
1560.47	75.6742
1562.02	78.8624
1563.56	80.7697
1565.11	83.2148
1566.66	84.7692
1568.21	87.24
1569.75	88.9001
1571.3	89.9349
1572.85	92.0385
1574.39	92.5648
1575.94	93.3737
1577.49	94.4222
1579.03	95.8004
1580.57	97.0759
1582.12	98.0773
1583.66	98.9643
1585.21	99.1799
1586.75	98.8586
1588.3	98.4298
1589.84	99.2439
1591.38	98.7163
1592.92	97.5009
1594.47	96.34
1596.01	95.812
1597.55	95.1195
1599.09	94.3405
1600.63	93.2596
1602.17	92.4641
1603.71	91.507
1605.25	91.4564
1606.79	90.3857
1608.33	88.8843
1609.87	88.574
1611.41	88.7558
1612.95	87.7642
1614.49	87.2608
1616.03	86.9204
1617.57	86.561
1619.1	87.8164
1620.64	89.4767
1622.18	90.7172
1623.72	91.0623
1625.25	91.9624
1626.79	93.084
1628.32	93.8677
1629.86	95.6801
1631.39	96.7897
1632.93	98.4247
1634.46	100.025
1636	101.324
1637.53	103.729
1639.07	105.517
1640.6	107.007
1642.13	108.448
1643.67	109.253
1645.2	111.471
1646.73	112.632
1648.26	114.977
1649.8	115.998
1651.33	117.077
1652.86	118.236
1654.39	120.191
1655.92	121.631
1657.45	122.795
1658.98	122.156
1660.51	121.563
1662.04	120.525
1663.57	119.839
1665.1	118.32
1666.63	116.39
1668.16	113.755
1669.68	110.48
1671.21	107.853
1672.74	104.834
1674.27	101.511
1675.79	96.9228
1677.32	92.4785
1678.85	88.8085
1680.37	84.5909
1681.9	80.0346
1683.42	75.7786
1684.95	71.5794
1686.47	68.1383
1688	63.6089
1689.52	58.6371
1691.05	55.3239
1692.57	52.0545
1694.09	47.3256
1695.62	44.559
1697.14	41.5759
1698.66	37.7644
1700.18	33.7654
1701.71	30.8281
1703.23	27.3226
1704.75	23.6246
1706.27	21.1964
1707.79	19.1843
1709.31	17.2337
1710.83	15.1378
1712.35	13.1071
1713.87	12.4512
1715.39	11.4057
1716.91	11.1586
1718.43	10.7437
1719.95	11.1667
1721.47	11.3926
1722.99	11.0057
1724.5	11.0719
1726.02	10.3377
1727.54	10.9956
1729.06	10.8285
1730.57	11.0654
1732.09	11.232
1733.61	10.4853
1735.12	9.84068
1736.64	9.57602
1738.15	9.44819
1739.67	9.20103
1741.18	8.13733
1742.7	7.75031
1744.21	7.37717
1745.72	6.5791
1747.24	6.65129
1748.75	6.28345
1750.26	5.90089
1751.77	5.60259
1753.29	5.74991
1754.8	6.13126
1756.31	6.63032
1757.82	7.18982
1759.33	7.48185
1760.84	7.48461
1762.36	6.84836
1763.87	6.92302
1765.38	6.71638
1766.89	6.9628
1768.4	6.4378
1769.91	6.52165
1771.41	6.68802
1772.92	6.07018
1774.43	5.53095
1775.94	5.16673
1777.45	5.07425
1778.95	4.7567
1780.46	5.02903
1781.97	5.17216
1783.48	5.30648
1784.98	5.47712
1786.49	5.36349
1787.99	5.50327
1789.5	5.95487
1791.01	5.59761
1792.51	5.81413
1794.01	5.8483
1795.52	5.15669
1797.02	4.3721
1798.53	4.32653
1800.03	3.86785
1801.53	3.66377
1803.04	3.64392
1804.54	3.49009
1806.04	3.7569
1807.54	3.39373
1809.05	2.4152
1810.55	2.71394
1812.05	2.88523
1813.55	2.4279
1815.05	2.07822
1816.55	1.44827
1818.05	1.56591
1819.55	1.16095
1821.05	1.34187
1822.55	1.86868
1824.05	1.94984
1825.55	1.96353
1827.05	2.06329
1828.55	2.3961
1830.04	2.80209
1831.54	3.59394
1833.04	3.66897
1834.54	3.67425
1836.03	4.3994
1837.53	4.48188
1839.03	4.47095
1840.52	3.7886
1842.02	3.5188
1843.51	3.01931
1845.01	3.74432
1846.5	3.45304
1848	3.34322
1849.49	3.81649
1850.99	3.5328
1852.48	3.23017
1853.97	3.43418
1855.47	3.17319
1856.96	3.19884
1858.45	4.30426
1859.94	3.98366
1861.44	3.36454
1862.93	2.82364
1864.42	2.94387
1865.91	2.62445
1867.4	3.14207
1868.89	3.06616
1870.38	2.28909
1871.87	2.55662
1873.36	2.56112
1874.85	2.19111
1876.34	2.72357
1877.83	2.78149
1879.32	2.69112
1880.81	2.28075
1882.3	1.87232
1882.57	1.45064
1884.07	1.21107
1885.56	0.325576
1887.06	0.104623
1888.55	-0.00302472
1890.04	-0.0388761
1891.54	-0.67786
1893.03	-0.607152
1894.52	-0.0744766
1896.02	0.151374
1897.51	0.0265882
1899	-0.0394705
1900.49	-0.305265
1901.98	-0.610191
1903.47	-0.402109
1904.96	-0.369097
1906.45	-0.731228
1907.94	-0.435128
1909.43	-0.358413
1910.92	-0.833704
1912.41	-1.19602
1913.9	-0.942638
1915.39	-0.949056
1916.88	-0.114903
1918.37	0.686158
1919.85	0.410932
1921.34	-0.193394
1922.83	0.570769
1924.32	0.483896
1925.8	0.685392
1927.29	1.66215
1928.78	1.75043
1930.26	2.39618
1931.75	1.92261
1933.23	1.1826
1934.72	1.07672
1936.2	1.58394
1937.69	2.10563
1939.17	1.92902
1940.66	2.06888
1942.14	1.54746
1943.63	0.919849
1945.11	1.28529
1946.59	0.803742
1948.07	0.823804
1949.56	1.03509
1951.04	0.859515
1952.52	0.737825
1954	0.942968
1955.48	1.0572
1956.96	1.72244
1958.45	2.3384
1959.93	2.30274
1961.41	2.93045
1962.89	2.6684
1964.37	2.9029
1965.85	3.05122
1967.32	3.48245
1968.8	3.28431
1970.28	3.73769
1971.76	3.67606
1973.24	3.70112
1974.72	3.28388
1976.19	3.31669
1977.67	3.56468
1979.15	3.14964
1980.63	3.36454
1982.1	3.59612
1983.58	3.94648
1985.05	3.37938
1986.53	2.92275
1988	3.22611
1989.48	4.05058
1990.95	4.29025
1992.43	4.3073
1993.9	4.04346
1995.38	4.07166
1996.85	4.63561
1998.32	4.88725
1999.8	4.86716
2001.27	5.01506
2002.74	4.44362
2004.22	4.12358
2005.69	3.86528
2007.16	3.8173
2008.63	3.60911
2010.1	3.87346
2011.57	3.80651
2013.04	3.34698
2014.51	3.26217
2015.98	3.255
2017.45	2.68689
2018.92	2.83031
2020.39	2.35189
2021.86	2.13048
2023.33	2.13899
2024.8	2.46828
2026.27	2.64656
2027.74	3.41556
2029.2	3.90396
2030.67	4.17373
2032.14	4.16699
2033.61	3.64654
2035.07	4.73972
2036.54	5.03103
2038.01	5.90547
2039.47	5.71963
2040.94	5.33922
2042.4	5.77564
2043.87	6.49649
2045.33	6.53455
2046.8	6.51964
2048.26	6.96939
2049.72	7.70551
2051.19	8.78641
2052.65	9.15406
2054.12	9.76841
2055.58	10.0077
2057.04	10.5287
2058.5	10.6153
2059.97	11.6257
2061.43	12.7144
2062.89	14.1494
2064.35	14.5743
2065.81	15.2158
2067.27	16.1888
2068.73	16.8027
2070.19	17.9851
2071.65	18.8528
2073.11	19.9871
2074.57	20.8592
2076.03	22.1428
2077.49	22.6987
2078.95	23.7149
2080.41	24.3748
2081.87	25.266
2083.32	26.2293
2084.78	26.3602
2086.24	26.7106
2087.7	27.4954
2089.15	28.3253
2090.61	28.7502
2092.07	29.7363
2093.52	29.7216
2094.98	30.7035
2096.43	32.3481
2097.89	33.8964
2099.34	35.8486
2100.8	37.0837
2102.25	37.9697
2103.71	38.8511
2105.16	40.305
2106.61	42.1559
2108.07	44.1936
2109.52	44.8686
2110.97	46.1976
2112.43	47.2597
2113.88	48.7642
2115.33	50.9235
2116.78	51.9602
2118.23	53.6196
2119.68	55.1252
2121.13	57.0467
2122.59	58.5488
2124.04	60.3556
2125.49	61.4868
2126.94	63.7075
2128.39	65.0448
2129.83	67.2312
2131.28	69.2367
