#Acq. time (s)=	45
#Accumulations=	2
#Range (cm-¹)=	200...3150
#Windows=	2
#Auto scanning=	Off
#Autofocus=	Off
#Macrospot=	Off
#AutoExposure=	Off
#Spike filter=	Multiple accum.
#Delay time (s)=	0
#Binning=	1
#Readout mode=	Signal
#DeNoise=	Off
#ICS correction=	On
#Dark correction=	Off
#Inst. Process=	Off
#Detector Gain=	Best Dynamic Range
#Detector ADC=	20 kHz       
#Detector temperature (°C)=	-69.85
#Instrument=	LabRAM HR Evol
#Detector=	Synapse
#Objective=	x100
#Grating=	600 gr/mm
#ND Filter=	100%
#Laser (nm)=	532 
#Hole=	100.021
#Range=	Auto
#Laser Pol.=	No
#Raman. Pol.=	No
#Laser Pol. (°)=	-0.0007625
#Raman Pol. (°)=	89.9995
#Collection=	Microscope
#StageXY=	Marzhauser
#StageZ=	Marzhauser
#X (µm)=	8962.9
#Y (µm)=	-3069.7
#Z (µm)=	-54.85
#Full time(mm:ss)=	3:18
#Project=	
#Sample=	
#Site=	
#Title=	Thy_00_07_36_2x_45s_532 nm_x100_100%_600 gr_mm
#Remark=	
#Date=	28.06.2022 12:46
#Acquired=	28.06.2022 12:46:02
#Base:Fit=	10.08.2022 10:07:56
#Base:Sub=	10.08.2022 10:08:40
#Filter:Polynom=	16.08.2022 10:26:06
#AxisType[0]=Intens
#AxisUnit[0]=Cnt
#AxisType[1]=Spectr
#AxisUnit[1]=1/cm
200.407	30.4668
202.221	29.0978
204.035	28.2237
205.849	27.4171
207.665	26.627
209.478	26.0336
211.291	25.3777
213.104	23.8734
214.916	22.2596
216.73	20.8578
218.541	20.7313
220.352	20.3794
222.163	20.1071
223.973	19.4394
225.785	18.6006
227.595	17.501
229.404	17.4808
231.213	17.1675
233.022	15.6906
234.83	14.8807
236.638	14.2836
238.448	14.1275
240.255	12.8135
242.062	12.0572
243.868	11.2519
245.675	9.94288
247.48	8.70679
249.286	7.47445
251.091	6.7345
252.896	6.98245
254.702	6.43601
256.506	6.10134
258.31	5.81055
260.113	5.53772
261.916	4.97561
263.719	4.92079
265.521	4.75837
267.323	5.81229
269.125	5.48658
270.926	5.71858
272.727	5.84588
274.527	5.48477
276.328	5.24882
278.127	6.04692
279.927	7.18114
281.726	6.44213
283.525	6.93222
285.323	6.97075
287.121	8.09158
288.919	9.01116
290.716	9.5954
292.513	10.1959
294.31	10.6817
296.104	11.0328
297.9	11.9282
299.696	12.0142
301.491	11.8688
303.286	11.0509
305.081	11.1746
306.875	12.4938
308.669	13.2809
310.463	13.2529
312.256	13.1168
314.047	13.3997
315.839	13.0396
317.631	13.3427
319.423	13.7534
321.215	13.3446
323.006	12.736
324.794	12.1879
326.585	11.7959
328.375	10.6999
330.165	10.2106
331.954	10.6061
333.741	9.87796
335.53	8.46967
337.318	8.95133
339.106	8.59633
340.894	8.84936
342.679	8.15416
344.466	7.70016
346.253	7.59734
348.039	7.60474
349.823	7.02391
351.608	5.988
353.393	6.84962
355.176	6.89119
356.961	7.20729
358.745	6.65807
360.529	7.22859
362.31	7.15531
364.093	7.80658
365.876	9.07672
367.657	9.67183
369.439	10.5047
371.221	10.5004
373	10.7126
374.781	10.0327
376.56	11.5489
378.34	11.1235
380.12	10.8373
381.898	10.9166
383.677	11.3244
385.456	11.1544
387.233	11.1884
389.011	10.6484
390.787	9.77338
392.565	9.63508
394.34	10.8965
396.117	11.0503
397.894	10.4245
399.668	10.3776
401.444	9.608
403.217	9.57008
404.993	9.41792
406.766	9.40011
408.54	9.76606
410.312	9.61744
412.086	9.60159
413.858	9.68352
415.631	9.8411
417.402	9.80041
419.174	10.173
420.944	9.59777
422.716	8.3416
424.486	8.49931
426.257	9.05887
428.025	7.46947
429.794	6.45395
431.564	5.18265
433.332	3.86185
435.101	2.31571
436.868	1.92025
438.637	1.56621
440.403	2.77577
442.169	3.98002
443.937	3.78282
445.703	4.83359
447.468	5.35883
449.234	6.69827
450.999	8.23361
452.765	10.9939
454.528	13.7466
456.292	14.7514
458.057	16.8028
459.819	17.112
461.582	17.4653
463.344	19.591
465.107	22.1485
466.868	24.1016
468.629	25.0392
470.392	27.3446
472.152	28.341
473.912	29.6259
475.672	31.5973
477.433	33.7729
479.192	35.537
480.951	36.7209
482.709	37.9651
484.469	38.0625
486.226	39.7798
487.984	41.748
489.74	42.3093
491.499	43.9668
493.255	45.8389
495.011	46.6422
496.767	47.1547
498.522	46.9816
500.277	47.4784
502.033	47.2922
503.788	46.5548
505.541	46.1782
507.295	44.6517
509.048	44.23
510.801	42.4747
512.553	40.5966
514.308	38.2312
516.06	35.3903
517.811	33.742
519.562	31.8515
521.313	30.7897
523.063	30.1866
524.814	28.7957
526.563	27.5118
528.313	26.9918
530.062	25.0332
531.811	23.5113
533.559	23.3683
535.308	22.7388
537.055	22.6973
538.803	22.1953
540.55	21.2879
542.297	19.5737
544.043	18.3039
545.789	17.0031
547.535	15.5974
549.281	15.8216
551.026	16.7522
552.771	15.4833
554.515	14.5221
556.259	13.6119
558.003	13.9045
559.747	13.1336
561.49	13.757
563.233	14.1347
564.975	14.0136
566.717	13.413
568.459	12.8105
570.2	12.245
571.942	11.6406
573.68	12.8656
575.421	12.1192
577.161	11.1782
578.901	11.7763
580.64	11.5962
582.379	11.095
584.118	10.9571
585.855	11.7937
587.593	12.1506
589.331	11.4417
591.068	10.3771
592.805	9.46412
594.54	9.13906
596.277	8.92553
598.013	7.6644
599.749	7.23738
601.484	6.90396
603.217	5.801
604.952	5.57493
606.687	5.3989
608.421	5.20675
610.153	4.42881
611.886	2.76518
613.619	2.97437
615.35	3.36242
617.083	2.7708
618.815	3.93216
620.547	4.45886
622.276	4.4941
624.008	4.93176
625.738	5.66073
627.467	5.29939
629.197	5.65767
630.927	6.77216
632.655	7.37946
634.384	7.49433
636.113	7.58928
637.839	7.70182
639.568	7.4407
641.293	8.53047
643.021	9.83698
644.748	11.0035
646.473	11.1491
648.2	11.2528
649.924	12.2131
651.65	11.9841
653.376	11.9211
655.099	12.2303
656.824	13.0469
658.546	13.7148
660.271	15.5377
661.993	15.3071
663.716	16.6604
665.438	17.1278
667.161	18.1553
668.881	19.3105
670.604	19.8351
672.324	20.0731
674.045	20.759
675.765	20.9318
677.486	21.4121
679.204	22.1526
680.925	23.6453
682.643	24.4219
684.361	26.4007
686.08	27.5444
687.797	28.6762
689.516	29.2077
691.232	30.4247
692.95	32.1577
694.666	32.4407
696.382	32.6181
698.099	33.4751
699.813	35.6445
701.528	36.5689
703.244	36.9233
704.958	37.8493
706.673	38.4504
708.387	39.0437
710.099	40.23
711.814	41.4942
713.526	40.7584
715.238	41.8274
716.949	43.3924
718.663	43.5362
720.374	42.9548
722.084	43.3834
723.796	44.6107
725.506	46.2264
727.216	47.5014
728.925	49.2819
730.636	49.2546
732.345	49.5731
734.053	51.536
735.761	53.577
737.471	53.8133
739.178	55.6878
740.885	58.0246
742.592	59.2673
744.298	60.4679
746.006	62.8878
747.712	64.0349
749.417	65.2783
751.122	66.1567
752.827	68.5891
754.532	70.3509
756.236	71.6684
757.942	73.6359
759.645	75.2854
761.348	75.0352
763.051	75.2682
764.753	76.5371
766.456	78.3257
768.158	78.6693
769.859	79.6173
771.56	79.8027
773.261	80.32
774.964	80.2009
776.664	81.0399
778.364	80.1709
780.064	79.7647
781.763	79.3231
783.462	79.7493
785.16	78.6814
786.859	77.7066
788.557	76.8783
790.255	77.3437
791.952	78.1008
793.649	77.6479
795.346	78.0804
797.042	77.7973
798.738	76.9056
800.434	77.6179
802.127	78.0009
803.823	76.677
805.517	76.0584
807.212	75.4185
808.906	76.353
810.6	77.4712
812.293	77.0529
813.987	77.4972
815.68	77.1235
817.372	78.6907
819.064	79.2761
820.754	79.6027
822.446	80.2975
824.137	81.892
825.828	83.5029
827.519	83.8898
829.209	85.6642
830.897	87.6302
832.587	89.4329
834.276	91.0542
835.966	92.3062
837.654	93.8995
839.341	94.1665
841.029	94.3667
842.717	94.3502
844.404	93.4417
846.091	92.5226
847.776	92.5656
849.463	92.8982
851.149	92.3768
852.833	91.1434
854.519	90.3978
856.204	89.3586
857.889	87.6892
859.572	86.0213
861.256	83.9751
862.94	81.4011
864.622	80.1387
866.305	78.0108
867.988	76.3023
869.669	73.938
871.351	72.3196
873.033	70.6301
874.713	69.934
876.395	67.858
878.074	65.3892
879.755	64.6462
881.435	63.0329
883.114	61.0896
884.794	59.4415
886.471	57.8818
888.15	55.4057
889.829	54.2222
891.506	52.6143
893.184	51.753
894.861	49.7638
896.538	48.4441
898.214	48.8673
899.891	48.916
901.566	48.7742
903.242	49.0314
904.916	50.5084
906.592	52.5473
908.266	54.3346
909.941	56.6239
911.614	58.3758
913.288	60.9574
914.961	63.0314
916.635	64.5069
918.306	64.8842
919.979	65.6381
921.651	66.0459
923.321	67.1004
924.994	67.743
926.664	68.1042
928.336	68.4511
930.005	68.7703
931.674	68.3547
933.345	68.2369
935.014	67.4982
936.682	67.2495
938.352	66.9025
940.019	66.4042
941.687	65.508
943.356	64.5923
945.022	62.6894
946.689	61.7861
948.357	61.1176
950.022	61.3075
951.688	60.204
953.355	58.8784
955.02	57.6464
956.684	56.8529
958.348	55.5142
960.014	53.3506
961.678	51.3566
963.341	50.6464
965.004	49.1553
966.669	49.2019
968.331	48.3378
969.993	47.8008
971.655	46.5636
973.316	46.2256
974.979	44.8499
976.64	43.9453
978.3	44.7931
979.961	44.5494
981.62	44.6042
983.28	43.9993
984.941	43.5261
986.6	44.5964
988.259	44.9518
989.917	44.5432
991.575	44.0783
993.233	43.8448
994.89	43.5888
996.547	43.3294
998.204	43.5553
999.86	43.8053
1001.52	44.1688
1003.17	45.1485
1004.83	45.4907
1006.49	46.3051
1008.14	45.8789
1009.79	46.341
1011.45	45.6954
1013.1	46.3375
1014.76	46.3388
1016.41	46.7305
1018.06	47.0255
1019.72	47.7295
1021.37	48.0818
1023.02	47.6823
1024.67	47.6215
1026.32	47.8147
1027.97	47.1271
1029.62	47.761
1031.27	47.4253
1032.92	46.9591
1034.57	45.4344
1036.22	44.6338
1037.87	45.0256
1039.52	45.9779
1041.17	45.3597
1042.82	46.0805
1044.47	46.445
1046.11	48.2742
1047.76	48.9057
1049.41	50.2077
1051.06	49.8872
1052.7	49.202
1054.35	49.2091
1055.99	49.9904
1057.64	49.2797
1059.28	49.437
1060.93	50.1032
1062.57	49.6226
1064.22	49.7324
1065.86	49.7686
1067.5	50.0604
1069.15	49.9617
1070.79	49.2878
1072.43	49.8298
1074.08	51.1792
1075.72	51.6896
1077.36	51.9662
1079	52.3299
1080.64	53.0085
1082.28	53.0386
1083.92	53.6164
1085.56	53.7768
1087.2	52.5606
1088.84	52.7501
1090.48	52.9883
1092.12	53.7472
1093.76	54.5436
1095.39	56.0942
1097.03	56.7959
1098.67	56.4256
1100.31	57.5266
1101.94	57.8018
1103.58	58.0393
1105.22	57.4237
1106.85	57.8729
1108.49	57.6252
1110.12	55.6349
1111.76	55.0719
1113.39	53.7369
1115.03	53.7679
1116.66	52.5149
1118.29	52.7642
1119.93	52.2538
1121.56	51.4891
1123.19	50.3267
1124.82	50.23
1126.46	48.7249
1128.09	48.5288
1129.72	47.6834
1131.35	47.2517
1132.98	45.801
1134.61	44.7779
1136.24	45.6055
1137.87	45.0729
1139.5	44.1159
1141.13	43.4797
1142.76	42.625
1144.39	41.3976
1146.01	39.6462
1147.64	39.0402
1149.27	37.0413
1150.9	35.5799
1152.53	34.251
1154.15	32.674
1155.78	30.2209
1157.4	27.6234
1159.03	25.4709
1160.65	23.9107
1162.28	21.9539
1163.9	20.2026
1165.53	18.1341
1167.15	16.9041
1168.78	15.343
1170.4	15.1416
1172.02	14.6414
1173.65	13.9895
1175.27	13.8456
1176.89	13.8042
1178.51	12.8283
1180.14	11.4334
1181.76	11.2042
1183.38	10.3238
1185	9.72449
1186.62	8.69371
1188.24	7.92224
1189.86	7.24582
1191.48	6.71856
1193.1	7.52317
1194.71	7.78686
1196.33	9.15232
1197.95	8.3308
1199.57	9.84194
1201.19	11.0553
1202.8	12.2284
1204.42	13.4114
1206.04	14.2184
1207.65	15.3478
1209.27	17.3452
1210.88	18.7052
1212.5	20.6929
1214.12	22.8192
1215.73	26.054
1217.35	28.4517
1218.96	30.3246
1220.57	32.1623
1222.19	33.3309
1223.8	34.9339
1225.41	36.806
1227.03	38.5927
1228.64	40.1637
1230.25	41.4366
1231.86	43.3543
1233.47	44.3171
1235.08	45.2233
1236.69	46.2025
1238.31	46.8868
1239.92	47.1051
1241.52	48.1759
1243.13	50.2391
1244.74	51.2126
1246.35	52.4269
1247.96	53.4853
1249.57	53.1078
1251.18	52.8328
1252.78	52.9023
1254.39	52.1323
1256	52.1453
1257.6	52.1824
1259.21	51.7891
1260.82	51.4269
1262.42	50.1099
1264.03	49.7022
1265.63	48.5585
1267.24	48.3114
1268.84	48.2374
1270.45	48.8313
1272.05	49.79
1273.65	49.5163
1275.26	49.2536
1276.86	49.6158
1278.46	48.9702
1280.06	49.1598
1281.67	50.3105
1283.27	50.1584
1284.87	50.6384
1286.47	51.386
1288.07	52.3763
1289.67	53.2519
1291.27	54.3001
1292.87	55.0515
1294.47	56.4058
1296.07	58.2755
1297.67	59.1737
1299.27	60.7789
1300.87	63.073
1302.47	65.0407
1304.06	67.7223
1305.66	71.2411
1307.26	74.1162
1308.85	76.7109
1310.45	80.526
1312.05	83.1058
1313.64	85.6669
1315.24	87.6739
1316.83	89.3158
1318.43	91.1169
1320.02	94.4501
1321.62	96.265
1323.21	98.2544
1324.8	98.1182
1326.4	98.347
1327.99	98.1615
1329.59	98.1495
1331.18	98.4077
1332.77	98.7662
1334.36	99.3815
1335.95	99.4245
1337.54	99.2149
1339.14	98.299
1340.73	98.2074
1342.32	97.2318
1343.91	97.1689
1345.5	96.6473
1347.09	96.2541
1348.67	95.1322
1350.26	94.0544
1351.85	92.6883
1353.44	90.2296
1355.03	89.1494
1356.62	87.6956
1358.2	85.8754
1359.79	83.8283
1361.38	82.8527
1362.96	79.7184
1364.55	77.9157
1366.14	76.8346
1367.72	74.3299
1369.31	71.9268
1370.89	70.7911
1372.48	69.7115
1374.06	69.8492
1375.64	69.3994
1377.23	68.5877
1378.81	68.9877
1380.39	68.3045
1381.98	66.9161
1383.56	66.8146
1385.14	66.227
1386.72	65.1018
1388.3	64.5162
1389.89	64.6967
1391.47	62.6804
1393.05	61.8901
1394.63	61.0577
1396.21	59.4956
1397.79	59.3834
1399.37	58.9723
1400.95	56.5255
1402.52	56.184
1404.1	55.2315
1405.68	53.81
1407.26	53.6288
1408.84	52.9427
1410.42	51.9228
1411.99	52.2371
1413.57	52.2842
1415.15	52.6317
1416.72	52.8982
1418.3	53.8718
1419.87	56.2111
1421.45	57.6286
1423.02	58.8129
1424.6	60.6489
1426.17	62.7494
1427.75	65.3106
1429.32	68.4728
1430.89	71.3392
1432.47	73.6035
1434.04	76.405
1435.61	78.6029
1437.18	80.742
1438.76	82.9574
1440.33	84.5853
1441.9	86.2538
1443.47	87.933
1445.04	89.0338
1446.61	89.5892
1448.18	90.3002
1449.75	92.5156
1451.32	92.1243
1452.89	92.2011
1454.46	91.9474
1456.03	90.4748
1457.6	89.0918
1459.16	86.9128
1460.73	85.1491
1462.3	82.7106
1463.87	80.5068
1465.43	78.366
1467	75.2946
1468.56	72.5178
1470.13	67.9982
1471.7	65.0231
1473.26	61.6495
1474.83	58.1141
1476.39	55.4465
1477.96	51.0787
1479.52	47.0776
1481.08	43.8742
1482.65	40.3935
1484.21	36.1853
1485.77	33.0893
1487.34	30.4787
1488.9	27.5839
1490.46	26.0524
1492.02	23.8635
1493.58	22.1044
1495.15	20.2749
1496.71	20.0211
1498.27	19.3989
1499.83	18.5697
1501.39	17.4596
1502.95	17.9014
1504.51	18.3278
1506.07	18.2755
1507.63	18.4751
1509.18	18.7148
1510.74	19.5909
1512.3	20.8079
1513.86	20.9176
1515.41	20.8505
1516.97	21.5352
1518.53	21.6726
1520.08	22.0287
1521.64	22.1378
1523.2	22.4395
1524.75	23.0286
1526.31	24.0453
1527.86	24.5793
1529.42	23.6434
1530.97	25.0947
1532.52	25.0641
1534.08	24.5933
1535.63	24.6777
1537.19	25.3576
1538.74	25.3153
1540.29	25.672
1541.84	27.2564
1543.4	27.6678
1544.95	28.8749
1546.5	30.0741
1548.05	30.8651
1549.6	32.5359
1551.15	33.8557
1552.7	35.6484
1554.25	36.6573
1555.8	37.28
1557.35	38.1372
1558.9	39.254
1560.45	40.8664
1562	41.4577
1563.54	42.826
1565.09	44.1348
1566.64	44.6995
1568.19	45.9272
1569.73	47.4408
1571.28	48.8975
1572.83	50.7408
1574.37	52.9105
1575.92	55.3845
1577.47	57.4803
1579.01	58.7563
1580.56	60.2897
1582.1	62.3965
1583.64	63.3041
1585.19	65.7842
1586.73	68.2581
1588.28	69.0301
1589.82	69.384
1591.36	69.8731
1592.9	70.3622
1594.45	71.4017
1595.99	71.1161
1597.53	70.5494
1599.07	70.4486
1600.61	69.9534
1602.15	70.2864
1603.69	69.8982
1605.23	68.8298
1606.77	68.2016
1608.31	68.3098
1609.85	67.2898
1611.39	66.5039
1612.93	65.7756
1614.47	64.9793
1616.01	64.5267
1617.55	64.4182
1619.08	64.3517
1620.62	63.7275
1622.16	62.9958
1623.7	62.269
1625.23	62.2049
1626.77	62.1058
1628.3	62.5175
1629.84	62.0057
1631.37	61.1218
1632.91	61.1805
1634.44	60.8821
1635.98	61.5302
1637.51	61.817
1639.05	62.1894
1640.58	63.4155
1642.11	64.2229
1643.65	65.1697
1645.18	65.5905
1646.71	66.8186
1648.24	67.779
1649.78	68.095
1651.31	68.5166
1652.84	67.8219
1654.37	66.8191
1655.9	66.9866
1657.43	67.639
1658.96	67.2075
1660.49	65.8489
1662.02	66.1928
1663.55	64.956
1665.08	63.0329
1666.61	61.5938
1668.14	60.0625
1669.66	58.515
1671.19	57.1992
1672.72	55.5449
1674.25	53.8813
1675.77	52.1146
1677.3	50.6295
1678.83	48.9345
1680.35	46.6526
1681.88	44.6988
1683.4	43.0252
1684.93	41.3244
1686.45	38.825
1687.98	36.4588
1689.5	34.9043
1691.03	32.45
1692.55	31.2578
1694.07	29.5911
1695.6	27.6826
1697.12	25.61
1698.64	23.7524
1700.17	22.9264
1701.69	21.8085
1703.21	19.9511
1704.73	17.8775
1706.25	17.1031
1707.77	16.7451
1709.29	16.4942
1710.81	15.8425
1712.33	16.1486
1713.85	15.3754
1715.37	14.9262
1716.89	14.076
1718.41	13.213
1719.93	12.5916
1721.45	12.2045
1722.97	12.4621
1724.49	11.4067
1726	10.5012
1727.52	9.87533
1729.04	9.09624
1730.55	9.42102
1732.07	9.2181
1733.59	8.81086
1735.1	7.68913
1736.62	7.68909
1738.13	8.18625
1739.65	7.3672
1741.16	7.02279
1742.68	6.85301
1744.19	6.7162
1745.7	6.36054
1747.22	5.95545
1748.73	5.7947
1750.24	5.16278
1751.76	4.85652
1753.27	5.00364
1754.78	4.73284
1756.29	4.19927
1757.8	3.90387
1759.31	4.02191
1760.83	3.3212
1762.34	3.01425
1763.85	3.07383
1765.36	2.73754
1766.87	2.18953
1768.38	2.49934
1769.89	2.24276
1771.39	1.81553
1772.9	1.74418
1774.41	1.51457
1775.92	1.68855
1777.43	1.42881
1778.94	0.849684
1780.44	1.09401
1781.95	2.29594
1783.46	1.99735
1784.96	2.38705
1786.47	2.22612
1787.97	1.89938
1789.48	1.56984
1790.99	2.3111
1792.49	2.37856
1794	2.34986
1795.5	2.43133
1797	2.06891
1798.51	2.15914
1800.01	1.5202
1801.51	1.85398
1803.02	1.76233
1804.52	1.69098
1806.02	2.07523
1807.53	1.50382
1809.03	1.95321
1810.53	1.61657
1812.03	1.80415
1813.53	2.33688
1815.03	1.66488
1816.53	1.87582
1818.03	1.67032
1819.53	1.53557
1821.03	1.67217
1822.53	2.19528
1824.03	2.61729
1825.53	2.73713
1827.03	3.00572
1828.53	2.62568
1830.02	2.37289
1831.52	2.21519
1833.02	2.36918
1834.52	2.58503
1836.01	2.55148
1837.51	2.38871
1839.01	2.6373
1840.5	2.74543
1842	3.60671
1843.49	3.67479
1844.99	3.93194
1846.48	4.40125
1847.98	4.55696
1849.47	4.73729
1850.97	5.83745
1852.46	6.16365
1853.95	6.46134
1855.45	6.63833
1856.94	7.17565
1858.43	7.72725
1859.93	8.10654
1861.42	7.55711
1862.91	7.44464
1864.4	7.47037
1865.89	6.83307
1867.38	6.10788
1868.87	5.7279
1870.36	5.67242
1871.85	5.54773
1873.34	5.05612
1874.83	4.4499
1876.32	4.39211
1877.81	4.17395
1879.3	3.99353
1880.79	4.20454
1882.28	4.08755
1882.52	4.31159
1884.02	4.47489
1885.51	4.00089
1887.01	3.64936
1888.5	3.38287
1889.99	3.78207
1891.49	3.29697
1892.98	3.91812
1894.47	4.12473
1895.97	4.00588
1897.46	3.97552
1898.95	4.30937
1900.44	4.24583
1901.93	4.02175
1903.42	4.57592
1904.91	5.3777
1906.4	5.74401
1907.89	6.26108
1909.38	7.02433
1910.87	7.71388
1912.36	8.83229
1913.85	8.78621
1915.34	9.22547
1916.83	9.1314
1918.32	9.81108
1919.8	10.1721
1921.29	10.5636
1922.78	11.0286
1924.27	11.1351
1925.75	10.196
1927.24	10.4312
1928.73	10.1771
1930.21	10.9159
1931.7	10.7979
1933.18	9.65812
1934.67	8.41381
1936.15	7.70541
1937.64	7.17658
1939.12	6.39673
1940.61	5.76849
1942.09	4.91676
1943.57	4.76007
1945.06	4.34339
1946.54	4.25253
1948.02	3.67852
1949.51	2.8406
1950.99	2.24552
1952.47	1.65116
1953.95	1.88813
1955.43	1.09681
1956.91	0.97689
1958.4	1.31242
1959.88	0.6255
1961.36	1.20621
1962.84	2.47817
1964.32	2.283
1965.8	1.92416
1967.27	2.37128
1968.75	1.98453
1970.23	2.44228
1971.71	2.6575
1973.19	2.96965
1974.67	3.77899
1976.14	4.21074
1977.62	4.97098
1979.1	5.47827
1980.58	5.44065
1982.05	6.04915
1983.53	6.38833
1985	6.43155
1986.48	6.82392
1987.95	6.10881
1989.43	7.0753
1990.9	7.42943
1992.38	7.35029
1993.85	6.99259
1995.33	6.47792
1996.8	6.24551
1998.27	6.14787
1999.75	6.05614
2001.22	6.66497
2002.69	5.94492
2004.16	5.97735
2005.64	5.02196
2007.11	3.87476
2008.58	3.4559
2010.05	2.64228
2011.52	2.69873
2012.99	2.34185
2014.46	2.41676
2015.93	2.26354
2017.4	2.45176
2018.87	2.09064
2020.34	1.81975
2021.81	0.951071
2023.28	1.03121
2024.75	1.52158
2026.22	2.22263
2027.69	2.94528
2029.15	2.85375
2030.62	3.36661
2032.09	3.92826
2033.56	4.08516
2035.02	4.10753
2036.49	3.91121
2037.96	3.26315
2039.42	3.14657
2040.89	3.72486
2042.35	3.7815
2043.82	4.54125
2045.28	4.16743
2046.75	5.17599
2048.21	6.03553
2049.67	5.83964
2051.14	6.00579
2052.6	6.34616
2054.07	6.69575
2055.53	7.41811
2056.99	7.45509
2058.45	7.40938
2059.92	7.54917
2061.38	7.61159
2062.84	8.2649
2064.3	7.88968
2065.76	7.75077
2067.22	8.03361
2068.68	8.45756
2070.14	9.37167
2071.6	9.69868
2073.06	9.73002
2074.52	10.5073
2075.98	10.1515
2077.44	10.0926
2078.9	9.93526
2080.36	9.75328
2081.82	9.41358
2083.27	9.3741
2084.73	10.4327
2086.19	10.5072
2087.65	11.1468
2089.1	10.4654
2090.56	10.6288
2092.02	10.1932
2093.47	10.433
2094.93	10.3349
2096.38	10.684
2097.84	10.6539
2099.29	10.3515
2100.75	10.4464
2102.2	10.2865
2103.66	9.8651
2105.11	9.86674
2106.56	9.72853
2108.02	9.46406
2109.47	9.05272
2110.92	9.47364
2112.38	9.43711
2113.83	9.13088
2115.28	8.79619
2116.73	9.43562
2118.18	9.04314
2119.63	8.95652
2121.09	8.2484
2122.54	8.44637
2123.99	8.64384
2125.44	9.4055
2126.89	9.53778
2128.34	9.8168
2129.79	9.56518
2131.23	9.30237
2132.68	9.52011
2134.13	9.62224
2135.58	9.33327
2137.03	9.40054
