#Acq. time (s)=	45
#Accumulations=	2
#Range (cm-¹)=	200...3150
#Windows=	2
#Auto scanning=	Off
#Autofocus=	Off
#Macrospot=	Off
#AutoExposure=	Off
#Spike filter=	Multiple accum.
#Delay time (s)=	0
#Binning=	1
#Readout mode=	Signal
#DeNoise=	Off
#ICS correction=	On
#Dark correction=	Off
#Inst. Process=	Off
#Detector Gain=	Best Dynamic Range
#Detector ADC=	20 kHz       
#Detector temperature (°C)=	-69.85
#Instrument=	LabRAM HR Evol
#Detector=	Synapse
#Objective=	x100
#Grating=	600 gr/mm
#ND Filter=	100%
#Laser (nm)=	532 
#Hole=	100.021
#Range=	Auto
#Laser Pol.=	No
#Raman. Pol.=	No
#Laser Pol. (°)=	-0.0007625
#Raman Pol. (°)=	89.9995
#Collection=	Microscope
#StageXY=	Marzhauser
#StageZ=	Marzhauser
#X (µm)=	2169
#Y (µm)=	1262.5
#Z (µm)=	442.3
#Full time(mm:ss)=	3:19
#Project=	
#Sample=	
#Site=	
#Title=	Thy_10_08_10_2x_45s_532 nm_x100_100%_600 gr_mm
#Remark=	
#Date=	05.07.2022 14:54
#Acquired=	05.07.2022 14:54:03
#Base:Fit=	10.08.2022 09:46:25
#Base:Sub=	10.08.2022 09:46:49
#Filter:Polynom=	16.08.2022 10:24:56
#AxisType[0]=Intens
#AxisUnit[0]=Cnt
#AxisType[1]=Spectr
#AxisUnit[1]=1/cm
200.43	-2.68649
202.244	1.29836
204.059	5.13034
205.873	7.46425
207.688	9.72227
209.501	11.9066
211.314	13.3703
213.127	14.8029
214.941	15.234
216.753	16.7699
218.564	17.3493
220.375	17.0899
222.186	17.0909
223.999	17.1885
225.809	17.297
227.618	17.9398
229.428	18.8227
231.236	19.8968
233.045	19.7428
234.855	19.6628
236.663	19.6687
238.471	19.2272
240.278	19.1787
242.085	18.4964
243.891	17.5057
245.698	16.8565
247.503	16.4929
249.309	15.1902
251.116	13.7637
252.921	12.5379
254.725	12.6813
256.529	12.8551
258.333	12.2169
260.136	12.6952
261.939	12.8775
263.742	12.6449
265.544	11.951
267.346	11.3026
269.148	10.3796
270.949	9.94294
272.75	9.34831
274.55	9.17515
276.351	9.57904
278.15	10.4677
279.95	9.82541
281.749	9.89764
283.548	10.7285
285.346	11.037
287.144	10.3157
288.942	11.0478
290.739	10.5625
292.536	11.0988
294.333	11.3125
296.129	12.3291
297.925	12.8287
299.721	13.8607
301.514	13.0522
303.309	13.6901
305.104	14.2242
306.898	14.863
308.692	13.9885
310.486	14.4089
312.279	15.3455
314.072	15.4396
315.862	15.3548
317.654	16.3504
319.446	16.3178
321.238	15.9647
323.029	15.6698
324.819	15.4602
326.608	15.4212
328.398	15.344
330.188	15.4491
331.977	14.2086
333.766	14.368
335.553	14.8395
337.341	14.4938
339.129	13.1054
340.917	12.9226
342.704	13.1971
344.489	13.3425
346.275	12.2354
348.062	10.9775
349.845	10.3227
351.631	9.23056
353.416	8.46549
355.201	8.15771
356.984	6.88459
358.768	6.03612
360.552	5.8134
362.333	5.61453
364.116	5.93071
365.899	5.68186
367.68	4.24031
369.462	5.04971
371.243	5.31317
373.023	5.36955
374.804	4.84601
376.585	4.1006
378.363	4.53422
380.143	4.47559
381.923	5.29282
383.7	6.28721
385.479	7.19109
387.256	7.08091
389.034	6.62629
390.812	6.46695
392.588	7.26429
394.365	7.56708
396.14	7.12516
397.916	7.089
399.691	7.1681
401.467	7.20223
403.24	6.73954
405.015	6.7955
406.788	7.47939
408.563	7.5836
410.335	7.58596
412.109	7.50892
413.88	6.75678
415.654	6.98586
417.424	7.52088
419.197	6.9307
420.967	6.77262
422.739	6.99285
424.508	5.74425
426.279	5.68574
428.048	5.86581
429.819	6.01967
431.587	5.61099
433.356	4.50454
435.124	4.18658
436.891	4.39431
438.66	4.31183
440.426	3.73012
442.194	3.27001
443.96	3.25622
445.725	2.40429
447.492	2.15152
449.257	3.33006
451.021	3.43208
452.787	3.12771
454.551	2.41026
456.314	3.28978
458.079	4.95429
459.842	4.85267
461.604	4.47474
463.368	4.61187
465.13	5.29364
466.891	5.95083
468.654	5.95705
470.415	6.32661
472.175	7.31213
473.935	7.61407
475.696	7.33275
477.456	7.7867
479.215	9.00331
480.973	9.35988
482.733	9.77255
484.491	9.91198
486.249	11.5103
488.006	11.4321
489.765	12.4575
491.522	12.853
493.278	12.8261
495.034	13.9995
496.789	15.3632
498.544	14.9653
500.301	16.1922
502.056	16.8105
503.81	18.2997
505.564	19.2199
507.317	18.4463
509.071	19.4059
510.825	18.8917
512.578	19.5864
514.33	19.7962
516.082	19.2889
517.833	19.0587
519.585	18.9566
521.335	18.191
523.086	18.8355
524.836	18.6792
526.586	18.2831
528.335	17.0762
530.085	17.2192
531.835	17.4523
533.584	16.5443
535.332	16.1017
537.08	15.384
538.827	13.5566
540.574	12.7071
542.321	12.4637
544.068	12.5967
545.814	11.6108
547.56	10.5011
549.305	9.57815
551.05	8.71961
552.795	7.93146
554.54	6.61835
556.282	5.29874
558.025	5.51612
559.769	5.64711
561.512	4.45824
563.255	3.45224
564.997	3.78229
566.739	3.70897
568.481	3.98429
570.223	3.57818
571.964	3.88767
573.705	4.99689
575.443	4.10179
577.183	4.80146
578.923	4.79145
580.663	4.47227
582.402	4.8708
584.141	4.58619
585.879	4.13357
587.615	5.61211
589.353	5.05899
591.09	5.18009
592.828	4.8952
594.564	3.44179
596.299	3.80714
598.035	3.30172
599.771	3.08506
601.506	2.58902
603.242	2.81592
604.974	2.8699
606.709	2.41745
608.443	2.40435
610.177	2.3863
611.908	1.59194
613.642	1.34538
615.374	1.21426
617.105	0.817926
618.837	0.590119
620.569	-0.20611
622.3	0.726912
624.03	0.297905
625.761	0.30035
627.491	0.559271
629.219	0.380519
630.949	1.2578
632.677	1.80423
634.406	2.40678
636.135	2.11564
637.861	1.48326
639.59	2.01062
641.318	1.95149
643.043	2.54838
644.77	4.10302
646.495	4.41461
648.222	5.81563
649.948	7.41561
651.672	8.14304
653.398	8.4759
655.121	9.99508
656.846	10.7813
658.569	11.906
660.293	12.4723
662.015	12.8102
663.738	13.5106
665.46	14.0754
667.183	14.8846
668.903	14.9317
670.626	16.3835
672.346	17.8518
674.067	18.6516
675.787	18.1733
677.508	19.2862
679.226	20.345
680.947	20.4253
682.665	22.1284
684.385	23.3463
686.102	24.7829
687.821	26.4752
689.538	27.3228
691.254	28.0372
692.972	29.2693
694.688	30.7998
696.406	30.5981
698.121	31.6952
699.835	32.1832
701.552	32.5323
703.266	33.0683
704.98	34.3666
706.695	34.8605
708.409	36.1481
710.121	35.9732
711.836	37.0123
713.548	38.3399
715.26	40.1785
716.973	41.8779
718.685	42.1119
720.396	42.0035
722.108	42.6883
723.818	43.9535
725.528	46.0864
727.238	46.6039
728.949	47.9679
730.658	49.2658
732.367	50.0264
734.075	50.378
735.785	50.4092
737.493	51.1863
739.2	52.1701
740.907	52.7251
742.614	53.2553
744.322	54.1343
746.028	55.3258
747.734	56.6161
749.439	57.6586
751.144	59.1624
752.849	60.1627
754.555	61.1673
756.26	63.069
757.963	64.7059
759.667	64.9333
761.37	66.2207
763.073	68.5902
764.775	69.5951
766.477	70.6318
768.179	72.4766
769.883	74.3871
771.584	76.0921
773.285	76.1338
774.986	76.7133
776.686	77.5691
778.386	78.6333
780.085	79.2825
781.785	78.8726
783.484	79.5199
785.182	79.1032
786.881	79.9588
788.579	81.7587
790.276	82.5143
791.974	83.1348
793.671	84.1525
795.367	85.3272
797.064	86.203
798.76	87.5319
800.456	88.0574
802.151	87.8879
803.846	88.1988
805.541	88.7714
807.234	89.5031
808.928	89.7373
810.622	89.477
812.315	89.1576
814.008	89.5638
815.701	90.2469
817.394	90.2523
819.086	89.7979
820.778	90.7594
822.468	90.7985
824.159	90.2337
825.85	90.104
827.541	90.6205
829.231	90.5056
830.921	90.7152
832.609	90.5222
834.298	90.6642
835.987	90.6955
837.676	89.3264
839.364	88.7013
841.051	87.7999
842.738	86.8974
844.426	84.8769
846.113	84.1424
847.798	83.8665
849.484	82.4257
851.171	81.816
852.857	80.7806
854.54	79.1748
856.226	77.2782
857.911	75.3756
859.593	74.7518
861.278	72.6371
862.961	70.7921
864.645	69.7326
866.327	67.4429
868.01	66.2895
869.692	66.1363
871.373	66.1708
873.055	66.204
874.735	65.035
876.416	64.874
878.097	64.68
879.776	64.0644
881.457	63.7229
883.135	63.7217
884.815	62.4128
886.495	61.8758
888.172	61.6342
889.851	61.8291
891.528	61.618
893.206	61.9608
894.882	62.6782
896.56	63.3311
898.237	63.1067
899.912	63.001
901.589	63.3846
903.263	62.4619
904.94	62.9674
906.614	63.2219
908.289	62.8407
909.962	63.0685
911.635	62.7958
913.31	63.2886
914.982	62.7266
916.656	62.7655
918.328	62.3584
920.001	61.4463
921.672	61.2315
923.345	61.4634
925.015	60.3125
926.685	59.0513
928.357	58.1701
930.026	58.089
931.698	58.5268
933.366	57.7869
935.035	57.0329
936.705	55.7144
938.373	54.8487
940.041	54.5512
941.71	53.9848
943.377	52.5252
945.044	51.1299
946.712	51.3759
948.378	51.6638
950.044	51.032
951.709	51.5131
953.376	51.7293
955.041	50.6601
956.706	50.4519
958.372	48.9024
960.036	46.6661
961.699	45.4097
963.362	45.4604
965.027	46.2824
966.69	46.7619
968.352	47.6323
970.014	48.6728
971.676	50.522
973.339	51.0264
975	51.2963
976.661	52.7715
978.322	52.945
979.982	52.937
981.642	53.2238
983.303	53.5382
984.962	53.7181
986.621	52.3546
988.28	52.1049
989.938	50.6045
991.596	49.533
993.254	49.7317
994.911	49.0643
996.57	48.8994
998.227	47.363
999.884	47.8658
1001.54	46.6093
1003.2	46.5164
1004.85	46.4265
1006.51	45.846
1008.16	44.8535
1009.82	44.6969
1011.47	44.6824
1013.12	44.3158
1014.78	43.3383
1016.43	42.1887
1018.08	40.7259
1019.74	40.1087
1021.39	39.2295
1023.04	38.4448
1024.69	38.2163
1026.34	36.8908
1028	36.0368
1029.65	35.2831
1031.3	34.3251
1032.95	32.9371
1034.6	32.1089
1036.25	30.5909
1037.9	28.5348
1039.54	27.5888
1041.19	26.4551
1042.84	26.2391
1044.49	27.6006
1046.14	28.7057
1047.78	28.8926
1049.43	28.7123
1051.08	28.5097
1052.72	28.3143
1054.37	28.6333
1056.02	28.1928
1057.66	27.6273
1059.31	26.782
1060.95	25.7043
1062.6	26.0526
1064.24	24.878
1065.88	23.3788
1067.53	22.1771
1069.17	21.3849
1070.81	21.442
1072.45	21.1303
1074.1	22.315
1075.74	22.186
1077.38	21.9769
1079.02	21.8853
1080.66	21.681
1082.3	22.6413
1083.94	22.4802
1085.58	23.3575
1087.22	23.6894
1088.86	23.5173
1090.5	22.9182
1092.14	22.3042
1093.78	22.2768
1095.42	21.9666
1097.05	22.1569
1098.69	21.6727
1100.33	22.1481
1101.96	22.3392
1103.6	22.0804
1105.24	22.5148
1106.87	21.9923
1108.51	20.6286
1110.14	21.3016
1111.78	21.2946
1113.41	20.5612
1115.05	19.1715
1116.68	18.2516
1118.31	16.7888
1119.95	16.3052
1121.58	16.0088
1123.21	15.5891
1124.85	15.2636
1126.48	14.6315
1128.11	14.6132
1129.74	14.7671
1131.37	15.114
1133	15.1122
1134.63	15.0856
1136.26	14.2371
1137.89	13.1218
1139.52	12.8235
1141.15	13.0433
1142.78	13.406
1144.41	13.304
1146.04	12.488
1147.66	12.8181
1149.29	12.2844
1150.92	12.1638
1152.55	11.5494
1154.17	10.7455
1155.8	10.3647
1157.43	9.76166
1159.05	9.8557
1160.68	9.31476
1162.3	8.77285
1163.93	8.77084
1165.55	8.84158
1167.17	9.84009
1168.8	9.37401
1170.42	9.64617
1172.05	9.83441
1173.67	9.74626
1175.29	9.75831
1176.91	9.68328
1178.54	9.8654
1180.16	10.2689
1181.78	11.5701
1183.4	11.7124
1185.02	12.2671
1186.64	12.354
1188.26	12.963
1189.88	13.4899
1191.5	12.9988
1193.12	12.5524
1194.74	13.4333
1196.36	15.0424
1197.97	17.5371
1199.59	19.7229
1201.21	22.5051
1202.83	24.1343
1204.44	27.1518
1206.06	28.8627
1207.68	30.55
1209.29	32.7483
1210.91	35.7099
1212.52	37.1985
1214.14	39.0382
1215.75	41.7854
1217.37	44.1109
1218.98	46.6201
1220.59	48.6709
1222.21	49.5016
1223.82	51.4708
1225.43	53.1184
1227.05	53.8836
1228.66	55.2559
1230.27	55.6721
1231.88	57.457
1233.49	58.1738
1235.1	59.4706
1236.72	60.7228
1238.33	62.5055
1239.94	62.7217
1241.55	62.7866
1243.16	64.0482
1244.76	65.1591
1246.37	65.9053
1247.98	66.3326
1249.59	65.4734
1251.2	66.4866
1252.8	65.6261
1254.41	65.4289
1256.02	65.2014
1257.62	65.1786
1259.23	64.536
1260.84	64.3859
1262.44	63.0246
1264.05	62.7253
1265.66	62.413
1267.26	62.3255
1268.86	62.5536
1270.47	62.7174
1272.07	63.2995
1273.67	65.2273
1275.28	66.3346
1276.88	67.8773
1278.48	68.372
1280.09	69.0307
1281.69	69.9723
1283.29	70.0875
1284.89	70.7036
1286.49	70.6058
1288.09	72.0955
1289.69	73.6298
1291.29	75.2832
1292.89	74.8912
1294.49	76.1013
1296.09	76.7064
1297.69	77.2985
1299.29	77.2339
1300.89	76.995
1302.49	77.4922
1304.08	77.9012
1305.68	77.5157
1307.28	78.4681
1308.88	79.7833
1310.47	80.6317
1312.07	80.5529
1313.66	80.478
1315.26	81.5308
1316.85	81.9422
1318.45	81.1067
1320.04	80.3169
1321.64	79.7065
1323.23	80.148
1324.83	79.391
1326.42	78.8795
1328.01	78.4341
1329.61	77.2865
1331.2	76.7015
1332.79	74.7006
1334.38	73.596
1335.97	72.275
1337.56	71.4924
1339.16	70.8386
1340.75	70.537
1342.34	69.8482
1343.93	70.356
1345.52	69.2008
1347.11	67.4208
1348.7	65.9772
1350.29	66.069
1351.87	65.4794
1353.46	64.3453
1355.05	63.484
1356.64	62.6384
1358.22	60.741
1359.81	59.8873
1361.4	58.8068
1362.98	57.4839
1364.57	56.9831
1366.16	56.5349
1367.74	56.0256
1369.33	54.0868
1370.91	52.5053
1372.5	50.3301
1374.08	49.9672
1375.67	48.0858
1377.25	47.7106
1378.83	45.7668
1380.41	44.9828
1382	44.3522
1383.58	43.758
1385.16	43.7894
1386.74	43.756
1388.33	43.3534
1389.91	41.5133
1391.49	39.6723
1393.07	38.9034
1394.65	37.5179
1396.23	36.0868
1397.81	34.9256
1399.39	33.8286
1400.97	33.1209
1402.55	34.0882
1404.13	32.8567
1405.7	32.7993
1407.28	33.611
1408.86	34.0083
1410.44	34.7356
1412.01	36.465
1413.59	38.3451
1415.17	40.3334
1416.74	43.0931
1418.32	45.6132
1419.89	47.7383
1421.47	50.3479
1423.04	52.919
1424.62	55.3262
1426.19	58.9792
1427.77	62.0785
1429.34	66.5955
1430.91	69.7284
1432.49	71.9802
1434.06	74.6303
1435.63	77.2735
1437.2	79.8512
1438.78	82.6759
1440.35	84.8516
1441.92	86.3532
1443.49	87.6664
1445.06	89.034
1446.63	89.6123
1448.2	89.4357
1449.77	90.3897
1451.34	90.5958
1452.91	90.778
1454.48	90.2754
1456.05	90.0227
1457.62	88.7298
1459.18	87.3236
1460.75	85.4343
1462.32	82.8582
1463.89	79.6539
1465.45	76.4187
1467.02	72.9504
1468.59	68.1477
1470.15	64.4635
1471.72	60.0631
1473.28	56.3287
1474.85	53.6769
1476.41	50.1523
1477.98	46.2215
1479.54	43.7756
1481.1	40.5694
1482.67	37.2456
1484.23	35.2666
1485.79	32.9638
1487.36	30.0833
1488.92	27.9798
1490.48	26.8072
1492.04	24.7485
1493.61	22.9863
1495.17	21.3379
1496.73	19.5671
1498.29	18.3002
1499.85	18.1428
1501.41	17.5365
1502.97	17.0621
1504.53	16.8997
1506.09	16.2177
1507.65	16.6543
1509.2	15.877
1510.76	16.1139
1512.32	15.8492
1513.88	16.2185
1515.43	16.6142
1516.99	17.305
1518.55	18.3172
1520.1	18.8977
1521.66	19.7241
1523.22	21.4674
1524.77	21.9287
1526.33	23.1271
1527.88	24.3815
1529.44	25.0353
1530.99	24.6532
1532.54	25.1041
1534.1	26.0704
1535.65	25.8416
1537.21	24.9677
1538.76	25.549
1540.31	25.5829
1541.86	26.8504
1543.42	27.4662
1544.97	28.4411
1546.52	29.5528
1548.07	31.0114
1549.62	31.8052
1551.17	33.0434
1552.72	34.8115
1554.27	35.1206
1555.82	36.7639
1557.37	38.0155
1558.92	39.1055
1560.47	40.5621
1562.02	41.1052
1563.56	41.2565
1565.11	42.5752
1566.66	43.3125
1568.21	44.1899
1569.75	44.7519
1571.3	46.3844
1572.85	46.9773
1574.39	48.7863
1575.94	50.1448
1577.49	51.7813
1579.03	52.3428
1580.57	53.8264
1582.12	55.1371
1583.66	56.5856
1585.21	58.0717
1586.75	59.8382
1588.3	61.9741
1589.84	62.1477
1591.38	63.65
1592.92	64.9673
1594.47	65.7398
1596.01	65.7417
1597.55	65.4992
1599.09	65.7039
1600.63	66.8364
1602.17	66.4518
1603.71	66.5812
1605.25	65.5719
1606.79	65.0487
1608.33	63.3533
1609.87	62.8202
1611.41	62.1434
1612.95	60.9962
1614.49	61.0597
1616.03	62.6674
1617.57	62.5662
1619.1	63.5549
1620.64	63.8553
1622.18	65.1255
1623.72	64.8547
1625.25	64.9613
1626.79	65.348
1628.32	67.2494
1629.86	68.3399
1631.39	68.9412
1632.93	70.7347
1634.46	71.0087
1636	72.1792
1637.53	73.0645
1639.07	74.1119
1640.6	74.9619
1642.13	76.4489
1643.67	78.0351
1645.2	79.2392
1646.73	80.8196
1648.26	82.5167
1649.8	82.905
1651.33	84.0845
1652.86	84.7073
1654.39	85.9559
1655.92	86.3988
1657.45	87.3383
1658.98	87.0998
1660.51	87.8241
1662.04	87.7789
1663.57	86.761
1665.1	86.1425
1666.63	85.6686
1668.16	84.6038
1669.68	82.6852
1671.21	80.6492
1672.74	79.0244
1674.27	77.5515
1675.79	75.2019
1677.32	73.471
1678.85	69.737
1680.37	66.0496
1681.9	62.0285
1683.42	58.9532
1684.95	55.9307
1686.47	52.762
1688	50.5189
1689.52	48.5238
1691.05	46.0689
1692.57	44.6451
1694.09	41.3383
1695.62	38.9618
1697.14	35.408
1698.66	31.8488
1700.18	29.0452
1701.71	27.2165
1703.23	25.6747
1704.75	23.7095
1706.27	21.296
1707.79	20.04
1709.31	18.533
1710.83	16.6366
1712.35	14.5468
1713.87	12.967
1715.39	11.6414
1716.91	9.8591
1718.43	8.96133
1719.95	8.36577
1721.47	6.72951
1722.99	6.26353
1724.5	5.45315
1726.02	4.71743
1727.54	4.1237
1729.06	3.92313
1730.57	3.59777
1732.09	3.18265
1733.61	3.35162
1735.12	2.90254
1736.64	3.23797
1738.15	3.42949
1739.67	3.37196
1741.18	3.82208
1742.7	3.63313
1744.21	2.49515
1745.72	2.44531
1747.24	2.6208
1748.75	2.84681
1750.26	2.57471
1751.77	2.43892
1753.29	2.51007
1754.8	2.04017
1756.31	1.88015
1757.82	1.80168
1759.33	2.18864
1760.84	2.21763
1762.36	1.83229
1763.87	2.25481
1765.38	1.76574
1766.89	1.38444
1768.4	1.11564
1769.91	0.154705
1771.41	-0.185443
1772.92	-0.7701
1774.43	-0.605227
1775.94	-0.107065
1777.45	-0.0798138
1778.95	0.131059
1780.46	-0.321248
1781.97	-0.419342
1783.48	-0.411975
1784.98	-1.16464
1786.49	-1.52376
1787.99	-1.49675
1789.5	-0.783802
1791.01	-0.352688
1792.51	-0.497239
1794.01	0.0658284
1795.52	0.374396
1797.02	0.623266
1798.53	0.962319
1800.03	0.620142
1801.53	0.68365
1803.04	0.423973
1804.54	0.66336
1806.04	0.981462
1807.54	1.2949
1809.05	1.42103
1810.55	1.57671
1812.05	2.37271
1813.55	2.81528
1815.05	2.5482
1816.55	2.28005
1818.05	2.0529
1819.55	1.89224
1821.05	1.92213
1822.55	2.00807
1824.05	2.50253
1825.55	2.07975
1827.05	2.13901
1828.55	2.07974
1830.04	1.63004
1831.54	0.897126
1833.04	1.52368
1834.54	2.04691
1836.03	2.52098
1837.53	2.61541
1839.03	2.69414
1840.52	3.40767
1842.02	3.99287
1843.51	4.28058
1845.01	4.29191
1846.5	4.18713
1848	4.17467
1849.49	4.1491
1850.99	4.63776
1852.48	4.77179
1853.97	5.27219
1855.47	5.15712
1856.96	5.77121
1858.45	5.71137
1859.94	5.64378
1861.44	5.82509
1862.93	6.30401
1864.42	6.30586
1865.91	6.58761
1867.4	6.34037
1868.89	7.02511
1870.38	6.76912
1871.87	7.03561
1873.36	6.76115
1874.85	6.88045
1876.34	7.30731
1877.83	8.07731
1879.32	8.55117
1880.81	9.29801
1882.3	9.77082
1882.57	9.91679
1884.07	10.6374
1885.56	10.1537
1887.06	9.37931
1888.55	8.96202
1890.04	8.9123
1891.54	9.04839
1893.03	9.68122
1894.52	10.1189
1896.02	10.393
1897.51	9.62961
1899	9.12876
1900.49	9.99421
1901.98	9.86127
1903.47	9.87856
1904.96	10.1068
1906.45	11.1302
1907.94	11.8628
1909.43	11.6051
1910.92	11.5554
1912.41	11.7097
1913.9	11.8701
1915.39	11.9717
1916.88	12.6493
1918.37	12.8039
1919.85	12.9079
1921.34	13.0979
1922.83	12.9437
1924.32	12.7381
1925.8	12.7234
1927.29	12.6042
1928.78	12.283
1930.26	12.1875
1931.75	11.3324
1933.23	11.5151
1934.72	11.3655
1936.2	11.4754
1937.69	11.6281
1939.17	11.812
1940.66	11.1341
1942.14	11.6188
1943.63	11.5233
1945.11	12.1412
1946.59	11.7304
1948.07	12.732
1949.56	13.218
1951.04	13.7048
1952.52	13.4037
1954	14.0516
1955.48	13.4571
1956.96	13.653
1958.45	13.1496
1959.93	13.1085
1961.41	13.1117
1962.89	13.1301
1964.37	13.7614
1965.85	14.0454
1967.32	15.009
1968.8	14.6245
1970.28	14.4093
1971.76	14.7054
1973.24	15.758
1974.72	16.7457
1976.19	16.1103
1977.67	16.3068
1979.15	16.1368
1980.63	17.0289
1982.1	16.5326
1983.58	16.3097
1985.05	16.8963
1986.53	17.1388
1988	17.4518
1989.48	17.5119
1990.95	17.5928
1992.43	16.8382
1993.9	16.1832
1995.38	15.3837
1996.85	14.5926
1998.32	14.5866
1999.8	14.8852
2001.27	15.205
2002.74	14.9974
2004.22	14.982
2005.69	14.8325
2007.16	14.9475
2008.63	14.761
2010.1	14.7094
2011.57	14.5575
2013.04	14.1832
2014.51	13.862
2015.98	14.3382
2017.45	14.3614
2018.92	14.4115
2020.39	15.2695
2021.86	15.3423
2023.33	14.7608
2024.8	14.7341
2026.27	15.0192
2027.74	15.569
2029.2	15.6733
2030.67	16.8713
2032.14	17.1107
2033.61	18.2862
2035.07	18.6891
2036.54	19.3403
2038.01	20.4409
2039.47	20.3572
2040.94	21.234
2042.4	21.1089
2043.87	21.4709
2045.33	21.9252
2046.8	22.0143
2048.26	21.5621
2049.72	20.9514
2051.19	20.6919
2052.65	20.965
2054.12	21.6285
2055.58	20.9436
2057.04	21.6651
2058.5	21.4046
2059.97	21.8841
2061.43	21.5667
2062.89	21.8924
2064.35	21.7761
2065.81	20.9638
2067.27	21.1925
2068.73	21.8856
2070.19	22.6288
2071.65	23.5082
2073.11	23.2584
2074.57	22.8002
2076.03	22.4735
2077.49	22.6166
2078.95	22.5916
2080.41	22.4126
2081.87	22.2005
2083.32	21.8855
2084.78	21.4831
2086.24	21.1687
2087.7	21.0243
2089.15	21.1558
2090.61	21.1204
2092.07	21.1954
2093.52	21.3978
2094.98	20.431
2096.43	20.9803
2097.89	21.9276
2099.34	22.8173
2100.8	23.2504
2102.25	23.8464
2103.71	24.0337
2105.16	23.2107
2106.61	22.7545
2108.07	22.8103
2109.52	22.4385
2110.97	22.4343
2112.43	22.5083
2113.88	23.1518
2115.33	23.0846
2116.78	22.7833
2118.23	22.9925
2119.68	24.1147
2121.13	24.1102
2122.59	24.5222
2124.04	25.4027
2125.49	26.3436
2126.94	26.559
2128.39	26.9184
2129.83	28.2563
2131.28	28.7
2132.73	29.7357
