#Acq. time (s)=	45
#Accumulations=	2
#Range (cm-¹)=	200...3150
#Windows=	2
#Auto scanning=	Off
#Autofocus=	Off
#Macrospot=	Off
#AutoExposure=	Off
#Spike filter=	Multiple accum.
#Delay time (s)=	0
#Binning=	1
#Readout mode=	Signal
#DeNoise=	Off
#ICS correction=	On
#Dark correction=	Off
#Inst. Process=	Off
#Detector Gain=	Best Dynamic Range
#Detector ADC=	20 kHz       
#Detector temperature (°C)=	-69.85
#Instrument=	LabRAM HR Evol
#Detector=	Synapse
#Objective=	x100
#Grating=	600 gr/mm
#ND Filter=	100%
#Laser (nm)=	532 
#Hole=	100.021
#Range=	Auto
#Laser Pol.=	No
#Raman. Pol.=	No
#Laser Pol. (°)=	-0.0007625
#Raman Pol. (°)=	89.9995
#Collection=	Microscope
#StageXY=	Marzhauser
#StageZ=	Marzhauser
#X (µm)=	4734.5
#Y (µm)=	-7694.2
#Z (µm)=	584.4
#Full time(mm:ss)=	3:18
#Project=	
#Sample=	
#Site=	
#Title=	Thy_30_10_50_2x_45s_532 nm_x100_100%_600 gr_mm
#Remark=	
#Date=	30.06.2022 14:58
#Acquired=	30.06.2022 14:58:33
#Base:Fit=	10.08.2022 09:58:11
#Base:Sub=	10.08.2022 09:58:44
#Filter:Polynom=	16.08.2022 10:22:53
#AxisType[0]=Intens
#AxisUnit[0]=Cnt
#AxisType[1]=Spectr
#AxisUnit[1]=1/cm
200.533	8.87413
202.348	8.60999
204.162	9.26765
205.976	9.58881
207.792	9.04122
209.605	8.73238
211.418	7.93877
213.23	8.13922
215.044	8.3435
216.856	8.20032
218.667	7.87652
220.478	7.72646
222.289	8.01294
224.102	7.55254
225.912	7.61325
227.721	8.80605
229.531	9.38946
231.34	9.0669
233.148	9.83887
234.956	10.3382
236.766	9.80906
238.574	10.7713
240.381	11.0246
242.188	11.8965
243.994	12.3503
245.801	12.4664
247.606	12.5009
249.412	12.5561
251.217	13.0887
253.024	12.3723
254.828	12.5151
256.632	12.0127
258.436	12.69
260.239	13.7
262.042	14.3753
263.845	14.4345
265.647	15.7285
267.449	15.5183
269.25	16.9866
271.052	17.7152
272.852	15.9852
274.653	16.6966
276.453	16.9
278.253	17.8782
280.052	17.5266
281.852	17.9354
283.65	17.7244
285.449	18.0948
287.247	17.7036
289.044	17.5561
290.842	16.6119
292.639	17.4219
294.436	17.4425
296.232	18.0517
298.028	19.1202
299.821	19.4125
301.617	19.5069
303.412	20.5673
305.206	20.7501
307	20.2293
308.794	20.3843
310.588	21.0823
312.381	21.7031
314.172	21.7989
315.964	23.0254
317.756	24.5572
319.548	23.7852
321.34	23.51
323.131	24.6777
324.921	24.72
326.71	23.8274
328.5	24.5301
330.29	24.4603
332.079	24.9254
333.868	24.6602
335.654	24.0466
337.443	23.6034
339.231	23.6714
341.018	22.9296
342.804	22.1975
344.591	22.2915
346.377	22.1718
348.163	22.896
349.947	23.0973
351.733	22.2715
353.518	21.9059
355.303	21.5043
357.085	21.0881
358.869	21.2226
360.653	20.0125
362.435	19.3194
364.218	19.8695
366.001	18.7255
367.781	17.9395
369.563	16.5632
371.345	16.5134
373.124	16.4527
374.905	15.7907
376.686	15.6104
378.464	15.2116
380.244	14.9087
382.022	14.8931
383.801	14.571
385.58	13.8472
387.357	13.2765
389.135	13.506
390.911	12.5482
392.689	12.5697
394.466	12.8496
396.241	12.7366
398.018	13.3877
399.792	14.333
401.568	14.2916
403.341	14.5186
405.117	14.7449
406.889	14.815
408.664	14.1274
410.436	14.6142
412.21	14.9843
413.981	14.1197
415.755	14.4044
417.525	14.8293
419.298	15.2832
421.068	15.8474
422.84	15.1795
424.609	14.8399
426.38	15.7311
428.149	16.4218
429.919	16.7642
431.688	17.0207
433.455	16.9241
435.225	15.8599
436.992	15.6446
438.76	15.5206
440.527	14.1879
442.293	13.0688
444.06	12.8197
445.826	12.4745
447.593	11.4832
449.357	11.4232
451.122	11.811
452.888	10.5847
454.651	9.5175
456.415	9.63362
458.18	9.80696
459.942	10.9483
461.705	10.1278
463.469	9.3568
465.23	9.78184
466.991	9.89178
468.752	9.98062
470.515	9.90134
472.275	10.3714
474.035	11.1624
475.797	12.6194
477.556	13.9669
479.315	14.0944
481.073	16.008
482.834	17.2533
484.592	18.0531
486.349	18.621
488.106	18.9933
489.863	18.5063
491.622	19.6506
493.378	19.6357
495.134	20.7097
496.889	21.0814
498.645	20.6262
500.401	21.2504
502.156	21.9166
503.91	22.8869
505.664	22.6782
507.417	23.195
509.171	23.5643
510.923	23.828
512.678	25.0859
514.43	25.9679
516.182	25.4714
517.933	24.7818
519.684	23.7319
521.435	22.8577
523.186	22.0507
524.936	22.889
526.686	21.6494
528.435	20.3137
530.184	20.372
531.933	20.7061
533.682	20.3169
535.43	19.8407
537.18	19.0878
538.927	17.8455
540.674	16.7679
542.421	15.7037
544.167	14.9651
545.913	14.7385
547.659	14.4167
549.403	13.1353
551.148	13.4807
552.893	13.5689
554.637	13.8566
556.381	14.1805
558.125	12.9912
559.868	12.5049
561.611	12.1538
563.354	11.6337
565.097	10.6584
566.839	9.64197
568.581	8.68267
570.322	7.64756
572.063	6.69457
573.802	6.06489
575.542	4.92212
577.283	4.41379
579.022	4.93338
580.762	3.96258
582.501	4.26764
584.24	4.04754
585.976	3.92006
587.714	4.08922
589.452	4.66496
591.19	4.85747
592.927	4.79962
594.663	4.96052
596.398	5.1384
598.134	5.17938
599.87	5.34087
601.605	5.33968
603.338	4.57653
605.073	4.4107
606.808	4.8432
608.542	4.92502
610.274	5.35556
612.007	5.99714
613.74	5.25798
615.473	5.33799
617.204	5.43998
618.936	5.79412
620.668	6.09597
622.397	6.13258
624.128	6.36924
625.859	7.1945
627.588	7.29385
629.318	7.48637
631.048	8.72386
632.775	10.2502
634.505	11.0913
636.233	12.4535
637.96	13.3493
639.688	13.9265
641.416	14.3449
643.142	14.5157
644.869	14.0519
646.594	14.7999
648.32	15.7181
650.045	15.7133
651.771	16.6225
653.496	17.868
655.219	19.0953
656.944	20.7092
658.667	20.4298
660.391	21.3701
662.113	20.9604
663.837	21.8224
665.558	22.3978
667.281	22.7946
669.002	22.9301
670.724	22.4569
672.444	22.6708
674.166	23.6578
675.885	25.0912
677.606	24.4795
679.325	24.5121
681.045	25.4618
682.763	25.4648
684.483	25.6005
686.2	25.8563
687.917	26.1232
689.636	25.8091
691.352	26.7505
693.07	27.1751
694.786	27.9353
696.501	27.5258
698.219	28.3548
699.933	27.831
701.65	27.6163
703.364	28.7079
705.078	29.1033
706.793	29.5074
708.506	29.8502
710.219	30.5954
711.934	30.8947
713.646	31.4698
715.358	32.905
717.071	33.8707
718.782	34.4578
720.493	35.0697
722.204	35.5003
723.916	36.0471
725.626	36.5613
727.336	38.016
729.045	39.0471
730.756	39.4376
732.464	40.5376
734.173	41.532
735.881	41.7778
737.59	43.3972
739.297	43.9282
741.004	44.2266
742.711	44.6164
744.417	45.011
746.125	47.2994
747.831	47.8272
749.537	49.8294
751.242	50.2022
752.946	52.0554
754.651	53.018
756.357	55.0871
758.061	56.7661
759.764	57.3485
761.467	57.6333
763.17	57.5855
764.872	59.7202
766.575	60.7296
768.276	61.2243
769.978	62.0153
771.679	63.4234
773.382	65.2581
775.083	66.3492
776.783	67.5131
778.483	67.7364
780.182	69.456
781.882	69.3339
783.581	70.2309
785.279	70.699
786.978	71.5167
788.676	73.0063
790.373	72.7525
792.071	73.5674
793.768	74.264
795.464	75.0165
797.161	75.2636
798.857	75.9612
800.552	76.0796
802.248	76.4383
803.941	76.695
805.636	77.1748
807.33	77.5212
809.024	78.0075
810.718	77.8665
812.412	78.2753
814.105	77.1902
815.798	76.5754
817.49	77.2875
819.183	76.992
820.873	76.9296
822.564	77.2098
824.256	77.3101
825.947	77.8923
827.637	78.0366
829.328	77.6972
831.016	77.8625
832.705	76.3662
834.395	76.2051
836.084	74.3372
837.772	74.6022
839.459	72.5725
841.147	71.1512
842.835	69.203
844.522	68.7386
846.209	68.1746
847.894	67.1576
849.581	67.5294
851.267	66.052
852.953	65.0743
854.637	63.6045
856.322	62.7548
858.007	61.9765
859.689	61.2887
861.374	61.0514
863.058	60.6635
864.739	60.5266
866.423	58.9004
868.106	57.8568
869.787	56.8877
871.469	55.6449
873.151	54.183
874.831	52.8016
876.512	52.8752
878.193	52.8836
879.872	52.722
881.553	51.6439
883.231	51.7841
884.911	51.4121
886.591	51.7815
888.268	51.1991
889.947	50.9457
891.623	51.2452
893.302	50.8152
894.978	50.0768
896.656	49.9427
898.331	49.4178
900.008	50.2021
901.683	50.22
903.359	49.5425
905.033	49.6037
906.709	48.9979
908.383	48.8969
910.058	48.4452
911.731	48.063
913.405	47.7425
915.078	47.8883
916.752	46.2961
918.423	46.194
920.096	45.4536
921.768	45.8448
923.438	45.1618
925.111	45.2137
926.781	45.2219
928.452	44.0879
930.122	42.8783
931.791	42.0551
933.462	41.5779
935.13	40.2725
936.799	39.6674
938.468	39.0021
940.136	38.4762
941.803	38.2062
943.472	37.535
945.139	36.2744
946.805	33.6118
948.473	32.457
950.139	31.2227
951.804	29.6686
953.471	29.1413
955.136	29.0366
956.801	27.9401
958.465	28.3077
960.131	27.4619
961.794	27.2281
963.458	26.9274
965.12	26.789
966.785	27.3852
968.447	25.8093
970.109	25.6011
971.771	25.8128
973.432	25.7213
975.095	25.8832
976.756	24.6702
978.417	24.5896
980.077	24.6666
981.737	24.2469
983.396	24.9409
985.057	24.1425
986.716	24.7173
988.375	24.6541
990.033	24.2967
991.691	24.5384
993.349	25.0408
995.006	25.3872
996.663	24.6516
998.32	24.521
999.976	24.4314
1001.63	25.2281
1003.29	25.4282
1004.95	25.6869
1006.6	25.8977
1008.26	25.6605
1009.91	25.5558
1011.56	25.0008
1013.22	25.0998
1014.87	25.0674
1016.53	24.9536
1018.18	24.6752
1019.83	24.3279
1021.48	23.7648
1023.14	22.8153
1024.79	22.1295
1026.44	21.487
1028.09	20.8063
1029.74	20.5303
1031.39	21.4772
1033.04	21.2703
1034.69	20.9487
1036.34	20.8635
1037.99	20.5338
1039.64	20.0118
1041.29	19.8765
1042.94	19.961
1044.58	20.2918
1046.23	19.5902
1047.88	18.6096
1049.52	18.2443
1051.17	18.2994
1052.82	18.7431
1054.46	18.1979
1056.11	17.0158
1057.75	16.8968
1059.4	15.885
1061.04	16.232
1062.69	16.5749
1064.33	17.0218
1065.98	16.9098
1067.62	16.1643
1069.26	16.3154
1070.9	15.9147
1072.55	15.3876
1074.19	15.862
1075.83	16.4169
1077.47	15.8746
1079.11	15.1548
1080.76	14.4791
1082.4	14.1453
1084.04	14.0916
1085.68	14.1432
1087.32	14.4214
1088.95	13.4894
1090.59	13.2775
1092.23	12.5803
1093.87	12.1247
1095.51	10.9235
1097.15	11.066
1098.78	10.4456
1100.42	10.1676
1102.06	9.36413
1103.69	9.20355
1105.33	9.04832
1106.97	8.82528
1108.6	8.29721
1110.24	7.82987
1111.87	8.49536
1113.51	8.72043
1115.14	7.50911
1116.77	7.14143
1118.41	6.07699
1120.04	6.29435
1121.67	5.86677
1123.31	5.49189
1124.94	5.27117
1126.57	4.1649
1128.2	3.74029
1129.83	4.44958
1131.47	5.20207
1133.1	5.38463
1134.72	5.15011
1136.36	4.64103
1137.98	5.53856
1139.62	5.75738
1141.24	5.47557
1142.87	7.18309
1144.5	7.67341
1146.13	7.46421
1147.76	7.0516
1149.38	6.83082
1151.01	7.25314
1152.64	7.45079
1154.27	6.95837
1155.89	6.86052
1157.52	6.31715
1159.14	5.61845
1160.77	5.17645
1162.39	4.35913
1164.02	4.69331
1165.64	4.79632
1167.27	4.63652
1168.89	4.45394
1170.51	3.69536
1172.14	3.85979
1173.76	3.41149
1175.38	3.91004
1177	3.22524
1178.63	3.68607
1180.25	3.21291
1181.87	2.71196
1183.49	2.09339
1185.11	3.00287
1186.73	2.54866
1188.35	2.3802
1189.97	2.25164
1191.59	3.55925
1193.21	3.38757
1194.83	2.72229
1196.45	2.48633
1198.07	3.64657
1199.68	3.48169
1201.3	5.20655
1202.92	4.8422
1204.53	5.41972
1206.15	6.3435
1207.77	7.03138
1209.38	7.92414
1211	9.13444
1212.62	9.91925
1214.23	11.277
1215.84	12.3989
1217.46	13.6187
1219.07	15.2516
1220.69	16.4974
1222.3	18.3167
1223.91	20.1109
1225.53	20.2881
1227.14	21.2813
1228.75	22.444
1230.36	23.3952
1231.97	24.9341
1233.59	25.8535
1235.2	26.7905
1236.81	27.7641
1238.42	28.952
1240.03	29.726
1241.64	30.0642
1243.25	30.7569
1244.85	31.608
1246.46	32.6437
1248.07	32.9408
1249.68	33.6719
1251.29	34.7329
1252.9	35.5935
1254.5	36.7683
1256.11	36.501
1257.72	36.258
1259.32	37.0711
1260.93	37.2354
1262.54	37.9793
1264.14	38.2394
1265.75	38.884
1267.35	38.4375
1268.96	38.5348
1270.56	38.5848
1272.16	38.84
1273.77	38.7099
1275.37	40.2543
1276.97	41.2203
1278.57	41.7008
1280.18	41.7273
1281.78	42.0697
1283.38	41.3576
1284.98	41.8029
1286.58	41.6201
1288.18	41.7475
1289.78	42.4981
1291.38	43.0432
1292.99	43.5076
1294.58	44.408
1296.18	44.7367
1297.78	44.9647
1299.38	45.0307
1300.98	45.6546
1302.58	45.3071
1304.17	45.4047
1305.77	45.5473
1307.37	45.725
1308.97	45.4153
1310.56	45.7998
1312.16	46.8149
1313.76	47.1838
1315.35	47.225
1316.95	47.7391
1318.54	47.8138
1320.14	47.7519
1321.73	47.1197
1323.32	47.5167
1324.92	47.1126
1326.51	47.0876
1328.1	46.6696
1329.7	46.9821
1331.29	46.0784
1332.88	45.6619
1334.47	44.8674
1336.07	43.4268
1337.66	43.1975
1339.25	42.6274
1340.84	41.4447
1342.43	40.7654
1344.02	38.9659
1345.61	38.2827
1347.2	36.9424
1348.79	35.687
1350.37	34.8903
1351.96	33.5752
1353.55	33.2635
1355.14	32.2802
1356.73	30.6224
1358.31	29.2146
1359.9	27.9452
1361.49	27.1279
1363.07	26.4044
1364.66	25.5315
1366.25	24.9142
1367.83	24.8654
1369.42	24.7386
1371	24.1046
1372.59	23.804
1374.17	24.141
1375.75	23.4404
1377.34	22.6798
1378.92	22.6538
1380.5	21.8787
1382.09	21.2653
1383.67	21.6544
1385.25	21.6176
1386.83	21.6987
1388.42	22.2411
1390	22.4876
1391.58	21.6788
1393.16	20.6616
1394.74	20.4657
1396.32	20.1012
1397.9	19.3986
1399.48	19.3697
1401.06	18.7815
1402.64	18.954
1404.21	19.402
1405.79	19.4918
1407.37	19.3173
1408.95	19.7721
1410.53	20.0546
1412.1	20.8428
1413.68	20.5272
1415.26	20.8855
1416.83	21.5904
1418.41	21.8259
1419.98	22.6265
1421.56	23.8646
1423.13	24.4875
1424.71	25.5457
1426.28	27.283
1427.86	28.6723
1429.43	30.9192
1431	33.0991
1432.58	35.0827
1434.15	37.3821
1435.72	39.5615
1437.29	41.8753
1438.87	43.8229
1440.44	45.7618
1442.01	46.5337
1443.58	47.6194
1445.15	49.0401
1446.72	51.3426
1448.29	53.1952
1449.86	53.6261
1451.43	54.33
1453	53.9964
1454.57	52.915
1456.14	53.1639
1457.71	52.6673
1459.27	51.1089
1460.84	50.5038
1462.41	49.3428
1463.98	47.8989
1465.54	46.5944
1467.11	44.1625
1468.67	41.2324
1470.24	39.1504
1471.81	37.4861
1473.37	36.0126
1474.94	32.9515
1476.5	30.6256
1478.07	28.5684
1479.63	25.8167
1481.19	23.9305
1482.76	21.6758
1484.32	18.9048
1485.88	16.137
1487.45	14.3224
1489.01	12.2028
1490.57	10.2626
1492.13	8.54613
1493.69	7.62007
1495.26	6.76643
1496.82	5.86742
1498.38	5.34356
1499.94	4.5619
1501.5	3.97105
1503.06	3.72464
1504.62	3.98093
1506.17	3.23415
1507.73	3.32623
1509.29	3.50216
1510.85	3.88742
1512.41	4.59236
1513.97	4.27641
1515.52	4.82414
1517.08	4.99608
1518.64	5.51001
1520.19	6.72554
1521.75	8.11085
1523.31	9.23698
1524.86	10.6509
1526.42	10.6683
1527.97	11.4677
1529.52	12.161
1531.08	12.1686
1532.63	13.4865
1534.19	14.649
1535.74	14.0032
1537.29	14.6247
1538.85	15.7497
1540.4	16.1422
1541.95	17.3816
1543.5	17.4133
1545.06	17.0396
1546.61	17.8617
1548.16	18.2606
1549.71	19.1168
1551.26	19.6492
1552.81	19.6581
1554.36	21.0012
1555.91	21.9317
1557.46	22.5277
1559.01	23.2337
1560.56	23.3228
1562.11	23.8316
1563.65	24.2717
1565.2	25.0176
1566.75	25.2532
1568.29	25.9977
1569.84	27.9122
1571.39	29.5496
1572.94	30.1511
1574.48	30.8246
1576.03	31.7915
1577.57	32.3773
1579.12	32.8967
1580.66	33.6202
1582.21	34.3123
1583.75	34.6299
1585.3	35.1505
1586.84	36.6746
1588.38	36.7768
1589.93	36.884
1591.47	37.3696
1593.01	37.6939
1594.55	37.9036
1596.1	38.5591
1597.64	39.6724
1599.18	39.5556
1600.72	40.1746
1602.26	40.7325
1603.8	40.2994
1605.34	40.6269
1606.88	40.3337
1608.42	40.1643
1609.96	40.7353
1611.5	40.9266
1613.04	40.8475
1614.58	41.0112
1616.12	41.0247
1617.65	40.4449
1619.19	40.5848
1620.73	39.5741
1622.27	39.4727
1623.8	40.124
1625.34	40.0682
1626.87	40.93
1628.41	40.7638
1629.95	41.584
1631.48	42.1958
1633.02	42.569
1634.55	42.8364
1636.09	43.6454
1637.62	44.5885
1639.15	45.5908
1640.69	46.4949
1642.22	47.4295
1643.76	48.8708
1645.29	49.9915
1646.82	50.5586
1648.35	50.9091
1649.88	51.18
1651.42	51.6746
1652.95	52.2625
1654.48	52.2824
1656.01	51.8885
1657.54	51.9105
1659.07	50.7062
1660.6	49.6116
1662.13	48.9202
1663.66	47.9802
1665.19	46.6292
1666.72	45.3991
1668.24	44.5001
1669.77	44.1087
1671.3	42.5568
1672.83	41.4412
1674.35	40.0578
1675.88	38.3579
1677.41	37.1931
1678.93	35.5166
1680.46	33.6915
1681.99	32.7152
1683.51	31.0601
1685.04	28.7537
1686.56	27.3271
1688.09	24.8921
1689.61	22.3055
1691.13	19.5455
1692.66	17.6274
1694.18	14.6449
1695.71	13.3341
1697.23	10.6979
1698.75	9.66903
1700.27	8.99715
1701.8	7.57327
1703.32	6.43589
1704.84	4.87693
1706.36	4.44909
1707.88	3.5672
1709.4	2.73937
1710.92	2.70845
1712.44	2.85873
1713.96	2.11792
1715.48	1.37885
1717	0.822514
1718.52	0.860124
1720.04	1.00679
1721.56	0.984892
1723.07	1.57666
1724.59	2.28716
1726.11	2.52827
1727.63	2.31876
1729.14	2.27163
1730.66	2.05594
1732.18	1.84319
1733.69	1.7887
1735.21	1.24197
1736.72	1.81532
1738.24	2.13725
1739.75	2.07229
1741.27	2.79128
1742.78	2.78955
1744.3	3.34094
1745.81	3.54819
1747.32	2.85706
1748.84	3.45889
1750.35	3.43742
1751.86	3.91024
1753.37	3.87228
1754.89	4.07657
1756.4	3.7926
1757.91	3.35945
1759.42	2.74497
1760.93	2.46089
1762.44	2.74056
1763.95	2.54695
1765.46	2.10016
1766.97	2.01424
1768.48	2.00637
1769.99	1.61899
1771.5	2.32957
1773.01	1.82185
1774.52	1.66587
1776.03	1.0967
1777.53	0.31908
1779.04	0.00419265
1780.55	0.332612
1782.06	0.562142
1783.56	0.547255
1785.07	0.72442
1786.57	1.5623
1788.08	1.41386
1789.59	1.27452
1791.09	1.50221
1792.6	2.34687
1794.1	2.60159
1795.6	2.6041
1797.11	2.5266
1798.61	2.71705
1800.12	2.50707
1801.62	2.81776
1803.12	2.49835
1804.63	2.9841
1806.13	2.91905
1807.63	2.49694
1809.13	2.0239
1810.63	2.32459
1812.14	2.58402
1813.64	2.64708
1815.14	2.62264
1816.64	3.13566
1818.14	3.0464
1819.64	2.89253
1821.14	3.12933
1822.64	3.1089
1824.14	2.84636
1825.63	3.34569
1827.13	4.03453
1828.63	4.05784
1830.13	4.71615
1831.63	4.41699
1833.12	4.5324
1834.62	5.08547
1836.12	5.15438
1837.62	5.68249
1839.11	5.70175
1840.61	5.44386
1842.1	5.78781
1843.6	5.54432
1845.09	5.25224
1846.59	5.12142
1848.08	4.85544
1849.58	4.90468
1851.07	5.50991
1852.57	5.73367
1854.06	6.2396
1855.55	6.75764
1857.04	6.45974
1858.54	7.0778
1860.03	7.30697
1861.52	7.27116
1863.01	7.25069
1864.5	7.53378
1866	8.21399
1867.49	8.2936
1868.98	7.93111
1870.47	7.88821
1871.96	7.28691
1873.45	6.98183
1874.94	6.29198
1876.43	5.79072
1877.92	5.2416
1879.41	5.24824
1880.89	5.04484
1882.38	5.04776
1882.48	5.02577
1883.97	4.68535
1885.47	4.42324
1886.96	4.35775
1888.46	4.06636
1889.95	3.99834
1891.44	3.94581
1892.94	3.52331
1894.43	3.76918
1895.92	3.97055
1897.41	4.29652
1898.9	5.37005
1900.4	5.17197
1901.89	4.65324
1903.38	4.81077
1904.87	4.87707
1906.36	5.76051
1907.85	5.9587
1909.34	6.37002
1910.83	7.00827
1912.32	6.97024
1913.81	7.29085
1915.29	7.62507
1916.78	7.71633
1918.27	7.86743
1919.76	8.27072
1921.25	8.6318
1922.74	9.10889
1924.22	9.27644
1925.71	9.01386
1927.2	9.35905
1928.68	8.90458
1930.17	8.94807
1931.65	9.45019
1933.14	8.98468
1934.63	9.15679
1936.11	8.84674
1937.59	8.71986
1939.08	8.46871
1940.56	7.53598
1942.05	6.54442
1943.53	6.09191
1945.01	5.544
1946.5	5.6241
1947.98	5.69449
1949.46	5.2114
1950.94	5.46253
1952.43	5.51982
1953.91	5.41145
1955.39	4.52449
1956.87	4.10965
1958.35	4.13627
1959.83	4.60009
1961.31	4.91059
1962.79	5.11712
1964.27	5.59016
1965.75	5.3283
1967.23	5.63158
1968.71	6.326
1970.19	6.56261
1971.67	7.44159
1973.14	7.47832
1974.62	7.50413
1976.1	7.88141
1977.58	9.15353
1979.05	9.74093
1980.53	10.2025
1982.01	9.96214
1983.48	10.5113
1984.96	10.678
1986.43	11.0303
1987.91	11.3621
1989.38	11.1592
1990.86	10.9625
1992.33	11.1417
1993.81	11.106
1995.28	11.3961
1996.76	11.215
1998.23	11.1528
1999.7	10.6614
2001.18	11.0022
2002.65	11.0899
2004.12	11.3196
2005.59	10.8192
2007.06	10.5018
2008.54	11.106
2010.01	11.1325
2011.48	11.807
2012.95	11.4468
2014.42	10.7842
2015.89	10.9249
2017.36	11.8156
2018.83	11.8589
2020.3	12.1092
2021.77	11.8163
2023.24	11.4834
2024.71	11.8351
2026.17	12.103
2027.64	11.7652
2029.11	11.3786
2030.58	12.2545
2032.04	12.3127
2033.51	12.7767
2034.98	13.2525
2036.45	13.0688
2037.91	13.0523
2039.38	12.7521
2040.84	13.4393
2042.31	13.1217
2043.77	12.9795
2045.24	13.6404
2046.7	13.6017
2048.17	14.0961
2049.63	13.5646
2051.1	13.8732
2052.56	13.5323
2054.02	13.9561
2055.48	14.0826
2056.95	14.1979
2058.41	14.3272
2059.87	14.4332
2061.33	14.6226
2062.8	14.3144
2064.26	14.6159
2065.72	15.4729
2067.18	15.9515
2068.64	16.2487
2070.1	16.4034
2071.56	16.7721
2073.02	17.3145
2074.48	17.378
2075.94	17.0329
2077.4	17.1557
2078.86	17.0354
2080.31	17.5697
2081.77	17.9786
2083.23	17.7249
2084.69	18.1567
2086.14	18.4342
2087.6	18.8444
2089.06	19.7328
2090.52	20.2354
2091.97	20.5164
2093.43	20.7214
2094.88	20.6493
2096.34	21.1536
2097.79	21.2965
2099.25	21.3012
2100.7	20.8237
2102.16	21.6349
2103.61	22.0982
2105.07	22.1259
2106.52	22.8266
2107.97	23.096
2109.43	22.8855
2110.88	23.6833
2112.33	24.3521
2113.78	25.2082
2115.24	25.9645
2116.69	27.1081
2118.14	28.0414
2119.59	28.9332
2121.04	29.1569
2122.49	30.0645
2123.94	31.425
2125.39	32.169
2126.84	32.6837
2128.29	33.4222
2129.74	34.8313
2131.19	35.9508
2132.64	37.2398
2134.09	38.1437
2135.54	38.4722
