#Acq. time (s)=	45
#Accumulations=	2
#Range (cm-¹)=	200...3150
#Windows=	2
#Auto scanning=	Off
#Autofocus=	Off
#Macrospot=	Off
#AutoExposure=	Off
#Spike filter=	Multiple accum.
#Delay time (s)=	0
#Binning=	1
#Readout mode=	Signal
#DeNoise=	Off
#ICS correction=	On
#Dark correction=	Off
#Inst. Process=	Off
#Detector Gain=	Best Dynamic Range
#Detector ADC=	20 kHz       
#Detector temperature (°C)=	-69.85
#Instrument=	LabRAM HR Evol
#Detector=	Synapse
#Objective=	x100
#Grating=	600 gr/mm
#ND Filter=	100%
#Laser (nm)=	532 
#Hole=	100.021
#Range=	Auto
#Laser Pol.=	No
#Raman. Pol.=	No
#Laser Pol. (°)=	-0.0007625
#Raman Pol. (°)=	89.9995
#Collection=	Microscope
#StageXY=	Marzhauser
#StageZ=	Marzhauser
#X (µm)=	-5101.5
#Y (µm)=	1486.2
#Z (µm)=	62.85
#Full time(mm:ss)=	3:18
#Project=	
#Sample=	
#Site=	
#Title=	Thy_50_12_23_2x_45s_532 nm_x100_100%_600 gr_mm
#Remark=	
#Date=	07.07.2022 10:54
#Acquired=	07.07.2022 10:54:41
#Base:Fit=	10.08.2022 10:04:29
#Base:Sub=	10.08.2022 10:04:45
#Filter:Polynom=	16.08.2022 10:20:24
#AxisType[0]=Intens
#AxisUnit[0]=Cnt
#AxisType[1]=Spectr
#AxisUnit[1]=1/cm
200.43	1.9558
202.246	5.66543
204.061	6.45807
205.875	7.6449
207.688	8.58562
209.501	9.31592
211.316	10.1241
213.129	10.4697
214.941	10.7479
216.753	11.3034
218.566	10.818
220.377	12.2062
222.188	12.5982
223.999	12.6328
225.809	12.3558
227.618	11.8705
229.43	11.0198
231.239	10.3249
233.047	10.0943
234.855	9.40553
236.663	9.10518
238.471	8.42181
240.278	8.13079
242.087	7.51827
243.894	7.04032
245.7	6.36573
247.506	6.12245
249.311	5.42097
251.116	4.12877
252.921	4.99919
254.725	5.56977
256.529	4.81085
258.333	4.82271
260.136	4.71402
261.939	4.74925
263.744	5.88138
265.546	5.65867
267.348	5.55678
269.15	5.74207
270.951	5.19135
272.752	4.78056
274.552	4.49495
276.353	4.25605
278.152	3.51763
279.952	4.51919
281.751	4.30993
283.55	4.01182
285.348	3.43362
287.146	3.99184
288.942	4.20541
290.739	4.01792
292.536	4.34263
294.333	4.94741
296.129	5.6575
297.925	6.2514
299.721	6.84483
301.516	7.78719
303.311	8.22349
305.106	9.97719
306.9	10.9667
308.694	11.9214
310.486	12.7638
312.279	13.3683
314.072	13.3063
315.864	13.8102
317.656	14.4864
319.448	14.6633
321.24	14.8016
323.029	14.4564
324.819	14.417
326.61	14.5912
328.4	14.7375
330.19	14.6331
331.977	15.6235
333.766	16.1961
335.555	16.0778
337.343	16.5268
339.131	16.8119
340.917	16.3489
342.704	16.633
344.491	16.1863
346.277	16.983
348.062	16.8829
349.848	16.7617
351.633	16.6479
353.416	15.5807
355.201	15.5332
356.986	14.7048
358.77	14.3276
360.552	13.0847
362.335	12.1621
364.118	12.0464
365.899	12.3726
367.682	12.7413
369.464	13.1195
371.243	12.525
373.025	12.5879
374.806	13.185
376.585	13.5211
378.365	12.7069
380.143	12.3553
381.923	12.6696
383.702	13.0174
385.479	13.9062
387.258	13.2274
389.034	13.3396
390.812	14.4571
392.59	14.899
394.365	15.0841
396.142	14.096
397.916	14.3029
399.693	13.5601
401.467	14.387
403.242	13.9411
405.015	14.4272
406.79	14.5444
408.565	13.7296
410.337	14.3451
412.111	14.2259
413.882	13.9373
415.656	13.5757
417.426	14.0836
419.197	14.2923
420.969	14.4554
422.739	14.2215
424.51	14.5251
426.279	13.9149
428.05	14.3058
429.819	13.0076
431.589	13.0419
433.356	13.3597
435.124	14.4086
436.893	15.0887
438.66	14.924
440.428	14.5646
442.194	14.4254
443.96	15.3435
445.727	15.389
447.492	16.1395
449.259	16.7753
451.023	16.9524
452.787	17.5739
454.553	17.6942
456.316	18.1977
458.079	17.8531
459.844	18.1347
461.606	18.6003
463.368	18.4963
465.132	19.5151
466.893	19.9009
468.654	20.5361
470.415	22.1059
472.177	22.2331
473.937	22.6953
475.696	23.3999
477.456	24.2986
479.217	25.445
480.975	25.6348
482.733	25.3411
484.491	26.8547
486.251	28.1331
488.008	29.0475
489.765	29.872
491.522	30.6071
493.278	30.7155
495.036	30.7495
496.791	30.5378
498.546	32.0679
500.301	31.263
502.056	30.6137
503.81	31.5892
505.566	31.4685
507.319	30.4031
509.073	29.6381
510.825	30.0333
512.578	29.5883
514.33	28.4671
516.082	29.405
517.833	28.8441
519.587	29.0526
521.337	29.3263
523.088	29.652
524.838	29.4627
526.588	28.5261
528.337	28.6304
530.087	27.9745
531.835	27.4347
533.584	26.4421
535.332	25.308
537.08	24.0492
538.827	23.0652
540.574	21.1748
542.321	20.4326
544.068	20.6525
545.814	20.0131
547.56	19.4659
549.305	19.1273
551.05	18.8573
552.795	18.4473
554.54	17.1819
556.284	16.5204
558.027	16.0562
559.771	15.1151
561.514	14.888
563.257	13.3721
564.999	11.8849
566.742	11.1366
568.481	10.6305
570.223	9.15461
571.964	8.30723
573.705	7.44066
575.445	7.01083
577.185	5.22807
578.925	4.11116
580.665	3.54043
582.402	3.09954
584.141	2.61227
585.879	2.59149
587.617	1.89618
589.355	1.38339
591.092	1.50776
592.828	1.04045
594.564	1.19263
596.301	2.23813
598.037	2.42915
599.773	2.7564
601.506	2.69416
603.242	3.82418
604.976	3.26925
606.711	3.85504
608.443	4.45842
610.177	5.69186
611.91	5.77719
613.644	6.34128
615.374	6.40021
617.107	5.57823
618.839	5.27231
620.569	5.62895
622.3	5.43109
624.032	5.6986
625.761	5.98132
627.491	5.92468
629.221	7.97761
630.949	8.88667
632.679	10.0141
634.408	10.3952
636.135	11.1897
637.863	12.0322
639.592	12.0566
641.318	12.708
643.045	12.3606
644.77	13.0681
646.497	14.3649
648.224	14.4029
649.948	13.9945
651.674	15.3777
653.398	15.8395
655.123	17.1599
656.846	17.1018
658.57	18.2666
660.293	19.9567
662.017	19.3754
663.738	19.1678
665.462	19.7088
667.185	20.944
668.905	21.3649
670.628	22.2198
672.348	23.4943
674.067	24.2103
675.789	24.2208
677.508	24.7945
679.228	25.1139
680.947	24.2805
682.667	25.028
684.385	25.2877
686.104	25.224
687.821	26.2909
689.538	27.6392
691.256	27.6761
692.972	28.1799
694.69	27.8302
696.406	28.7998
698.121	28.7319
699.837	28.8201
701.552	28.6834
703.268	29.6498
704.982	31.4591
706.695	32.4606
708.41	33.0058
710.123	34.6275
711.836	35.1226
713.55	36.2212
715.262	37.0792
716.973	37.445
718.685	37.4475
720.398	36.9703
722.108	37.4769
723.818	38.1381
725.53	38.1722
727.24	38.7493
728.949	40.1344
730.658	42.1569
732.369	43.6499
734.077	43.3385
735.785	44.0616
737.493	45.1002
739.2	45.3728
740.909	46.799
742.616	47.6819
744.322	49.4799
746.028	51.2039
747.734	52.0485
749.441	53.6742
751.146	54.2474
752.851	55.8694
754.555	56.7271
756.26	57.8153
757.963	59.441
759.667	60.5058
761.372	61.5882
763.075	62.1471
764.777	63.3782
766.479	64.5043
768.181	66.3926
769.883	66.7168
771.584	67.5086
773.285	68.7652
774.986	69.1113
776.686	69.4137
778.386	69.2193
780.085	70.8986
781.785	72.6407
783.484	73.0623
785.182	73.5802
786.881	74.492
788.579	76.4114
790.276	76.5042
791.974	75.2534
793.671	75.3181
795.367	75.2421
797.064	75.3175
798.76	75.1622
800.456	74.9527
802.151	72.9408
803.846	71.9669
805.541	71.9483
807.236	71.9174
808.93	72.2273
810.624	71.3037
812.317	70.3735
814.01	70.5265
815.703	69.9802
817.394	70.3385
819.086	69.2261
820.778	70.1547
822.47	70.1813
824.161	70.1951
825.852	70.5725
827.543	70.5367
829.231	70.0222
830.921	68.4238
832.611	66.5875
834.3	65.1022
835.989	64.0257
837.676	63.9375
839.364	62.9845
841.053	62.5749
842.74	61.4242
844.426	59.5527
846.113	59.2673
847.8	58.5578
849.486	57.8433
851.171	56.5054
852.857	54.2979
854.542	53.6206
856.227	53.0559
857.911	52.3897
859.595	53.0702
861.279	52.975
862.961	52.6561
864.645	53.3902
866.329	52.345
868.01	52.0397
869.692	51.1758
871.375	50.448
873.055	50.512
874.737	49.496
876.418	49.3349
878.097	49.6315
879.778	48.2972
881.457	47.7981
883.137	46.6689
884.817	46.5159
886.495	45.5978
888.174	46.2107
889.851	46.3313
891.53	45.8543
893.206	45.2682
894.884	44.7347
896.562	44.617
898.237	45.1516
899.914	44.1075
901.589	44.0601
903.265	43.1475
904.94	43.072
906.615	41.4659
908.289	39.6372
909.964	39.0411
911.637	37.8459
913.31	36.5066
914.984	35.9238
916.656	35.236
918.33	34.8579
920.001	34.3931
921.674	34.2616
923.345	32.4151
925.015	31.161
926.687	29.5442
928.357	29.5819
930.028	29.9566
931.698	28.2521
933.366	26.668
935.037	26.783
936.705	25.771
938.373	26.3017
940.043	26.101
941.71	25.3438
943.379	24.5976
945.046	22.5957
946.712	22.3846
948.378	21.4182
950.046	20.7395
951.711	21.4063
953.376	20.9929
955.043	22.0162
956.708	21.8564
958.372	20.722
960.036	21.0051
961.701	20.8623
963.364	20.6418
965.027	22.3954
966.69	22.8029
968.354	22.7923
970.016	22.0006
971.678	22.4512
973.339	21.8008
975	21.3071
976.661	20.6996
978.324	21.2929
979.984	21.5461
981.644	21.2168
983.303	21.4201
984.962	22.4729
986.621	22.7217
988.282	22.2162
989.94	22.0242
991.598	21.4433
993.256	22.7417
994.913	22.9463
996.57	23.4569
998.227	23.8989
999.884	23.7392
1001.54	23.5581
1003.2	23.2098
1004.85	23.7674
1006.51	22.8169
1008.16	23.8064
1009.82	24.1027
1011.47	25.7316
1013.12	26.9016
1014.78	25.7483
1016.43	26.6827
1018.08	27.5976
1019.74	27.2927
1021.39	27.409
1023.04	27.7621
1024.69	28.231
1026.34	29.2527
1028	30.3618
1029.65	32.3825
1031.3	32.4359
1032.95	33.8359
1034.6	34.1663
1036.25	32.5207
1037.9	31.9448
1039.55	31.5594
1041.19	32.0201
1042.84	32.4647
1044.49	32.0737
1046.14	31.6331
1047.79	31.8924
1049.43	30.6307
1051.08	29.5201
1052.73	27.4999
1054.37	28.0023
1056.02	26.1798
1057.66	24.9665
1059.31	23.5797
1060.95	23.8257
1062.6	23.1439
1064.24	22.0773
1065.88	21.2356
1067.53	20.6046
1069.17	19.5805
1070.81	18.815
1072.46	18.2471
1074.1	17.603
1075.74	16.9724
1077.38	14.388
1079.02	12.3751
1080.66	11.9197
1082.3	11.5736
1083.94	11.0654
1085.58	11.0754
1087.22	11.8437
1088.86	11.9151
1090.5	12.7922
1092.14	12.8259
1093.78	14.2082
1095.42	14.2639
1097.05	13.0205
1098.69	14.3904
1100.33	14.1616
1101.97	14.6995
1103.6	14.8587
1105.24	15.2416
1106.87	15.6396
1108.51	15.2184
1110.15	15.888
1111.78	15.6039
1113.41	14.1689
1115.05	14.2289
1116.68	13.1646
1118.31	12.5671
1119.95	12.8013
1121.58	13.0602
1123.21	11.8105
1124.85	11.3191
1126.48	11.5941
1128.11	10.6402
1129.74	10.093
1131.37	8.73268
1133	8.05918
1134.63	6.16341
1136.26	7.15524
1137.89	5.1973
1139.52	5.35425
1141.15	5.81425
1142.78	6.24786
1144.41	5.68137
1146.04	4.32599
1147.66	4.00966
1149.29	3.69043
1150.92	2.92139
1152.55	1.7764
1154.17	0.68799
1155.8	0.0809839
1157.43	-1.45262
1159.05	-1.76661
1160.68	-1.08449
1162.3	-0.316258
1163.93	0.127149
1165.55	0.604028
1167.17	1.00145
1168.8	1.40995
1170.42	1.7729
1172.05	2.33874
1173.67	3.11024
1175.29	3.38591
1176.91	2.96472
1178.54	3.04553
1180.16	2.89743
1181.78	2.91256
1183.4	3.03469
1185.02	3.01171
1186.64	2.4733
1188.26	2.95994
1189.88	2.54146
1191.5	3.44405
1193.12	2.91183
1194.74	2.37389
1196.36	3.6172
1197.97	3.67985
1199.59	4.50046
1201.21	4.70126
1202.83	5.55854
1204.44	5.38695
1206.06	6.61623
1207.68	7.23046
1209.29	8.72009
1210.91	9.42413
1212.52	10.9674
1214.14	12.5871
1215.75	13.0181
1217.37	15.6271
1218.98	17.0784
1220.6	18.8889
1222.21	19.5083
1223.82	21.0694
1225.44	22.5709
1227.05	24.2698
1228.66	26.9787
1230.27	28.4665
1231.88	30.1107
1233.49	31.5974
1235.1	33.747
1236.72	35.1828
1238.33	36.576
1239.94	38.1228
1241.55	40.2233
1243.16	42.1023
1244.76	43.5202
1246.37	45.3519
1247.98	46.6419
1249.59	48.2288
1251.2	49.6889
1252.8	51.7418
1254.41	53.1873
1256.02	53.7003
1257.63	55.1158
1259.23	56.7494
1260.84	58.6883
1262.44	60.9821
1264.05	62.2188
1265.66	64.0147
1267.26	65.9185
1268.87	68.5346
1270.47	70.8501
1272.07	72.6242
1273.68	74.8025
1275.28	74.9622
1276.88	77.0774
1278.48	78.1324
1280.09	79.0398
1281.69	80.0509
1283.29	80.9746
1284.89	81.9704
1286.49	83.8627
1288.09	84.5855
1289.69	86.0362
1291.3	86.1483
1292.9	86.569
1294.49	86.9018
1296.09	87.0037
1297.69	88.1593
1299.29	88.5918
1300.89	89.2034
1302.49	90.2725
1304.09	91.6903
1305.68	91.7157
1307.28	91.4921
1308.88	91.1157
1310.47	90.8738
1312.07	90.0013
1313.66	90.4524
1315.26	90.6226
1316.86	89.5486
1318.45	87.9662
1320.05	86.7522
1321.64	86.0494
1323.23	84.6483
1324.83	83.554
1326.42	83.2421
1328.01	82.0592
1329.61	81.5312
1331.2	80.203
1332.79	80.0543
1334.38	80.058
1335.98	78.7734
1337.57	78.6864
1339.16	78.7504
1340.75	78.5127
1342.34	77.4433
1343.93	76.2658
1345.52	75.4336
1347.11	74.0876
1348.7	72.8748
1350.29	71.1984
1351.87	69.3484
1353.46	68.9955
1355.05	66.8713
1356.64	66.2461
1358.23	63.4919
1359.81	61.9847
1361.4	61.2326
1362.99	59.2944
1364.57	58.3203
1366.16	57.3865
1367.74	56.6308
1369.33	56.4203
1370.91	54.87
1372.5	53.5846
1374.08	54.8409
1375.67	54.5709
1377.25	55.1291
1378.83	54.8997
1380.42	54.5837
1382	53.2978
1383.58	51.6198
1385.16	50.3625
1386.75	49.3978
1388.33	49.6792
1389.91	49.8721
1391.49	49.2124
1393.07	49.1368
1394.65	48.6287
1396.23	47.0438
1397.81	46.4532
1399.39	46.8114
1400.97	47.7255
1402.55	47.5295
1404.13	47.675
1405.7	48.1258
1407.28	49.0752
1408.86	50.007
1410.44	51.0844
1412.01	52.2354
1413.59	53.8762
1415.17	54.3484
1416.74	56.3148
1418.32	58.9078
1419.89	60.6519
1421.47	63.0392
1423.05	65.2061
1424.62	68.1641
1426.19	70.6815
1427.77	73.4524
1429.34	75.5604
1430.92	79.2419
1432.49	82.6604
1434.06	84.5628
1435.63	86.5803
1437.2	88.6651
1438.78	91.8724
1440.35	94.2049
1441.92	96.3234
1443.49	99.0864
1445.06	101.094
1446.63	102.433
1448.2	102.719
1449.77	102.489
1451.34	102.51
1452.91	102.735
1454.48	101.57
1456.05	101.458
1457.62	99.1986
1459.18	97.2274
1460.75	95.3867
1462.32	93.1196
1463.89	91.6838
1465.45	89.4999
1467.02	88.2129
1468.59	84.9174
1470.15	81.7087
1471.72	77.5697
1473.28	74.6952
1474.85	70.5692
1476.41	67.2027
1477.98	64.5096
1479.54	61.3742
1481.11	57.1317
1482.67	54.2964
1484.23	50.9838
1485.8	47.8434
1487.36	44.9158
1488.92	42.157
1490.48	38.6027
1492.05	37.3576
1493.61	34.9367
1495.17	33.7927
1496.73	32.712
1498.29	31.3419
1499.85	30.5407
1501.41	29.691
1502.97	29.2382
1504.53	29.1046
1506.09	28.4941
1507.65	28.6145
1509.2	30.0007
1510.76	29.4248
1512.32	28.5752
1513.88	29.1071
1515.44	28.5897
1516.99	30.1551
1518.55	31.148
1520.1	31.6749
1521.66	32.0015
1523.22	32.2821
1524.77	32.8712
1526.33	33.6385
1527.88	34.8111
1529.44	36.6311
1530.99	39.3937
1532.55	41.6183
1534.1	43.5761
1535.65	44.8452
1537.21	46.518
1538.76	48.5481
1540.31	50.6981
1541.86	53.3555
1543.42	57.0215
1544.97	60.16
1546.52	63.025
1548.07	65.5432
1549.62	68.4487
1551.17	71.9953
1552.72	74.6189
1554.27	77.1817
1555.82	80.1174
1557.37	81.8395
1558.92	83.7299
1560.47	85.5755
1562.02	87.0558
1563.57	88.7628
1565.11	90.8314
1566.66	93.4722
1568.21	94.7553
1569.75	97.0892
1571.3	98.7528
1572.85	100.516
1574.39	101.569
1575.94	103.492
1577.49	104.103
1579.03	104.565
1580.58	105.436
1582.12	105.329
1583.67	105.276
1585.21	105.322
1586.75	105.172
1588.3	103.707
1589.84	102.792
1591.38	102.77
1592.93	102.145
1594.47	102.701
1596.01	101.823
1597.55	101.478
1599.09	101.293
1600.63	100.23
1602.18	99.3215
1603.72	98.117
1605.26	97.5754
1606.8	97.3553
1608.34	97.2355
1609.87	95.2833
1611.41	95.7197
1612.95	95.9463
1614.49	96.019
1616.03	97.594
1617.57	98.9142
1619.11	99.2709
1620.64	100.403
1622.18	100.342
1623.72	100.644
1625.25	100.27
1626.79	101.211
1628.32	100.488
1629.86	100.978
1631.4	101.525
1632.93	102.11
1634.47	102.14
1636	102.791
1637.53	103.726
1639.07	105
1640.6	105.972
1642.14	107.242
1643.67	108.166
1645.2	107.826
1646.73	108.452
1648.27	109.111
1649.8	108.838
1651.33	108.592
1652.86	108.588
1654.39	107.263
1655.92	106.783
1657.45	106.313
1658.98	104.145
1660.51	102.516
1662.04	100.302
1663.57	99.5425
1665.1	97.5432
1666.63	95.6806
1668.16	94.2439
1669.69	91.6956
1671.21	89.7742
1672.74	87.2462
1674.27	84.8995
1675.79	81.6697
1677.32	78.0579
1678.85	74.7678
1680.37	71.5065
1681.9	69.1498
1683.42	66.047
1684.95	62.2475
1686.47	58.5163
1688	57.2591
1689.52	53.7347
1691.05	51.0016
1692.57	47.3137
1694.1	42.8142
1695.62	39.1328
1697.14	36.7875
1698.66	34.1216
1700.19	31.7483
1701.71	29.1987
1703.23	27.413
1704.75	25.384
1706.27	23.4863
1707.79	22.5077
1709.32	21.2511
1710.83	20.183
1712.35	19.8735
1713.88	18.4554
1715.39	17.6574
1716.91	16.5232
1718.43	15.8722
1719.95	14.9294
1721.47	14.1162
1722.99	13.7728
1724.5	13.7074
1726.02	12.9523
1727.54	12.5966
1729.06	11.6988
1730.57	10.8587
1732.09	10.5678
1733.61	9.63265
1735.12	9.43234
1736.64	9.71318
1738.15	10.5615
1739.67	10.7521
1741.18	9.87868
1742.7	9.86327
1744.21	9.83971
1745.72	9.79904
1747.24	10.1809
1748.75	10.0194
1750.26	9.69576
1751.78	8.61337
1753.29	7.5308
1754.8	7.08135
1756.31	6.57171
1757.82	6.36882
1759.34	5.44002
1760.85	4.73528
1762.36	4.71091
1763.87	4.796
1765.38	3.46718
1766.89	2.9205
1768.4	1.87496
1769.91	1.60065
1771.41	2.31722
1772.92	2.83337
1774.43	2.8386
1775.94	2.56643
1777.45	2.51267
1778.96	3.33377
1780.46	3.69156
1781.97	3.72322
1783.48	4.31488
1784.98	4.29426
1786.49	4.58684
1788	4.78284
1789.5	4.06294
1791.01	4.34075
1792.51	3.71603
1794.01	4.16668
1795.52	3.87988
1797.02	4.11101
1798.53	3.92537
1800.03	4.01693
1801.54	3.75256
1803.04	3.76199
1804.54	3.93234
1806.04	4.6435
1807.54	5.20368
1809.05	5.40618
1810.55	5.65393
1812.05	5.41431
1813.55	5.3138
1815.05	4.89837
1816.55	5.05757
1818.05	5.19934
1819.55	4.95154
1821.05	4.80241
1822.55	4.57792
1824.05	3.85039
1825.55	2.99565
1827.05	2.6835
1828.55	2.89916
1830.04	2.93023
1831.54	2.346
1833.04	2.15326
1834.54	1.51655
1836.03	1.34945
1837.53	0.91689
1839.03	1.18706
1840.52	0.775049
1842.02	0.64179
1843.51	0.305413
1845.01	0.119301
1846.5	0.412308
1848	0.182259
1849.49	-0.187079
1850.99	-0.661028
1852.48	0.0884398
1853.97	0.551153
1855.47	0.460343
1856.96	-0.0479694
1858.45	0.102328
1859.94	1.19335
1861.44	0.728605
1862.93	0.207817
1864.42	-0.128847
1865.91	0.144794
1867.4	0.685652
1868.89	1.08915
1870.38	1.39126
1871.87	1.2502
1873.36	1.73343
1874.85	2.35485
1876.34	3.17235
1877.83	3.24262
1879.32	3.47198
1880.81	3.54137
1882.3	3.66959
1882.56	3.3882
1884.06	3.38569
1885.55	3.49461
1887.04	3.61702
1888.54	3.87132
1890.03	4.22799
1891.52	3.6809
1893.02	3.54935
1894.51	3.49091
1896	3.37676
1897.49	2.93831
1898.99	3.6392
1900.48	3.76776
1901.97	4.40558
1903.46	4.95172
1904.95	4.91707
1906.44	5.18724
1907.93	5.46242
1909.42	5.9624
1910.91	6.50557
1912.4	6.82693
1913.89	6.73871
1915.38	6.73053
1916.86	7.04407
1918.35	7.95273
1919.84	8.47439
1921.33	8.91633
1922.82	9.8275
1924.3	10.6066
1925.79	11.7529
1927.28	12.1241
1928.76	12.4748
1930.25	12.1415
1931.74	11.933
1933.22	11.7038
1934.71	10.5007
1936.19	10.6372
1937.67	10.8258
1939.16	10.6776
1940.64	10.8048
1942.13	9.94436
1943.61	9.93702
1945.09	9.60886
1946.58	9.77162
1948.06	9.11589
1949.54	8.72104
1951.03	8.04847
1952.51	7.67732
1953.99	7.31994
1955.47	6.70705
1956.95	6.62018
1958.43	6.80602
1959.91	6.5308
1961.39	6.19616
1962.87	5.97021
1964.35	6.08591
1965.83	6.43842
1967.31	6.57746
1968.79	6.84745
1970.27	7.6603
1971.75	8.06623
1973.22	8.25625
1974.7	8.20999
1976.18	8.92815
1977.66	9.25432
1979.13	8.84397
1980.61	9.03182
1982.09	8.77245
1983.56	9.25316
1985.04	9.30465
1986.52	8.92414
1987.99	8.90508
1989.47	9.07356
1990.94	9.58075
1992.41	10.0101
1993.89	9.59851
1995.36	9.57803
1996.84	9.85774
1998.31	9.72228
1999.78	8.75212
2001.26	8.80857
2002.73	8.25386
2004.2	6.83127
2005.67	5.85434
2007.15	5.60096
2008.62	5.2903
2010.09	5.44457
2011.56	4.96302
2013.03	4.75553
2014.5	4.46117
2015.97	4.35217
2017.44	4.0034
2018.91	4.27488
2020.38	4.17329
2021.85	4.05539
2023.32	3.78092
2024.79	4.85937
2026.25	4.34402
2027.72	4.75459
2029.19	4.96433
2030.66	5.72249
2032.13	5.95626
2033.59	5.92692
2035.06	6.19529
2036.53	6.46488
2037.99	8.12811
2039.46	7.9719
2040.92	7.79122
2042.39	8.29165
2043.85	8.76689
2045.32	8.97709
2046.78	9.30922
2048.25	10.5868
2049.71	11.4119
2051.18	11.9936
2052.64	12.2051
2054.1	12.3329
2055.56	12.6599
2057.03	13.2262
2058.49	13.2726
2059.95	14.1223
2061.42	15.0528
2062.88	16.3168
2064.34	17.247
2065.8	17.9441
2067.26	19.3124
2068.72	21.1003
2070.18	23.2009
2071.64	23.5747
2073.1	23.7189
2074.56	25.1379
2076.02	25.1489
2077.48	26.4258
2078.94	27.7465
2080.39	29.6914
2081.85	30.915
2083.31	31.559
2084.77	32.8607
2086.22	34.4033
2087.68	35.5314
2089.14	36.9864
2090.6	37.9578
2092.05	39.5981
2093.51	40.8834
2094.96	41.9787
2096.42	43.1722
2097.87	44.8254
2099.33	45.4428
2100.78	47.4673
2102.24	49.3615
2103.69	50.9624
2105.15	53.1983
2106.6	54.7947
2108.05	56.826
2109.51	58.4991
2110.96	60.8915
2112.41	62.0315
2113.86	64.1064
2115.32	65.6657
2116.77	67.6013
2118.22	69.4118
2119.67	71.2153
2121.12	72.7787
2122.57	74.2452
2124.02	76.3676
2125.47	78.263
2126.92	80.2311
2128.37	82.4898
2129.82	85.2532
2131.27	87.6736
2132.72	90.4905
