#Acq. time (s)=	45
#Accumulations=	2
#Range (cm-¹)=	200...3150
#Windows=	2
#Auto scanning=	Off
#Autofocus=	Off
#Macrospot=	Off
#AutoExposure=	Off
#Spike filter=	Multiple accum.
#Delay time (s)=	0
#Binning=	1
#Readout mode=	Signal
#DeNoise=	Off
#ICS correction=	On
#Dark correction=	Off
#Inst. Process=	Off
#Detector Gain=	Best Dynamic Range
#Detector ADC=	20 kHz       
#Detector temperature (°C)=	-69.85
#Instrument=	LabRAM HR Evol
#Detector=	Synapse
#Objective=	x100
#Grating=	600 gr/mm
#ND Filter=	100%
#Laser (nm)=	532 
#Hole=	100.021
#Range=	Auto
#Laser Pol.=	No
#Raman. Pol.=	No
#Laser Pol. (°)=	-0.0007625
#Raman Pol. (°)=	89.9995
#Collection=	Microscope
#StageXY=	Marzhauser
#StageZ=	Marzhauser
#X (µm)=	229.8
#Y (µm)=	1674
#Z (µm)=	427.35
#Full time(mm:ss)=	3:18
#Project=	
#Sample=	
#Site=	
#Title=	Thy_40_11_36_2x_45s_532 nm_x100_100%_600 gr_mm
#Remark=	
#Date=	05.07.2022 12:34
#Acquired=	05.07.2022 12:34:19
#Base:Fit=	10.08.2022 10:01:35
#Base:Sub=	10.08.2022 10:01:52
#Filter:Polynom=	16.08.2022 10:21:53
#AxisType[0]=Intens
#AxisUnit[0]=Cnt
#AxisType[1]=Spectr
#AxisUnit[1]=1/cm
200.43	52.5552
202.244	53.641
204.059	51.1796
205.873	48.5421
207.688	45.6854
209.501	42.3379
211.314	39.4015
213.127	36.9228
214.941	33.8537
216.753	32.2351
218.564	30.8633
220.375	28.5211
222.186	27.212
223.999	24.5629
225.809	22.8383
227.618	21.2757
229.428	20.183
231.236	19.1611
233.045	18.9904
234.855	18.1507
236.663	17.9668
238.471	18.0621
240.278	18.4583
242.085	17.7323
243.891	17.5928
245.698	18.1359
247.503	17.8868
249.309	18.3918
251.116	19.2917
252.921	19.0387
254.725	19.5432
256.529	20.3204
258.333	21.0062
260.136	21.6015
261.939	22.9819
263.742	22.9031
265.544	23.3006
267.346	23.6894
269.148	23.5135
270.949	24.4606
272.75	25.5301
274.55	26.1354
276.351	26.0582
278.15	26.4492
279.95	27.556
281.749	26.6294
283.548	26.6518
285.346	26.1702
287.144	25.5992
288.942	24.745
290.739	23.2975
292.536	22.5883
294.333	22.1708
296.129	21.3129
297.925	20.7751
299.721	21.1244
301.514	21.7609
303.309	20.8667
305.104	20.7691
306.898	20.8165
308.692	20.5937
310.486	19.2384
312.279	19.5348
314.072	18.6475
315.862	18.9378
317.654	18.6691
319.446	18.289
321.238	18.3936
323.029	18.0024
324.819	18.133
326.608	18.9913
328.398	18.812
330.188	18.6569
331.977	17.8944
333.766	19.1491
335.553	19.3417
337.341	18.1417
339.129	18.897
340.917	19.2632
342.704	19.4754
344.489	19.217
346.275	18.7434
348.062	18.793
349.845	18.6195
351.631	19.0645
353.416	18.1199
355.201	17.441
356.984	18.2076
358.768	18.1406
360.552	18.0955
362.333	17.9637
364.116	17.7025
365.899	17.9221
367.68	17.6945
369.462	17.6285
371.243	18.1397
373.023	18.0315
374.804	17.4776
376.585	17.216
378.363	17.1786
380.143	16.3098
381.923	16.7423
383.7	16.1361
385.479	15.878
387.256	15.9243
389.034	15.0367
390.812	14.5342
392.588	13.8983
394.365	13.8523
396.14	13.0815
397.916	12.8393
399.691	12.0001
401.467	11.5705
403.24	10.1808
405.015	9.65978
406.788	9.6503
408.563	9.24704
410.335	9.18936
412.109	9.0262
413.88	9.04894
415.654	7.69672
417.424	6.71497
419.197	6.34169
420.967	5.84252
422.739	6.45292
424.508	5.69257
426.279	4.73143
428.048	4.98809
429.819	4.35405
431.587	4.03661
433.356	3.02518
435.124	3.15556
436.891	4.04232
438.66	4.61122
440.426	5.10646
442.194	5.17735
443.96	4.9769
445.725	5.39966
447.492	5.66157
449.257	6.26538
451.021	6.84902
452.787	6.76679
454.551	6.90201
456.314	7.55123
458.079	8.12538
459.842	8.63795
461.604	8.66928
463.368	8.92551
465.13	9.50034
466.891	9.88408
468.654	9.39955
470.415	9.84059
472.175	9.46251
473.935	10.0685
475.696	10.6744
477.456	10.2793
479.215	10.8551
480.973	11.8173
482.733	12.7401
484.491	14.3427
486.249	14.5543
488.006	14.766
489.765	15.1131
491.522	16.3957
493.278	17.4888
495.034	18.797
496.789	18.8098
498.544	19.5468
500.301	20.4502
502.056	20.9297
503.81	21.3399
505.564	22.2041
507.317	22.4135
509.071	22.8629
510.825	22.4872
512.578	21.5205
514.33	21.0143
516.082	21.5183
517.833	20.6793
519.585	21.0292
521.335	20.2159
523.086	20.1052
524.836	20.6709
526.586	20.8878
528.335	19.8343
530.085	18.5232
531.835	16.784
533.584	16.2406
535.332	16.0061
537.08	15.265
538.827	13.5025
540.574	12.6345
542.321	11.6631
544.068	11.4183
545.814	10.7865
547.56	10.4052
549.305	10.1252
551.05	10.0276
552.795	9.57675
554.54	9.27497
556.282	8.54383
558.025	7.62499
559.769	7.01337
561.512	6.98695
563.255	6.50106
564.997	7.10068
566.739	7.91962
568.481	8.70611
570.223	8.35018
571.964	7.92234
573.705	6.5426
575.443	6.2333
577.183	7.134
578.923	7.60616
580.663	7.72656
582.402	7.95837
584.141	6.89949
585.879	6.94063
587.615	7.03163
589.353	7.22737
591.09	6.5497
592.828	6.62
594.564	6.71398
596.299	5.9944
598.035	5.50782
599.771	5.24077
601.506	5.93363
603.242	6.317
604.974	6.26658
606.709	8.38413
608.443	8.60908
610.177	9.09752
611.908	8.81705
613.642	8.5075
615.374	7.97198
617.105	8.56221
618.837	8.55354
620.569	9.2039
622.3	9.72545
624.03	10.1546
625.761	10.3762
627.491	11.4378
629.219	12.4313
630.949	14.2025
632.677	14.7422
634.406	15.7047
636.135	17.0576
637.861	17.4808
639.59	16.7286
641.318	17.0725
643.043	16.8991
644.77	17.0539
646.495	17.701
648.222	18.7727
649.948	19.973
651.672	19.9535
653.398	19.2791
655.121	18.6864
656.846	18.1731
658.569	18.7396
660.293	18.5069
662.015	18.6865
663.738	19.334
665.46	19.4892
667.183	19.2344
668.903	18.6211
670.626	18.4556
672.346	19.8636
674.067	21.0127
675.787	21.4215
677.508	21.8708
679.226	22.678
680.947	23.2803
682.665	23.9106
684.385	24.7869
686.102	25.2233
687.821	26.7753
689.538	27.9367
691.254	29.1332
692.972	30.3262
694.688	29.8111
696.406	30.0328
698.121	30.7752
699.835	32.4581
701.552	33.6397
703.266	34.0179
704.98	35.1357
706.695	36.0013
708.409	37.6074
710.121	38.8812
711.836	40.255
713.548	41.9783
715.26	42.5978
716.973	43.7975
718.685	43.1483
720.396	44.3645
722.108	44.2954
723.818	43.8802
725.528	44.6453
727.238	45.475
728.949	46.4354
730.658	47.3562
732.367	48.5547
734.075	49.361
735.785	49.3835
737.493	49.2508
739.2	49.8806
740.907	50.1681
742.614	50.9847
744.322	51.5271
746.028	51.5236
747.734	52.4535
749.439	53.1675
751.144	53.8808
752.849	54.0482
754.555	55.0124
756.26	56.0531
757.963	56.9534
759.667	57.8108
761.37	58.1014
763.073	59.8189
764.775	60.4765
766.477	61.0774
768.179	62.1037
769.883	62.4939
771.584	63.2586
773.285	64.9388
774.986	66.2461
776.686	67.4261
778.386	67.893
780.085	69.3242
781.785	70.4875
783.484	71.5694
785.182	72.283
786.881	72.8361
788.579	73.4231
790.276	75.746
791.974	76.7971
793.671	78.3677
795.367	79.0982
797.064	80.7858
798.76	80.8766
800.456	80.63
802.151	82.7048
803.846	83.7882
805.541	85.6008
807.234	85.9081
808.928	86.267
810.622	86.8456
812.315	86.7532
814.008	86.0907
815.701	86.1597
817.394	85.8304
819.086	85.0856
820.778	84.6264
822.468	83.987
824.159	83.3882
825.85	82.9918
827.541	82.3139
829.231	81.2146
830.921	80.5929
832.609	79.8137
834.298	78.271
835.987	77.141
837.676	76.1812
839.364	75.7247
841.051	74.059
842.738	73.1255
844.426	72.4041
846.113	70.58
847.798	69.707
849.484	68.3126
851.171	67.1909
852.857	66.9076
854.54	65.874
856.226	64.767
857.911	62.9692
859.593	61.8908
861.278	61.304
862.961	60.0932
864.645	58.6835
866.327	56.1498
868.01	55.1166
869.692	53.8092
871.373	53.3409
873.055	53.1097
874.735	52.9255
876.416	51.8129
878.097	51.4444
879.776	51.6218
881.457	51.4545
883.135	50.6069
884.815	49.7
886.495	50.8729
888.172	49.3262
889.851	48.1488
891.528	46.0142
893.206	44.9299
894.882	44.2782
896.56	43.4481
898.237	43.3751
899.912	43.6252
901.589	42.7541
903.263	41.7633
904.94	41.319
906.614	40.1338
908.289	40.2151
909.962	40.5043
911.635	40.2774
913.31	40.8387
914.982	41.305
916.656	41.8719
918.328	41.8405
920.001	42.5316
921.672	42.8076
923.345	43.048
925.015	43.2413
926.685	43.5407
928.357	43.6461
930.026	43.7814
931.698	44.5087
933.366	45.0189
935.035	44.4269
936.705	44.9132
938.373	44.5008
940.041	43.7794
941.71	42.9784
943.377	42.5505
945.044	40.9597
946.712	39.3627
948.378	38.3676
950.044	38.0929
951.709	38.6937
953.376	38.4535
955.041	38.3588
956.706	37.3457
958.372	36.8476
960.036	36.0092
961.699	35.1
963.362	33.8231
965.027	32.6296
966.69	31.6304
968.352	29.6972
970.014	29.8034
971.676	27.9309
973.339	26.7071
975	24.9561
976.661	24.819
978.322	24.7876
979.982	24.4778
981.642	23.589
983.303	22.8355
984.962	21.9531
986.621	21.0415
988.28	20.8164
989.938	21.1084
991.596	21.2609
993.254	22.5059
994.911	22.3483
996.57	22.2513
998.227	22.0603
999.884	22.0189
1001.54	20.8409
1003.2	20.9415
1004.85	21.4005
1006.51	21.9562
1008.16	21.7406
1009.82	21.1262
1011.47	21.0935
1013.12	20.4502
1014.78	20.9229
1016.43	21.1759
1018.08	21.9425
1019.74	22.6528
1021.39	21.6331
1023.04	20.8231
1024.69	20.3087
1026.34	19.9549
1028	20.3022
1029.65	21.9116
1031.3	22.1688
1032.95	22.1866
1034.6	22.8265
1036.25	21.8628
1037.9	21.2723
1039.54	20.4409
1041.19	20.536
1042.84	19.5207
1044.49	19.7613
1046.14	19.7434
1047.78	19.2746
1049.43	19.2751
1051.08	18.7956
1052.72	18.8855
1054.37	19.2496
1056.02	18.902
1057.66	19.2084
1059.31	20.2697
1060.95	20.9956
1062.6	20.1632
1064.24	19.1652
1065.88	19.5308
1067.53	18.8939
1069.17	18.8515
1070.81	18.7811
1072.45	19.3655
1074.1	19.2611
1075.74	19.6253
1077.38	18.474
1079.02	17.9547
1080.66	17.3638
1082.3	17.5936
1083.94	16.6748
1085.58	16.8799
1087.22	16.6064
1088.86	16.2495
1090.5	15.113
1092.14	15.5782
1093.78	15.5206
1095.42	16.5001
1097.05	17.8058
1098.69	17.511
1100.33	16.9063
1101.96	15.2415
1103.6	15.1308
1105.24	15.6249
1106.87	15.1399
1108.51	14.5612
1110.14	15.125
1111.78	15.1182
1113.41	13.7651
1115.05	13.0066
1116.68	12.7863
1118.31	11.3971
1119.95	11.8196
1121.58	11.8321
1123.21	11.3377
1124.85	10.9478
1126.48	11.3319
1128.11	9.94844
1129.74	9.49594
1131.37	9.62514
1133	9.03562
1134.63	8.66415
1136.26	9.36451
1137.89	8.76402
1139.52	9.43777
1141.15	9.35752
1142.78	8.48174
1144.41	7.22299
1146.04	6.62952
1147.66	6.48837
1149.29	5.66588
1150.92	5.84157
1152.55	6.02956
1154.17	6.31739
1155.8	5.85518
1157.43	5.17992
1159.05	4.09545
1160.68	3.30479
1162.3	2.87708
1163.93	2.86285
1165.55	1.7848
1167.17	2.33757
1168.8	2.32622
1170.42	2.93807
1172.05	2.01613
1173.67	2.66159
1175.29	3.03945
1176.91	3.46904
1178.54	2.59226
1180.16	2.30903
1181.78	1.21249
1183.4	2.06971
1185.02	2.87108
1186.64	2.25321
1188.26	1.82408
1189.88	2.04121
1191.5	2.59197
1193.12	1.8785
1194.74	1.83435
1196.36	1.97013
1197.97	2.86208
1199.59	2.46383
1201.21	3.39262
1202.83	3.57546
1204.44	4.25695
1206.06	5.60851
1207.68	5.8582
1209.29	6.03343
1210.91	7.40672
1212.52	8.99764
1214.14	10.558
1215.75	12.5861
1217.37	13.9632
1218.98	14.8519
1220.59	15.8939
1222.21	16.5635
1223.82	17.897
1225.43	19.2909
1227.05	20.6826
1228.66	21.7491
1230.27	22.9076
1231.88	24.5569
1233.49	26.2173
1235.1	26.7903
1236.72	27.1398
1238.33	28.486
1239.94	29.2023
1241.55	31.1118
1243.16	32.8004
1244.76	33.5925
1246.37	34.8418
1247.98	35.7607
1249.59	35.9417
1251.2	36.8585
1252.8	38.0294
1254.41	38.9655
1256.02	39.2447
1257.62	39.0272
1259.23	39.5517
1260.84	39.8887
1262.44	39.47
1264.05	40.1327
1265.66	39.8199
1267.26	39.496
1268.86	39.8242
1270.47	39.7559
1272.07	40.6537
1273.67	41.0917
1275.28	41.3571
1276.88	41.8806
1278.48	42.3236
1280.09	42.3042
1281.69	44.2873
1283.29	44.4952
1284.89	45.4778
1286.49	46.3052
1288.09	46.2752
1289.69	46.61
1291.29	47.5159
1292.89	48.1755
1294.49	48.1595
1296.09	48.1479
1297.69	47.5056
1299.29	47.9937
1300.89	48.7537
1302.49	49.1879
1304.08	49.6385
1305.68	48.4591
1307.28	48.4381
1308.88	48.9237
1310.47	49.4015
1312.07	49.9051
1313.66	50.2464
1315.26	49.7111
1316.85	50.5674
1318.45	51.1525
1320.04	50.6891
1321.64	50.9146
1323.23	50.399
1324.83	49.699
1326.42	49.6752
1328.01	49.7132
1329.61	49.7317
1331.2	49.4348
1332.79	49.1154
1334.38	47.4236
1335.97	47.5949
1337.56	46.7427
1339.16	46.4842
1340.75	45.9473
1342.34	45.2579
1343.93	44.3316
1345.52	43.5024
1347.11	42.4391
1348.7	42.3145
1350.29	41.2954
1351.87	40.9296
1353.46	40.0279
1355.05	39.2572
1356.64	38.9212
1358.22	38.298
1359.81	37.6982
1361.4	37.2755
1362.98	35.5015
1364.57	35.4662
1366.16	35.1655
1367.74	33.8713
1369.33	32.5281
1370.91	32.6144
1372.5	31.5219
1374.08	30.5982
1375.67	30.254
1377.25	29.6515
1378.83	29.0528
1380.41	28.2616
1382	27.1017
1383.58	26.224
1385.16	25.7174
1386.74	26.2159
1388.33	26.0016
1389.91	24.9388
1391.49	24.5235
1393.07	24.5274
1394.65	24.8467
1396.23	24.8552
1397.81	23.6967
1399.39	23.5828
1400.97	23.359
1402.55	23.0873
1404.13	23.301
1405.7	23.2603
1407.28	24.4797
1408.86	24.2286
1410.44	24.5685
1412.01	24.9492
1413.59	24.7489
1415.17	25.6848
1416.74	25.5848
1418.32	26.9338
1419.89	27.0928
1421.47	27.1322
1423.04	28.1717
1424.62	29.4696
1426.19	32.0595
1427.77	34.5624
1429.34	36.1336
1430.91	38.4995
1432.49	40.3165
1434.06	42.6847
1435.63	43.8101
1437.2	44.9159
1438.78	46.4224
1440.35	47.7567
1441.92	49.4979
1443.49	51.3
1445.06	52.713
1446.63	53.6154
1448.2	54.3759
1449.77	55.5221
1451.34	55.8424
1452.91	56.5369
1454.48	56.3372
1456.05	55.6281
1457.62	55.0075
1459.18	54.7317
1460.75	53.7551
1462.32	52.7467
1463.89	51.8097
1465.45	49.9848
1467.02	48.5583
1468.59	47.153
1470.15	46.0132
1471.72	44.1766
1473.28	42.4011
1474.85	39.9685
1476.41	37.2637
1477.98	35.2761
1479.54	32.7092
1481.1	29.8397
1482.67	27.4494
1484.23	24.9771
1485.79	22.5562
1487.36	19.8313
1488.92	18.8213
1490.48	16.8901
1492.04	15.0173
1493.61	14.1826
1495.17	13.9538
1496.73	12.4791
1498.29	11.0708
1499.85	11.221
1501.41	11.1569
1502.97	11.2801
1504.53	11.881
1506.09	11.2436
1507.65	10.74
1509.2	10.4617
1510.76	10.2805
1512.32	10.7861
1513.88	10.0903
1515.43	10.6268
1516.99	11.2749
1518.55	11.7718
1520.1	12.4644
1521.66	13.2996
1523.22	14.0121
1524.77	14.9878
1526.33	15.9119
1527.88	16.8766
1529.44	18.7593
1530.99	19.5958
1532.54	20.0981
1534.1	20.8439
1535.65	21.4333
1537.21	22.9798
1538.76	23.9742
1540.31	25.206
1541.86	26.1027
1543.42	27.7694
1544.97	29.4025
1546.52	30.755
1548.07	31.2952
1549.62	32.8043
1551.17	34.1232
1552.72	34.419
1554.27	35.4508
1555.82	36.3875
1557.37	37.3545
1558.92	38.4561
1560.47	40.4777
1562.02	41.2696
1563.56	42.0533
1565.11	44.444
1566.66	45.9098
1568.21	45.9958
1569.75	46.6071
1571.3	48.0949
1572.85	48.4124
1574.39	48.5918
1575.94	49.6607
1577.49	50.9045
1579.03	51.6888
1580.57	52.4908
1582.12	52.9965
1583.66	52.9388
1585.21	53.3928
1586.75	53.858
1588.3	53.904
1589.84	53.6163
1591.38	53.2434
1592.92	52.7086
1594.47	53.2276
1596.01	53.499
1597.55	53.4404
1599.09	54.1778
1600.63	53.8489
1602.17	54.1251
1603.71	53.7719
1605.25	53.5416
1606.79	53.1104
1608.33	51.7474
1609.87	50.915
1611.41	50.1955
1612.95	49.5764
1614.49	50.0443
1616.03	49.7036
1617.57	49.8404
1619.1	49.7867
1620.64	50.2645
1622.18	49.4929
1623.72	49.3601
1625.25	49.5891
1626.79	50.5483
1628.32	50.7142
1629.86	50.7612
1631.39	51.2546
1632.93	50.9379
1634.46	52.2974
1636	52.29
1637.53	52.7522
1639.07	52.2786
1640.6	52.7875
1642.13	54.1534
1643.67	54.1914
1645.2	54.4159
1646.73	55.2264
1648.26	55.8332
1649.8	57.1039
1651.33	58.8456
1652.86	58.6755
1654.39	59.1487
1655.92	59.4873
1657.45	59.3675
1658.98	58.9505
1660.51	59.0901
1662.04	59.0086
1663.57	58.8168
1665.1	58.0855
1666.63	57.2947
1668.16	56.7553
1669.68	55.906
1671.21	55.3359
1672.74	53.8479
1674.27	52.2022
1675.79	50.9868
1677.32	48.3071
1678.85	46.1691
1680.37	43.74
1681.9	42.1852
1683.42	40.3617
1684.95	38.8734
1686.47	37.0702
1688	35.3567
1689.52	33.7386
1691.05	32.8343
1692.57	31.5977
1694.09	30.0044
1695.62	28.1535
1697.14	26.4731
1698.66	23.8557
1700.18	22.7924
1701.71	21.7043
1703.23	21.0221
1704.75	19.7555
1706.27	18.3104
1707.79	17.0507
1709.31	16.6344
1710.83	16.1267
1712.35	14.6527
1713.87	13.7244
1715.39	13.1763
1716.91	13.0922
1718.43	12.9865
1719.95	12.4982
1721.47	12.4299
1722.99	12.5617
1724.5	12.6108
1726.02	12.9876
1727.54	12.2858
1729.06	11.514
1730.57	11.9311
1732.09	11.952
1733.61	11.6253
1735.12	11.3168
1736.64	11.775
1738.15	11.6097
1739.67	11.4478
1741.18	11.0981
1742.7	10.9526
1744.21	10.8641
1745.72	10.6605
1747.24	9.78938
1748.75	8.85103
1750.26	8.18197
1751.77	7.64473
1753.29	7.21884
1754.8	7.30898
1756.31	7.67464
1757.82	8.219
1759.33	8.40059
1760.84	8.59142
1762.36	8.56187
1763.87	8.94294
1765.38	9.087
1766.89	9.06981
1768.4	8.38516
1769.91	7.57759
1771.41	6.96313
1772.92	6.35936
1774.43	5.56309
1775.94	5.96219
1777.45	5.7732
1778.95	5.20119
1780.46	4.64308
1781.97	4.42866
1783.48	3.71671
1784.98	4.21156
1786.49	3.70241
1787.99	3.48936
1789.5	3.31215
1791.01	3.86563
1792.51	3.51646
1794.01	3.98981
1795.52	4.69196
1797.02	4.55616
1798.53	4.77866
1800.03	4.59746
1801.53	5.15663
1803.04	5.18207
1804.54	5.32397
1806.04	5.99822
1807.54	6.33665
1809.05	5.94334
1810.55	6.52271
1812.05	6.82685
1813.55	7.39442
1815.05	7.59049
1816.55	7.99169
1818.05	8.07466
1819.55	7.93438
1821.05	7.9505
1822.55	7.98952
1824.05	8.41762
1825.55	9.28623
1827.05	10.0016
1828.55	10.8377
1830.04	11.5136
1831.54	11.9784
1833.04	12.1464
1834.54	12.2339
1836.03	12.3671
1837.53	12.3731
1839.03	12.1373
1840.52	11.5045
1842.02	11.3134
1843.51	11.2986
1845.01	11.2047
1846.5	10.942
1848	10.8329
1849.49	10.5536
1850.99	10.7602
1852.48	10.7532
1853.97	10.678
1855.47	10.8024
1856.96	11.2368
1858.45	10.9857
1859.94	12.1133
1861.44	12.1715
1862.93	12.4387
1864.42	12.5819
1865.91	13.1842
1867.4	13.5363
1868.89	13.9699
1870.38	13.7814
1871.87	13.2699
1873.36	14.2376
1874.85	14.2359
1876.34	14.7573
1877.83	14.4015
1879.32	14.8019
1880.81	14.6962
1882.3	14.7465
1882.57	14.5144
1884.07	14.8929
1885.56	15.4837
1887.06	16.0766
1888.55	16.0824
1890.04	15.6353
1891.54	15.4993
1893.03	15.763
1894.52	16.1997
1896.02	16.5329
1897.51	16.5662
1899	16.1838
1900.49	16.1003
1901.98	15.5892
1903.47	15.8074
1904.96	15.3044
1906.45	14.8174
1907.94	15.0081
1909.43	14.8233
1910.92	14.9844
1912.41	15.1018
1913.9	14.9203
1915.39	14.9271
1916.88	14.7156
1918.37	14.416
1919.85	13.775
1921.34	13.5202
1922.83	13.6497
1924.32	13.4558
1925.8	13.3756
1927.29	13.1669
1928.78	13.0261
1930.26	12.9564
1931.75	12.3278
1933.23	12.6092
1934.72	11.6351
1936.2	10.798
1937.69	10.2981
1939.17	10.2377
1940.66	10.3963
1942.14	10.6883
1943.63	10.4576
1945.11	10.5818
1946.59	10.7406
1948.07	10.0625
1949.56	10.5348
1951.04	10.5816
1952.52	10.8158
1954	10.9514
1955.48	11.8319
1956.96	11.879
1958.45	11.9976
1959.93	12.1289
1961.41	11.6029
1962.89	11.1198
1964.37	11.0811
1965.85	11.9028
1967.32	12.2831
1968.8	12.5505
1970.28	12.6629
1971.76	12.5994
1973.24	12.7916
1974.72	13.4783
1976.19	13.6162
1977.67	14.1934
1979.15	14.0176
1980.63	14.304
1982.1	14.7236
1983.58	14.5722
1985.05	14.5222
1986.53	14.2598
1988	13.9555
1989.48	14.0389
1990.95	13.8454
1992.43	13.1367
1993.9	12.1415
1995.38	12.0514
1996.85	11.8343
1998.32	11.3672
1999.8	10.8986
2001.27	10.3659
2002.74	10.4883
2004.22	10.2324
2005.69	10.0596
2007.16	9.83908
2008.63	9.24259
2010.1	9.5413
2011.57	9.80941
2013.04	10.4268
2014.51	11.0249
2015.98	10.9107
2017.45	10.7445
2018.92	11.4818
2020.39	11.7099
2021.86	12.0722
2023.33	12.1706
2024.8	12.1715
2026.27	12.4991
2027.74	12.5639
2029.2	12.6248
2030.67	12.8287
2032.14	13.4687
2033.61	13.6521
2035.07	14.1729
2036.54	14.2125
2038.01	14.7989
2039.47	15.0211
2040.94	15.2941
2042.4	16.0171
2043.87	16.723
2045.33	16.651
2046.8	17.025
2048.26	17.2313
2049.72	16.9014
2051.19	16.4977
2052.65	16.7973
2054.12	16.3502
2055.58	16.4846
2057.04	16.3888
2058.5	16.4418
2059.97	16.4564
2061.43	16.6944
2062.89	16.444
2064.35	16.4547
2065.81	16.6909
2067.27	17.0994
2068.73	17.8787
2070.19	18.0788
2071.65	18.2663
2073.11	17.5578
2074.57	17.4519
2076.03	17.8209
2077.49	18.0338
2078.95	17.8285
2080.41	18.3663
2081.87	18.2051
2083.32	18.8223
2084.78	18.9338
2086.24	19.1815
2087.7	19.5114
2089.15	19.5881
2090.61	20.3689
2092.07	20.7556
2093.52	20.6516
2094.98	20.58
2096.43	20.8392
2097.89	21.7298
2099.34	21.9972
2100.8	22.2375
2102.25	22.7642
2103.71	23.3937
2105.16	23.3473
2106.61	23.1355
2108.07	23.2076
2109.52	23.4826
2110.97	24.3283
2112.43	24.5555
2113.88	25.4696
2115.33	25.9129
2116.78	25.9937
2118.23	26.3449
2119.68	27.4993
2121.13	28.4916
2122.59	29.3439
2124.04	30.024
2125.49	31.5125
2126.94	32.504
2128.39	33.66
2129.83	35.0167
2131.28	35.7441
2132.73	37.2023
2134.18	38.4027
2135.63	39.5201
2137.08	41.4818
