#Acq. time (s)=	45
#Accumulations=	2
#Range (cm-¹)=	200...3150
#Windows=	2
#Auto scanning=	Off
#Autofocus=	Off
#Macrospot=	Off
#AutoExposure=	Off
#Spike filter=	Multiple accum.
#Delay time (s)=	0
#Binning=	1
#Readout mode=	Signal
#DeNoise=	Off
#ICS correction=	On
#Dark correction=	Off
#Inst. Process=	Off
#Detector Gain=	Best Dynamic Range
#Detector ADC=	20 kHz       
#Detector temperature (°C)=	-69.85
#Instrument=	LabRAM HR Evol
#Detector=	Synapse
#Objective=	x100
#Grating=	600 gr/mm
#ND Filter=	100%
#Laser (nm)=	532 
#Hole=	100.021
#Range=	Auto
#Laser Pol.=	No
#Raman. Pol.=	No
#Laser Pol. (°)=	-0.0007625
#Raman Pol. (°)=	89.9995
#Collection=	Microscope
#StageXY=	Marzhauser
#StageZ=	Marzhauser
#X (µm)=	-5112.1
#Y (µm)=	1511.6
#Z (µm)=	62.85
#Full time(mm:ss)=	3:18
#Project=	
#Sample=	
#Site=	
#Title=	Thy_50_12_12_2x_45s_532 nm_x100_100%_600 gr_mm
#Remark=	
#Date=	07.07.2022 10:06
#Acquired=	07.07.2022 10:06:19
#Base:Fit=	10.08.2022 10:04:29
#Base:Sub=	10.08.2022 10:04:45
#Filter:Polynom=	16.08.2022 10:20:24
#AxisType[0]=Intens
#AxisUnit[0]=Cnt
#AxisType[1]=Spectr
#AxisUnit[1]=1/cm
200.43	43.2017
202.246	40.7016
204.061	38.9642
205.875	37.0634
207.688	35.0544
209.501	33.4293
211.316	31.9449
213.129	30.9368
214.941	28.9526
216.753	27.8533
218.566	27.4931
220.377	26.8073
222.188	25.9449
223.999	25.6112
225.809	24.7038
227.618	25.1283
229.43	23.2665
231.239	23.2427
233.047	20.5127
234.855	19.8453
236.663	19.3411
238.471	18.0213
240.278	16.5481
242.087	15.7809
243.894	14.7661
245.7	14.4054
247.506	14.5248
249.311	14.3766
251.116	13.3707
252.921	13.312
254.725	11.4207
256.529	10.9792
258.333	9.63498
260.136	9.30589
261.939	9.42447
263.744	9.45313
265.546	8.87016
267.348	8.68659
269.15	8.06864
270.951	7.98792
272.752	6.99852
274.552	6.72734
276.353	6.55971
278.152	6.06376
279.952	6.21081
281.751	5.09409
283.55	5.31913
285.348	5.43825
287.146	5.58397
288.942	5.20755
290.739	4.93205
292.536	4.58309
294.333	4.37583
296.129	4.59548
297.925	4.94992
299.721	4.27865
301.516	4.15795
303.311	4.1594
305.106	3.86661
306.9	4.75672
308.694	5.09281
310.486	3.99353
312.279	3.58205
314.072	3.26722
315.864	2.24244
317.656	2.33851
319.448	1.45725
321.24	2.32481
323.029	1.44735
324.819	2.69445
326.61	3.07402
328.4	2.26431
330.19	2.25487
331.977	3.23561
333.766	3.83961
335.555	3.80922
337.343	3.19399
339.131	2.85185
340.917	1.7449
342.704	2.37122
344.491	1.3358
346.277	2.71639
348.062	3.57175
349.848	4.69797
351.633	5.93535
353.416	6.83685
355.201	7.26192
356.986	6.69723
358.77	6.62281
360.552	7.22873
362.335	7.13051
364.118	7.23732
365.899	7.47541
367.682	7.45882
369.464	7.30566
371.243	7.33072
373.025	6.93127
374.806	6.39366
376.585	6.62026
378.365	5.85488
380.143	5.85338
381.923	5.87072
383.702	5.64701
385.479	4.85247
387.258	4.12102
389.034	2.80755
390.812	2.57604
392.59	2.81529
394.365	2.18064
396.142	1.56451
397.916	1.51193
399.693	1.18551
401.467	2.38415
403.242	2.4092
405.015	2.88552
406.79	4.44095
408.565	4.29037
410.337	4.35906
412.111	4.2165
413.882	5.09401
415.656	5.23564
417.426	5.14501
419.197	5.4999
420.969	5.65127
422.739	5.46777
424.51	5.47683
426.279	5.88086
428.05	6.23304
429.819	6.95225
431.589	8.57206
433.356	8.67031
435.124	8.83308
436.893	7.83643
438.66	7.49442
440.428	7.34137
442.194	7.89721
443.96	7.54123
445.727	7.66153
447.492	7.60449
449.259	7.93553
451.023	7.05011
452.787	7.93746
454.553	8.5363
456.316	8.50362
458.079	8.63606
459.844	8.08835
461.606	8.74731
463.368	9.86998
465.132	10.9616
466.893	10.9196
468.654	11.3098
470.415	11.5937
472.177	11.4084
473.937	11.6729
475.696	12.5118
477.456	12.5639
479.217	14.6279
480.975	15.2304
482.733	15.6243
484.491	16.8873
486.251	18.2433
488.008	19.2771
489.765	20.041
491.522	19.9931
493.278	20.9021
495.036	22.0397
496.791	21.5692
498.546	22.7844
500.301	24.4163
502.056	24.416
503.81	23.4727
505.566	23.2998
507.319	22.9983
509.073	23.7783
510.825	24.9077
512.578	25.3959
514.33	25.6008
516.082	25.644
517.833	25.674
519.587	23.5047
521.337	22.2662
523.088	21.2117
524.838	21.3237
526.588	21.1303
528.337	21.7417
530.087	21.313
531.835	20.3785
533.584	20.2869
535.332	20.3337
537.08	19.5755
538.827	19.033
540.574	19.4625
542.321	18.8792
544.068	19.4069
545.814	18.9326
547.56	19.6895
549.305	19.916
551.05	19.1974
552.795	18.92
554.54	17.8751
556.284	17.1992
558.027	16.5251
559.771	16.1197
561.514	16.3511
563.257	15.8879
564.999	14.4906
566.742	14.6065
568.481	13.7292
570.223	12.7026
571.964	11.7925
573.705	11.2414
575.445	10.4713
577.185	10.1212
578.925	10.4885
580.665	9.51268
582.402	8.95579
584.141	8.12799
585.879	8.0686
587.617	7.99582
589.355	6.25878
591.092	6.21623
592.828	6.66506
594.564	7.31759
596.301	7.55718
598.037	7.20351
599.773	7.14331
601.506	7.39769
603.242	6.25473
604.976	6.05828
606.711	6.4808
608.443	7.51861
610.177	7.21785
611.91	7.44464
613.644	7.28137
615.374	8.84489
617.107	9.33331
618.839	10.9029
620.569	11.5703
622.3	12.1937
624.032	11.8429
625.761	13.3387
627.491	13.6607
629.221	13.5269
630.949	14.1605
632.679	15.0543
634.408	16.1621
636.135	16.6864
637.863	16.4148
639.592	16.8518
641.318	16.6484
643.045	17.5269
644.77	17.7657
646.497	19.1273
648.224	19.2611
649.948	19.5445
651.674	19.0986
653.398	20.694
655.123	22.1988
656.846	22.3983
658.57	23.9079
660.293	25.5093
662.017	27.0134
663.738	28.0531
665.462	28.9497
667.185	28.7966
668.905	30.5363
670.628	31.5368
672.348	33.0703
674.067	34.2491
675.789	34.6287
677.508	35.244
679.228	36.3278
680.947	36.3485
682.667	36.9673
684.385	38.7384
686.104	39.6017
687.821	40.2848
689.538	40.6128
691.256	41.7215
692.972	42.0009
694.69	42.3307
696.406	42.9253
698.121	43.1001
699.837	44.2996
701.552	44.6724
703.268	43.5878
704.982	43.7382
706.695	43.8809
708.41	43.6906
710.123	43.6781
711.836	43.3773
713.55	43.0153
715.262	43.2308
716.973	43.9689
718.685	44.3154
720.398	43.5828
722.108	42.6173
723.818	42.1204
725.53	43.1222
727.24	44.8366
728.949	46.2389
730.658	46.3309
732.369	47.3316
734.077	47.4159
735.785	48.9072
737.493	50.2946
739.2	51.8549
740.909	52.4698
742.616	53.8272
744.322	55.4755
746.028	57.379
747.734	58.9517
749.441	60.2401
751.146	61.7179
752.851	63.0836
754.555	65.0196
756.26	65.9807
757.963	68.0358
759.667	68.6607
761.372	70.0855
763.075	70.5209
764.777	71.9696
766.479	72.549
768.181	75.0558
769.883	77.2071
771.584	78.1678
773.285	79.212
774.986	79.3428
776.686	79.9621
778.386	80.6502
780.085	81.3475
781.785	82.0006
783.484	81.8433
785.182	83.0489
786.881	83.6367
788.579	84.4641
790.276	86.79
791.974	87.9416
793.671	86.8303
795.367	86.8182
797.064	86.6021
798.76	86.8649
800.456	86.1733
802.151	85.6273
803.846	85.2514
805.541	84.8947
807.236	84.9573
808.93	86.5819
810.624	86.6052
812.317	87.218
814.01	85.9446
815.703	85.2612
817.394	85.1526
819.086	85.4007
820.778	85.224
822.47	84.6538
824.161	83.6936
825.852	84.1468
827.543	84.7899
829.231	82.9436
830.921	81.5455
832.611	80.3121
834.3	78.4899
835.989	77.1663
837.676	76.5466
839.364	75.6415
841.053	73.8878
842.74	73.1464
844.426	70.804
846.113	70.0766
847.8	69.1681
849.486	68.9634
851.171	67.6974
852.857	66.8823
854.542	65.5977
856.227	64.4055
857.911	63.3644
859.595	62.7195
861.279	62.7348
862.961	62.714
864.645	62.4052
866.329	62.3396
868.01	61.4566
869.692	61.3466
871.375	60.7682
873.055	60.9985
874.737	60.6149
876.418	58.4666
878.097	57.1347
879.778	57.3812
881.457	56.5668
883.137	57.0635
884.817	55.1626
886.495	55.318
888.174	55.1699
889.851	55.4
891.53	55.1936
893.206	54.6581
894.884	53.5354
896.562	54.0732
898.237	53.7863
899.914	54.0303
901.589	54.1152
903.265	53.5859
904.94	52.3812
906.615	52.2899
908.289	51.9316
909.964	51.0757
911.637	49.6156
913.31	48.5659
914.984	48.7968
916.656	48.8893
918.33	48.0323
920.001	46.8281
921.674	45.874
923.345	45.062
925.015	43.8755
926.687	44.0647
928.357	42.9098
930.028	43.15
931.698	41.46
933.366	40.8374
935.037	40.4512
936.705	40.5562
938.373	40.5852
940.043	40.3708
941.71	39.9423
943.379	38.3079
945.046	38.0441
946.712	37.6796
948.378	37.2284
950.046	37.3528
951.711	37.3963
953.376	37.4232
955.043	37.5664
956.708	37.3523
958.372	36.1969
960.036	35.2655
961.701	35.394
963.364	35.3482
965.027	34.9482
966.69	35.5847
968.354	35.0926
970.016	36.7987
971.678	36.8708
973.339	37.1239
975	36.8155
976.661	36.9667
978.324	37.8232
979.984	38.6126
981.644	38.1062
983.303	37.5331
984.962	37.7819
986.621	38.3943
988.282	38.4318
989.94	38.8252
991.598	38.1405
993.256	37.8741
994.913	37.7312
996.57	37.6724
998.227	36.7079
999.884	35.7919
1001.54	34.6496
1003.2	33.1721
1004.85	33.6457
1006.51	33.4951
1008.16	32.7558
1009.82	32.1128
1011.47	30.9793
1013.12	29.9153
1014.78	29.9301
1016.43	30.5033
1018.08	29.7982
1019.74	28.761
1021.39	28.0358
1023.04	28.4552
1024.69	28.9564
1026.34	29.5432
1028	31.1823
1029.65	31.6372
1031.3	31.8947
1032.95	32.1293
1034.6	31.6087
1036.25	30.1319
1037.9	30.0756
1039.55	29.0892
1041.19	29.5762
1042.84	29.1245
1044.49	30.0678
1046.14	30.4063
1047.79	30.5355
1049.43	30.4576
1051.08	29.5136
1052.73	28.6553
1054.37	27.7718
1056.02	27.1022
1057.66	25.0392
1059.31	23.3557
1060.95	22.6926
1062.6	22.0904
1064.24	21.3267
1065.88	21.4266
1067.53	21.7575
1069.17	21.1539
1070.81	19.7402
1072.46	18.4211
1074.1	17.349
1075.74	16.938
1077.38	16.136
1079.02	16.101
1080.66	15.644
1082.3	14.8805
1083.94	14.1839
1085.58	13.6174
1087.22	13.8614
1088.86	13.2809
1090.5	12.1968
1092.14	11.6332
1093.78	12.126
1095.42	12.3181
1097.05	13.5193
1098.69	13.1708
1100.33	14.4572
1101.97	14.7947
1103.6	16.1964
1105.24	17.6776
1106.87	18.1434
1108.51	18.8491
1110.15	19.2727
1111.78	19.9442
1113.41	20.4296
1115.05	21.2452
1116.68	21.3494
1118.31	21.4422
1119.95	22.2847
1121.58	22.2608
1123.21	23.1572
1124.85	22.4723
1126.48	22.2773
1128.11	21.2712
1129.74	20.4573
1131.37	19.3723
1133	19.087
1134.63	19.0623
1136.26	17.7123
1137.89	16.0008
1139.52	13.9669
1141.15	13.8897
1142.78	14.5347
1144.41	13.7449
1146.04	13.0505
1147.66	12.9525
1149.29	11.674
1150.92	10.4968
1152.55	9.11452
1154.17	8.39506
1155.8	8.4279
1157.43	7.69781
1159.05	6.38205
1160.68	5.65591
1162.3	4.94359
1163.93	4.00516
1165.55	3.78763
1167.17	3.64537
1168.8	3.77202
1170.42	2.85739
1172.05	3.3509
1173.67	3.17255
1175.29	4.28244
1176.91	3.56913
1178.54	2.86244
1180.16	2.82466
1181.78	3.56259
1183.4	2.79347
1185.02	4.15602
1186.64	3.85838
1188.26	4.35073
1189.88	5.32571
1191.5	5.23407
1193.12	5.89715
1194.74	6.3707
1196.36	6.64417
1197.97	6.35345
1199.59	7.25377
1201.21	8.30333
1202.83	8.82313
1204.44	9.54412
1206.06	9.11962
1207.68	10.2729
1209.29	11.0366
1210.91	12.0681
1212.52	13.6165
1214.14	14.0883
1215.75	14.7598
1217.37	15.0612
1218.98	15.6759
1220.6	17.4927
1222.21	19.979
1223.82	21.2162
1225.44	21.5379
1227.05	23.775
1228.66	25.2209
1230.27	25.7928
1231.88	26.7432
1233.49	28.8653
1235.1	31.2753
1236.72	33.3273
1238.33	34.5848
1239.94	35.9701
1241.55	38.2509
1243.16	41.0695
1244.76	42.4217
1246.37	43.7492
1247.98	45.1643
1249.59	45.769
1251.2	46.5718
1252.8	47.2875
1254.41	47.9088
1256.02	49.2218
1257.63	49.3568
1259.23	49.7879
1260.84	50.3523
1262.44	50.2952
1264.05	50.4578
1265.66	50.8023
1267.26	50.4706
1268.87	52.0958
1270.47	53.3779
1272.07	53.8348
1273.68	55.8664
1275.28	56.7576
1276.88	57.3057
1278.48	58.1172
1280.09	59.0865
1281.69	60.2844
1283.29	60.7888
1284.89	61.7831
1286.49	62.509
1288.09	63.5534
1289.69	64.3662
1291.3	65.524
1292.9	66.3052
1294.49	66.0516
1296.09	66.553
1297.69	65.8262
1299.29	66.022
1300.89	67.4663
1302.49	67.9051
1304.09	67.7819
1305.68	68.8155
1307.28	70.2971
1308.88	69.8137
1310.47	69.9651
1312.07	70.964
1313.66	72.3041
1315.26	71.8771
1316.86	71.8316
1318.45	71.2193
1320.05	71.2847
1321.64	71.0342
1323.23	70.3128
1324.83	68.4773
1326.42	67.7289
1328.01	66.4033
1329.61	66.0414
1331.2	65.2868
1332.79	63.7823
1334.38	63.8763
1335.98	61.5118
1337.57	59.5274
1339.16	57.7375
1340.75	56.3278
1342.34	55.6752
1343.93	54.4591
1345.52	54.0929
1347.11	53.7164
1348.7	54.5359
1350.29	53.4476
1351.87	52.7599
1353.46	52.3836
1355.05	52.109
1356.64	50.4307
1358.23	49.7903
1359.81	50.0212
1361.4	50.3915
1362.99	49.1552
1364.57	47.7899
1366.16	47.3682
1367.74	46.9944
1369.33	47.9814
1370.91	46.8945
1372.5	46.4151
1374.08	45.9948
1375.67	45.6642
1377.25	45.3651
1378.83	46.3205
1380.42	46.0244
1382	45.9991
1383.58	46.343
1385.16	47.1365
1386.75	46.2453
1388.33	46.5198
1389.91	45.948
1391.49	46.2013
1393.07	45.1405
1394.65	44.3349
1396.23	43.881
1397.81	43.2894
1399.39	42.9471
1400.97	42.3052
1402.55	42.1615
1404.13	42.8173
1405.7	43.1245
1407.28	43.3115
1408.86	44.2872
1410.44	44.2494
1412.01	45.1712
1413.59	46.4953
1415.17	47.1834
1416.74	49.4172
1418.32	51.7393
1419.89	53.2312
1421.47	54.8289
1423.05	56.3461
1424.62	60.362
1426.19	62.8173
1427.77	65.8217
1429.34	67.0794
1430.92	69.388
1432.49	71.0914
1434.06	73.1492
1435.63	74.8867
1437.2	77.8682
1438.78	80.1843
1440.35	81.1321
1441.92	81.8728
1443.49	83.0108
1445.06	84.9469
1446.63	86.1218
1448.2	86.8509
1449.77	86.5398
1451.34	86.7912
1452.91	86.8759
1454.48	85.9342
1456.05	85.0267
1457.62	83.9705
1459.18	82.5304
1460.75	80.8542
1462.32	79.3305
1463.89	77.3859
1465.45	74.6119
1467.02	71.7524
1468.59	67.883
1470.15	65.6082
1471.72	62.1251
1473.28	59.6138
1474.85	56.6436
1476.41	53.893
1477.98	51.1522
1479.54	48.8289
1481.11	46.5265
1482.67	44.3849
1484.23	41.1437
1485.8	38.8925
1487.36	37.2176
1488.92	35.3753
1490.48	33.6093
1492.05	31.861
1493.61	31.7576
1495.17	31.2162
1496.73	29.9754
1498.29	29.0854
1499.85	29.0253
1501.41	29.1133
1502.97	29.6135
1504.53	29.2087
1506.09	28.7031
1507.65	28.4158
1509.2	29.2518
1510.76	29.575
1512.32	30.386
1513.88	30.9731
1515.44	31.6005
1516.99	32.2029
1518.55	31.8779
1520.1	32.0912
1521.66	32.3497
1523.22	32.5736
1524.77	32.3515
1526.33	32.6625
1527.88	33.1584
1529.44	33.4366
1530.99	33.6168
1532.55	33.2991
1534.1	33.0903
1535.65	33.3248
1537.21	33.9948
1538.76	34.9396
1540.31	36.7157
1541.86	37.7674
1543.42	38.4079
1544.97	39.1252
1546.52	41.0675
1548.07	42.2346
1549.62	43.8687
1551.17	45.4605
1552.72	45.9776
1554.27	47.4822
1555.82	49.1357
1557.37	51.3309
1558.92	52.8225
1560.47	53.4951
1562.02	54.4106
1563.57	56.2451
1565.11	58.3753
1566.66	59.0766
1568.21	60.6723
1569.75	63.2462
1571.3	65.9726
1572.85	66.7238
1574.39	67.4473
1575.94	69.613
1577.49	71.1867
1579.03	72.0656
1580.58	74.0693
1582.12	75.6694
1583.67	76.338
1585.21	77.647
1586.75	78.8314
1588.3	79.0605
1589.84	79.7763
1591.38	79.2053
1592.93	79.3452
1594.47	78.0348
1596.01	77.2836
1597.55	76.7305
1599.09	75.8329
1600.63	74.7918
1602.18	73.6353
1603.72	73.3796
1605.26	72.3457
1606.8	71.1144
1608.34	70.4119
1609.87	69.8338
1611.41	69.3017
1612.95	69.0567
1614.49	68.6892
1616.03	68.7481
1617.57	68.584
1619.11	67.591
1620.64	67.4474
1622.18	67.984
1623.72	68.4927
1625.25	68.4827
1626.79	68.8945
1628.32	68.7895
1629.86	70.1241
1631.4	71.5597
1632.93	72.4576
1634.47	73.3439
1636	73.3309
1637.53	73.1924
1639.07	73.7839
1640.6	74.7305
1642.14	75.7536
1643.67	76.2242
1645.2	77.5835
1646.73	78.3653
1648.27	78.8016
1649.8	79.0238
1651.33	79.9722
1652.86	81.2642
1654.39	80.3601
1655.92	80.0522
1657.45	79.9263
1658.98	79.8005
1660.51	79.929
1662.04	79.0096
1663.57	77.1325
1665.1	75.0222
1666.63	73.6008
1668.16	72.0833
1669.69	71.0848
1671.21	69.1682
1672.74	67.5681
1674.27	65.7192
1675.79	62.8849
1677.32	60.8275
1678.85	59.1227
1680.37	57.2835
1681.9	55.0669
1683.42	53.1083
1684.95	50.867
1686.47	47.9198
1688	45.7166
1689.52	42.1065
1691.05	40.8444
1692.57	39.4294
1694.1	37.1747
1695.62	35.6349
1697.14	34.3199
1698.66	32.8804
1700.19	30.8111
1701.71	29.078
1703.23	27.8836
1704.75	27.2539
1706.27	25.903
1707.79	24.119
1709.32	22.2479
1710.83	21.3768
1712.35	19.6764
1713.88	18.9827
1715.39	18.7349
1716.91	18.5362
1718.43	18.2417
1719.95	18.3551
1721.47	18.0348
1722.99	17.4781
1724.5	17.3874
1726.02	16.6316
1727.54	15.526
1729.06	14.6762
1730.57	13.7544
1732.09	13.2834
1733.61	13.0705
1735.12	13.6736
1736.64	13.2561
1738.15	12.4407
1739.67	12.54
1741.18	13.0584
1742.7	13.6095
1744.21	13.6691
1745.72	13.6906
1747.24	13.6306
1748.75	13.4285
1750.26	13.6399
1751.78	12.9643
1753.29	13.1364
1754.8	13.0949
1756.31	12.3092
1757.82	12.134
1759.34	11.9144
1760.85	11.511
1762.36	10.8815
1763.87	10.4102
1765.38	9.55757
1766.89	10.5905
1768.4	10.147
1769.91	9.55483
1771.41	8.84562
1772.92	7.99904
1774.43	8.04123
1775.94	7.5045
1777.45	7.00602
1778.96	6.56429
1780.46	6.43657
1781.97	5.27025
1783.48	5.53045
1784.98	5.72809
1786.49	6.22564
1788	6.23225
1789.5	7.01769
1791.01	7.62401
1792.51	7.57071
1794.01	7.97218
1795.52	8.10968
1797.02	7.75372
1798.53	7.56876
1800.03	7.43467
1801.54	7.36112
1803.04	7.60306
1804.54	8.46975
1806.04	8.71691
1807.54	8.87931
1809.05	10.2812
1810.55	11.0913
1812.05	11.0129
1813.55	10.8598
1815.05	10.5857
1816.55	10.1242
1818.05	9.4291
1819.55	9.72451
1821.05	9.86187
1822.55	9.71888
1824.05	10.017
1825.55	9.88715
1827.05	9.51754
1828.55	9.43195
1830.04	9.44945
1831.54	9.16186
1833.04	9.31487
1834.54	9.13943
1836.03	8.80029
1837.53	8.34164
1839.03	7.96618
1840.52	7.64886
1842.02	7.4404
1843.51	7.14398
1845.01	7.08749
1846.5	7.15025
1848	7.10589
1849.49	6.55286
1850.99	6.43007
1852.48	6.31679
1853.97	6.6908
1855.47	6.46524
1856.96	5.78224
1858.45	6.0189
1859.94	5.9553
1861.44	5.16088
1862.93	5.44177
1864.42	5.40737
1865.91	5.45228
1867.4	5.09227
1868.89	5.07194
1870.38	4.76151
1871.87	4.08034
1873.36	3.61858
1874.85	3.09379
1876.34	3.21054
1877.83	2.69584
1879.32	2.86781
1880.81	2.75248
1882.3	2.6253
1882.56	2.63543
1884.06	1.63051
1885.55	0.364955
1887.04	-0.0938475
1888.54	0.435947
1890.03	-0.132505
1891.52	-0.528058
1893.02	0.076617
1894.51	-0.00947633
1896	-0.0377479
1897.49	-0.0496746
1898.99	-0.9927
1900.48	-0.491879
1901.97	-0.189361
1903.46	-0.0183011
1904.95	0.570892
1906.44	0.862368
1907.93	0.749918
1909.42	0.776446
1910.91	0.664517
1912.4	0.80763
1913.89	1.23463
1915.38	2.45535
1916.86	3.3929
1918.35	4.2255
1919.84	4.46938
1921.33	4.12219
1922.82	4.65816
1924.3	5.2883
1925.79	5.47124
1927.28	5.49352
1928.76	5.25782
1930.25	5.26917
1931.74	5.98779
1933.22	6.64189
1934.71	6.71559
1936.19	7.15574
1937.67	7.38768
1939.16	7.04255
1940.64	7.02132
1942.13	6.85313
1943.61	6.35253
1945.09	5.90489
1946.58	5.84383
1948.06	5.56541
1949.54	5.95095
1951.03	5.81734
1952.51	6.6247
1953.99	6.43197
1955.47	6.63533
1956.95	6.83372
1958.43	6.35798
1959.91	5.42607
1961.39	6.04306
1962.87	5.64364
1964.35	4.76771
1965.83	5.05403
1967.31	5.12559
1968.79	5.30475
1970.27	5.3444
1971.75	5.63149
1973.22	6.0866
1974.7	6.87484
1976.18	6.77274
1977.66	6.54008
1979.13	6.01227
1980.61	5.54514
1982.09	5.10319
1983.56	5.15617
1985.04	5.12302
1986.52	5.5938
1987.99	6.12061
1989.47	6.32295
1990.94	5.60635
1992.41	6.03861
1993.89	6.14669
1995.36	6.09497
1996.84	6.25678
1998.31	6.05952
1999.78	5.74467
2001.26	5.73045
2002.73	5.45081
2004.2	5.71987
2005.67	5.90962
2007.15	5.43249
2008.62	4.71359
2010.09	4.26818
2011.56	4.23867
2013.03	4.38529
2014.5	4.81378
2015.97	4.19063
2017.44	3.83084
2018.91	3.74312
2020.38	3.88261
2021.85	4.24736
2023.32	4.48101
2024.79	4.50775
2026.25	5.05669
2027.72	4.84761
2029.19	4.7161
2030.66	3.77037
2032.13	3.10947
2033.59	2.7306
2035.06	3.73786
2036.53	3.25342
2037.99	3.71334
2039.46	4.3324
2040.92	4.79019
2042.39	5.50096
2043.85	5.46335
2045.32	6.11335
2046.78	6.38001
2048.25	6.13754
2049.71	6.23585
2051.18	6.37281
2052.64	6.17438
2054.1	7.27367
2055.56	8.08343
2057.03	8.53684
2058.49	9.18203
2059.95	9.94932
2061.42	10.4584
2062.88	10.9761
2064.34	11.7157
2065.8	13.3194
2067.26	12.9897
2068.72	12.792
2070.18	12.9719
2071.64	12.9694
2073.1	13.4136
2074.56	14.3198
2076.02	15.2073
2077.48	15.729
2078.94	15.2078
2080.39	15.6434
2081.85	15.3917
2083.31	15.8247
2084.77	16.5282
2086.22	16.9909
2087.68	17.3716
2089.14	17.3335
2090.6	18.2599
2092.05	18.7806
2093.51	19.4296
2094.96	19.2242
2096.42	19.3854
2097.87	20.1238
2099.33	21.0315
2100.78	21.2877
2102.24	21.9863
2103.69	22.7579
2105.15	24.029
2106.6	25.3787
2108.05	26.753
2109.51	27.6148
2110.96	28.9638
2112.41	30.1153
2113.86	31.0591
2115.32	31.5655
2116.77	33.2832
2118.22	34.9531
2119.67	36.6571
2121.12	37.2229
2122.57	39.0582
2124.02	40.6911
2125.47	42.373
2126.92	44.7046
2128.37	46.6869
2129.82	48.3844
2131.27	50.3786
2132.72	51.7607
