#Acq. time (s)=	45
#Accumulations=	2
#Range (cm-¹)=	200...3150
#Windows=	2
#Auto scanning=	Off
#Autofocus=	Off
#Macrospot=	Off
#AutoExposure=	Off
#Spike filter=	Multiple accum.
#Delay time (s)=	0
#Binning=	1
#Readout mode=	Signal
#DeNoise=	Off
#ICS correction=	On
#Dark correction=	Off
#Inst. Process=	Off
#Detector Gain=	Best Dynamic Range
#Detector ADC=	20 kHz       
#Detector temperature (°C)=	-69.85
#Instrument=	LabRAM HR Evol
#Detector=	Synapse
#Objective=	x100
#Grating=	600 gr/mm
#ND Filter=	100%
#Laser (nm)=	532 
#Hole=	100.021
#Range=	Auto
#Laser Pol.=	No
#Raman. Pol.=	No
#Laser Pol. (°)=	-0.0007625
#Raman Pol. (°)=	89.9995
#Collection=	Microscope
#StageXY=	Marzhauser
#StageZ=	Marzhauser
#X (µm)=	-5134.3
#Y (µm)=	1494.5
#Z (µm)=	62.85
#Full time(mm:ss)=	3:18
#Project=	
#Sample=	
#Site=	
#Title=	Thy_50_12_24_2x_45s_532 nm_x100_100%_600 gr_mm
#Remark=	
#Date=	07.07.2022 11:00
#Acquired=	07.07.2022 11:00:03
#Base:Fit=	10.08.2022 10:04:29
#Base:Sub=	10.08.2022 10:04:45
#Filter:Polynom=	16.08.2022 10:20:24
#AxisType[0]=Intens
#AxisUnit[0]=Cnt
#AxisType[1]=Spectr
#AxisUnit[1]=1/cm
200.43	17.8061
202.246	21.2398
204.061	22.1078
205.875	22.3468
207.688	21.7193
209.501	20.7918
211.316	19.7097
213.129	19.7415
214.941	19.047
216.753	18.4496
218.566	17.9672
220.377	17.2221
222.188	15.6869
223.999	14.3803
225.809	14.241
227.618	14.469
229.43	14.9365
231.239	15.1977
233.047	15.9656
234.855	16.8824
236.663	16.5176
238.471	16.494
240.278	15.7226
242.087	15.854
243.894	16.2636
245.7	16.1001
247.506	14.7879
249.311	13.8441
251.116	12.5128
252.921	11.3766
254.725	11.162
256.529	10.8821
258.333	11.2247
260.136	10.4546
261.939	10.2
263.744	10.2764
265.546	9.74999
267.348	8.88519
269.15	9.30042
270.951	9.4039
272.752	10.0894
274.552	9.98809
276.353	10.3357
278.152	11.0314
279.952	11.765
281.751	12.1486
283.55	11.5342
285.348	11.5748
287.146	10.6635
288.942	10.5973
290.739	9.39556
292.536	9.92743
294.333	9.781
296.129	10.7106
297.925	12.2073
299.721	12.6177
301.516	14.4168
303.311	15.4499
305.106	15.5617
306.9	15.9283
308.694	16.5063
310.486	17.6397
312.279	18.8005
314.072	20.3232
315.864	22.1282
317.656	23.7666
319.448	24.6883
321.24	25.2519
323.029	26.2648
324.819	26.3494
326.61	26.6688
328.4	26.8073
330.19	26.809
331.977	27.158
333.766	26.8891
335.555	25.8997
337.343	24.9866
339.131	24.5923
340.917	23.7649
342.704	24.0158
344.491	24.3079
346.277	23.1381
348.062	22.8823
349.848	21.9811
351.633	21.5807
353.416	20.6218
355.201	20.2685
356.986	19.7649
358.77	19.5137
360.552	19.1082
362.335	19.4986
364.118	18.0652
365.899	17.4871
367.682	16.5491
369.464	15.9506
371.243	14.1522
373.025	13.4997
374.806	14.0053
376.585	12.6801
378.365	13.0756
380.143	12.2463
381.923	12.8292
383.702	13.0417
385.479	14.6985
387.258	14.7265
389.034	15.3153
390.812	15.0074
392.59	14.7236
394.365	14.4881
396.142	13.6046
397.916	13.4994
399.693	13.8128
401.467	13.4474
403.242	13.0421
405.015	13.0636
406.79	13.5528
408.565	13.4891
410.337	13.3696
412.111	12.9353
413.882	12.5479
415.656	11.9596
417.426	10.7423
419.197	10.7114
420.969	10.7839
422.739	10.781
424.51	10.2032
426.279	10.5036
428.05	10.6296
429.819	10.8229
431.589	11.1294
433.356	10.5771
435.124	9.80174
436.893	10.3932
438.66	9.5959
440.428	8.5355
442.194	7.92768
443.96	8.1727
445.727	8.27682
447.492	9.5276
449.259	10.1245
451.023	10.1274
452.787	9.02104
454.553	9.1466
456.316	8.88656
458.079	9.44864
459.844	8.87899
461.606	10.3208
463.368	11.5445
465.132	11.6232
466.893	13.2454
468.654	12.2832
470.415	13.2859
472.177	14.3631
473.937	15.1886
475.696	15.5062
477.456	15.7111
479.217	13.8296
480.975	14.314
482.733	14.4591
484.491	14.2658
486.251	15.4687
488.008	16.2823
489.765	16.5004
491.522	17.0267
493.278	17.4748
495.036	18.5247
496.791	18.7044
498.546	18.2372
500.301	18.9403
502.056	19.9997
503.81	20.2541
505.566	20.9763
507.319	21.4799
509.073	22.1595
510.825	22.8895
512.578	23.3145
514.33	24.0853
516.082	24.2467
517.833	25.022
519.587	25.3326
521.337	25.7302
523.088	25.9769
524.838	26.5184
526.588	25.3615
528.337	24.6776
530.087	25.078
531.835	25.0706
533.584	25.6732
535.332	25.1226
537.08	24.5542
538.827	24.129
540.574	23.0974
542.321	22.5437
544.068	21.7738
545.814	21.4488
547.56	20.5733
549.305	20.4818
551.05	19.1716
552.795	17.1731
554.54	16.0375
556.284	15.172
558.027	15.0151
559.771	14.3638
561.514	12.6532
563.257	11.1544
564.999	8.6834
566.742	7.3915
568.481	8.28423
570.223	7.43645
571.964	7.09256
573.705	7.4741
575.445	6.2143
577.185	5.03272
578.925	4.19216
580.665	3.722
582.402	2.62062
584.141	2.66841
585.879	2.40444
587.617	2.5193
589.355	1.80057
591.092	1.74955
592.828	1.80873
594.564	1.84095
596.301	2.45204
598.037	3.08118
599.773	3.37744
601.506	3.12877
603.242	4.16017
604.976	4.88486
606.711	4.01353
608.443	4.31569
610.177	3.73597
611.91	4.00208
613.644	3.98651
615.374	5.107
617.107	6.1634
618.839	7.07137
620.569	7.80015
622.3	7.84646
624.032	8.24901
625.761	8.20076
627.491	8.18978
629.221	8.1318
630.949	8.33897
632.679	9.13967
634.408	10.1542
636.135	10.3575
637.863	10.8189
639.592	11.2081
641.318	12.4238
643.045	13.5759
644.77	13.4975
646.497	14.141
648.224	13.6248
649.948	13.8647
651.674	14.2766
653.398	15.1174
655.123	15.4263
656.846	15.4718
658.57	15.832
660.293	15.3702
662.017	14.6049
663.738	15.096
665.462	15.5776
667.185	15.9406
668.905	17.1858
670.628	18.4188
672.348	18.4734
674.067	18.1206
675.789	18.8646
677.508	19.5799
679.228	19.8418
680.947	20.3662
682.667	21.324
684.385	22.909
686.104	24.2492
687.821	24.3663
689.538	25.563
691.256	26.4338
692.972	26.1938
694.69	28.4508
696.406	29.7768
698.121	31.9633
699.837	33.1844
701.552	34.3574
703.268	34.2651
704.982	35.1157
706.695	36.5072
708.41	37.3824
710.123	38.3102
711.836	39.6601
713.55	41.157
715.262	42.0148
716.973	43.3534
718.685	44.0269
720.398	44.2103
722.108	45.1264
723.818	46.7467
725.53	47.0047
727.24	47.0757
728.949	47.4426
730.658	47.6068
732.369	48.1014
734.077	48.6849
735.785	49.847
737.493	50.327
739.2	51.1411
740.909	51.7316
742.616	52.4711
744.322	53.1135
746.028	53.9715
747.734	55.5666
749.441	56.442
751.146	56.7557
752.851	58.5281
754.555	60.0059
756.26	60.5106
757.963	61.0673
759.667	62.1721
761.372	63.2091
763.075	63.8041
764.777	65.2393
766.479	66.2749
768.181	67.4004
769.883	69.0201
771.584	70.0276
773.285	69.9687
774.986	71.1806
776.686	72.1575
778.386	72.8222
780.085	74.6943
781.785	75.3893
783.484	76.5215
785.182	76.1689
786.881	76.5792
788.579	77.0298
790.276	78.7202
791.974	79.3436
793.671	79.2978
795.367	79.7447
797.064	79.9752
798.76	80.1415
800.456	79.3181
802.151	79.2232
803.846	78.9236
805.541	79.3389
807.236	80.1068
808.93	79.406
810.624	79.1859
812.317	77.8902
814.01	78.6798
815.703	78.4523
817.394	77.9089
819.086	78.2848
820.778	77.8494
822.47	76.8512
824.161	77.9844
825.852	76.9556
827.543	76.9882
829.231	77.1697
830.921	77.4738
832.611	76.633
834.3	75.3456
835.989	74.6954
837.676	73.3873
839.364	71.8866
841.053	70.9127
842.74	69.4817
844.426	68.8021
846.113	66.7668
847.8	66.0428
849.486	66.0522
851.171	64.7661
852.857	64.4041
854.542	63.5349
856.227	62.1594
857.911	60.3676
859.595	59.4433
861.279	58.3877
862.961	58.0719
864.645	57.493
866.329	56.7256
868.01	55.9986
869.692	54.7867
871.375	54.5955
873.055	53.7757
874.737	52.8279
876.418	50.599
878.097	50.3557
879.778	49.6637
881.457	49.2982
883.137	49.999
884.817	49.6531
886.495	48.9102
888.174	48.0568
889.851	48.2348
891.53	47.9888
893.206	46.8227
894.884	46.3718
896.562	45.5687
898.237	46.7355
899.914	46.1161
901.589	46.7385
903.265	47.0398
904.94	47.7009
906.615	48.5035
908.289	49.0629
909.964	47.8142
911.637	47.7411
913.31	48.5074
914.984	48.2388
916.656	46.0432
918.33	45.9331
920.001	45.3582
921.674	46.3106
923.345	46.5425
925.015	45.9439
926.687	45.1198
928.357	43.8971
930.028	43.3723
931.698	43.2482
933.366	42.7523
935.037	42.0023
936.705	41.9135
938.373	40.7569
940.043	39.7189
941.71	38.9278
943.379	38.0114
945.046	37.5113
946.712	36.9563
948.378	35.8735
950.046	35.3947
951.711	35.9053
953.376	35.636
955.043	34.8532
956.708	34.6461
958.372	33.7118
960.036	32.9314
961.701	33.4891
963.364	33.0557
965.027	33.63
966.69	33.0473
968.354	31.8218
970.016	31.9717
971.678	31.8605
973.339	31.9363
975	32.4386
976.661	31.4777
978.324	33.09
979.984	33.7048
981.644	34.1532
983.303	34.198
984.962	33.6709
986.621	33.2479
988.282	33.9478
989.94	33.1444
991.598	32.3058
993.256	31.672
994.913	31.3029
996.57	30.6691
998.227	28.3087
999.884	27.5955
1001.54	28.9359
1003.2	28.9688
1004.85	29.4838
1006.51	28.1542
1008.16	27.7189
1009.82	27.1254
1011.47	28.4217
1013.12	30.0576
1014.78	30.2622
1016.43	30.4826
1018.08	30.5383
1019.74	30.9118
1021.39	30.5702
1023.04	30.3025
1024.69	31.2269
1026.34	32.6044
1028	33.6104
1029.65	34.0728
1031.3	34.7374
1032.95	36.0849
1034.6	36.7021
1036.25	36.1364
1037.9	34.7091
1039.55	34.1781
1041.19	34.1267
1042.84	33.7978
1044.49	33.9176
1046.14	34.8809
1047.79	35.6914
1049.43	35.1189
1051.08	35.2097
1052.73	34.9349
1054.37	33.335
1056.02	32.1697
1057.66	31.3448
1059.31	29.2311
1060.95	27.7524
1062.6	25.7895
1064.24	23.8988
1065.88	21.9256
1067.53	20.3152
1069.17	19.4074
1070.81	18.1664
1072.46	16.3125
1074.1	14.7661
1075.74	12.8434
1077.38	11.4539
1079.02	10.4341
1080.66	9.8133
1082.3	8.928
1083.94	8.72026
1085.58	7.577
1087.22	7.2266
1088.86	6.36726
1090.5	6.89165
1092.14	6.75713
1093.78	8.0521
1095.42	7.87449
1097.05	6.42215
1098.69	7.19236
1100.33	8.18169
1101.97	8.90737
1103.6	9.48704
1105.24	10.1057
1106.87	11.2866
1108.51	11.6234
1110.15	11.67
1111.78	12.4802
1113.41	13.2439
1115.05	13.318
1116.68	13.2392
1118.31	13.1471
1119.95	12.7737
1121.58	13.8811
1123.21	14.8992
1124.85	14.5265
1126.48	15.2786
1128.11	15.8244
1129.74	15.1903
1131.37	13.6014
1133	12.8301
1134.63	12.1809
1136.26	10.7914
1137.89	10.1844
1139.52	9.93182
1141.15	9.35414
1142.78	9.14797
1144.41	9.6233
1146.04	8.3831
1147.66	8.08662
1149.29	7.41215
1150.92	6.04503
1152.55	5.34265
1154.17	4.97449
1155.8	3.93298
1157.43	2.95127
1159.05	2.39102
1160.68	1.7791
1162.3	0.763405
1163.93	-0.535865
1165.55	0.531189
1167.17	0.579739
1168.8	1.4894
1170.42	1.2323
1172.05	2.13563
1173.67	1.42017
1175.29	1.34719
1176.91	0.585261
1178.54	-0.017129
1180.16	0.697562
1181.78	1.41341
1183.4	0.772908
1185.02	0.905024
1186.64	0.191021
1188.26	0.85759
1189.88	2.08112
1191.5	2.47836
1193.12	2.5165
1194.74	2.13506
1196.36	2.12927
1197.97	3.14407
1199.59	3.50327
1201.21	3.76564
1202.83	4.48342
1204.44	5.11788
1206.06	5.15164
1207.68	6.22667
1209.29	6.74399
1210.91	7.41552
1212.52	7.97044
1214.14	9.05801
1215.75	10.2611
1217.37	11.8177
1218.98	13.6875
1220.6	14.6661
1222.21	15.6287
1223.82	17.1919
1225.44	18.5498
1227.05	19.8904
1228.66	22.292
1230.27	24.2981
1231.88	26.5505
1233.49	28.8579
1235.1	30.0185
1236.72	31.1899
1238.33	34.1917
1239.94	36.3304
1241.55	38.5655
1243.16	40.5522
1244.76	42.3869
1246.37	45.2512
1247.98	45.9709
1249.59	46.6227
1251.2	47.5663
1252.8	48.9328
1254.41	49.2854
1256.02	50.7912
1257.63	51.5677
1259.23	53.0295
1260.84	54.0019
1262.44	56.1047
1264.05	56.8036
1265.66	58.2178
1267.26	60.5691
1268.87	62.7548
1270.47	63.8815
1272.07	64.3959
1273.68	65.4087
1275.28	65.999
1276.88	66.1684
1278.48	67.0098
1280.09	67.4765
1281.69	68.1973
1283.29	68.4289
1284.89	69.0558
1286.49	68.6106
1288.09	69.5814
1289.69	69.3143
1291.3	68.3702
1292.9	68.1885
1294.49	67.7921
1296.09	67.6344
1297.69	68.267
1299.29	66.4072
1300.89	66.1591
1302.49	66.2547
1304.09	66.4925
1305.68	66.1011
1307.28	66.4212
1308.88	66.3823
1310.47	65.2689
1312.07	64.1609
1313.66	63.1447
1315.26	62.4767
1316.86	61.5458
1318.45	61.6524
1320.05	59.8902
1321.64	57.9584
1323.23	56.3685
1324.83	55.6372
1326.42	54.2084
1328.01	52.4535
1329.61	51.7272
1331.2	52.1532
1332.79	51.1095
1334.38	51.1933
1335.98	50.4599
1337.57	49.5087
1339.16	49.1969
1340.75	49.089
1342.34	49.9357
1343.93	49.496
1345.52	48.5134
1347.11	48.8739
1348.7	48.1898
1350.29	47.2685
1351.87	46.7705
1353.46	44.7017
1355.05	42.8942
1356.64	41.8764
1358.23	42.6355
1359.81	42.546
1361.4	41.6347
1362.99	40.6247
1364.57	39.6482
1366.16	38.7025
1367.74	38.7124
1369.33	37.7361
1370.91	38.031
1372.5	38.8947
1374.08	38.1043
1375.67	38.0874
1377.25	38.1476
1378.83	37.5432
1380.42	38.2475
1382	37.1569
1383.58	36.7859
1385.16	35.8141
1386.75	35.3309
1388.33	33.8311
1389.91	33.2608
1391.49	32.2535
1393.07	31.7773
1394.65	30.3793
1396.23	29.7661
1397.81	30.0083
1399.39	28.5617
1400.97	27.5904
1402.55	27.1447
1404.13	27.1921
1405.7	26.855
1407.28	27.2993
1408.86	27.992
1410.44	29.0707
1412.01	29.4738
1413.59	30.2694
1415.17	31.3145
1416.74	32.6007
1418.32	33.3104
1419.89	35.4145
1421.47	37.2148
1423.05	38.8537
1424.62	40.693
1426.19	43.8399
1427.77	44.9668
1429.34	46.7961
1430.92	49.9738
1432.49	52.3007
1434.06	55.9267
1435.63	59.3656
1437.2	62.6749
1438.78	64.2958
1440.35	66.1149
1441.92	68.4038
1443.49	70.2927
1445.06	72.4365
1446.63	74.0114
1448.2	75.3068
1449.77	75.4932
1451.34	75.4444
1452.91	75.5836
1454.48	76.026
1456.05	75.2936
1457.62	74.4147
1459.18	72.6583
1460.75	71.2091
1462.32	69.0417
1463.89	66.7726
1465.45	65.0077
1467.02	61.9909
1468.59	58.7182
1470.15	55.2498
1471.72	52.8692
1473.28	50.5747
1474.85	47.194
1476.41	42.7518
1477.98	39.0086
1479.54	35.6207
1481.11	32.7453
1482.67	31.0979
1484.23	28.6633
1485.8	25.6288
1487.36	23.8887
1488.92	21.6542
1490.48	20.1331
1492.05	18.5853
1493.61	16.8697
1495.17	15.1114
1496.73	14.1046
1498.29	14.0631
1499.85	13.8424
1501.41	13.3953
1502.97	12.7392
1504.53	13.4179
1506.09	13.4516
1507.65	14.8086
1509.2	15.5293
1510.76	15.974
1512.32	16.0568
1513.88	16.2592
1515.44	17.4237
1516.99	17.9101
1518.55	18.5142
1520.1	19.3768
1521.66	19.5577
1523.22	20.383
1524.77	20.4191
1526.33	20.4408
1527.88	20.36
1529.44	21.2603
1530.99	22.1911
1532.55	22.5857
1534.1	22.3551
1535.65	23.369
1537.21	24.6366
1538.76	25.7865
1540.31	26.8338
1541.86	28.0537
1543.42	29.318
1544.97	30.5227
1546.52	32.7023
1548.07	35.0744
1549.62	37.6363
1551.17	39.3595
1552.72	39.8642
1554.27	41.8535
1555.82	43.7533
1557.37	44.9684
1558.92	47.2184
1560.47	49.484
1562.02	50.2286
1563.57	51.4923
1565.11	53.0207
1566.66	54.3642
1568.21	55.982
1569.75	57.3812
1571.3	59.6679
1572.85	61.6015
1574.39	63.5304
1575.94	64.6319
1577.49	65.5284
1579.03	66.3304
1580.58	68.1018
1582.12	70.696
1583.67	72.0701
1585.21	73.2207
1586.75	73.6828
1588.3	74.0797
1589.84	73.6057
1591.38	74.1686
1592.93	74.7137
1594.47	74.0136
1596.01	72.9446
1597.55	72.9747
1599.09	71.6999
1600.63	70.67
1602.18	69.2988
1603.72	68.6868
1605.26	67.4233
1606.8	66.3788
1608.34	65.9945
1609.87	64.4666
1611.41	63.7733
1612.95	64.5903
1614.49	64.5756
1616.03	63.8945
1617.57	63.8329
1619.11	63.9192
1620.64	64.8329
1622.18	65.3749
1623.72	65.27
1625.25	64.7613
1626.79	65.0589
1628.32	66.2605
1629.86	67.041
1631.4	66.9975
1632.93	67.5114
1634.47	68.0597
1636	69.6365
1637.53	70.3909
1639.07	70.1785
1640.6	71.4579
1642.14	72.6042
1643.67	74.3394
1645.2	75.608
1646.73	76.8671
1648.27	77.8079
1649.8	77.6187
1651.33	78.6381
1652.86	78.4631
1654.39	79.5151
1655.92	79.8196
1657.45	80.4797
1658.98	81.029
1660.51	80.1241
1662.04	78.5234
1663.57	76.8681
1665.1	75.4318
1666.63	74.5811
1668.16	72.9949
1669.69	70.4437
1671.21	68.1984
1672.74	66.0662
1674.27	64.5814
1675.79	60.7746
1677.32	57.6401
1678.85	54.6303
1680.37	51.8772
1681.9	49.0519
1683.42	46.5616
1684.95	44.2958
1686.47	41.2532
1688	38.7309
1689.52	36.0532
1691.05	33.584
1692.57	31.9339
1694.1	30.1107
1695.62	28.0106
1697.14	25.5961
1698.66	23.2358
1700.19	21.4622
1701.71	20.2204
1703.23	18.9782
1704.75	18.216
1706.27	14.9023
1707.79	13.4284
1709.32	12.5778
1710.83	11.6675
1712.35	10.8739
1713.88	9.9979
1715.39	8.81529
1716.91	9.0056
1718.43	8.91233
1719.95	8.37434
1721.47	8.28927
1722.99	7.80394
1724.5	7.07537
1726.02	6.8539
1727.54	6.36041
1729.06	5.95666
1730.57	5.79355
1732.09	5.28168
1733.61	5.4362
1735.12	4.87645
1736.64	3.51731
1738.15	3.48664
1739.67	3.34871
1741.18	2.92192
1742.7	3.03024
1744.21	1.97171
1745.72	1.58461
1747.24	2.11168
1748.75	1.79614
1750.26	1.30541
1751.78	0.461516
1753.29	1.24985
1754.8	1.55028
1756.31	1.99317
1757.82	1.05537
1759.34	0.48313
1760.85	0.120142
1762.36	-0.212523
1763.87	0.582233
1765.38	0.91863
1766.89	1.70717
1768.4	1.74082
1769.91	1.31711
1771.41	1.08571
1772.92	1.249
1774.43	1.27027
1775.94	1.55729
1777.45	1.19228
1778.96	0.960336
1780.46	1.30184
1781.97	1.46947
1783.48	2.54512
1784.98	1.79526
1786.49	2.60662
1788	2.63325
1789.5	2.996
1791.01	2.07483
1792.51	2.39388
1794.01	1.72507
1795.52	1.48607
1797.02	2.28428
1798.53	2.49924
1800.03	3.21682
1801.54	4.5541
1803.04	4.91032
1804.54	6.10902
1806.04	6.22237
1807.54	6.75671
1809.05	7.14775
1810.55	7.24574
1812.05	7.38912
1813.55	7.48098
1815.05	7.16475
1816.55	7.09969
1818.05	7.41315
1819.55	7.15647
1821.05	7.22218
1822.55	7.6621
1824.05	7.91623
1825.55	8.21328
1827.05	7.93826
1828.55	7.77056
1830.04	7.05946
1831.54	6.60791
1833.04	6.21521
1834.54	6.82531
1836.03	7.06563
1837.53	7.6564
1839.03	7.96637
1840.52	7.74568
1842.02	7.81147
1843.51	7.28786
1845.01	6.78377
1846.5	6.29745
1848	6.20981
1849.49	5.27355
1850.99	4.76757
1852.48	4.33219
1853.97	4.06471
1855.47	3.44565
1856.96	2.8762
1858.45	2.52541
1859.94	1.75087
1861.44	1.8984
1862.93	1.0616
1864.42	0.479075
1865.91	-0.115366
1867.4	0.534832
1868.89	1.00192
1870.38	2.14587
1871.87	3.33342
1873.36	4.22175
1874.85	4.8417
1876.34	5.3409
1877.83	5.48097
1879.32	5.47372
1880.81	5.27503
1882.3	5.50899
1882.56	5.63084
1884.06	6.6599
1885.55	7.54365
1887.04	8.29656
1888.54	8.96953
1890.03	9.22669
1891.52	9.95826
1893.02	10.0838
1894.51	10.0398
1896	10.3776
1897.49	10.8129
1898.99	10.2116
1900.48	9.80494
1901.97	9.8657
1903.46	9.32012
1904.95	9.88729
1906.44	10.5039
1907.93	10.5489
1909.42	10.3591
1910.91	10.1857
1912.4	10.2139
1913.89	9.74777
1915.38	8.83421
1916.86	8.36989
1918.35	8.00438
1919.84	7.9951
1921.33	7.81477
1922.82	7.28205
1924.3	7.3499
1925.79	7.60054
1927.28	7.45103
1928.76	7.27567
1930.25	7.03239
1931.74	7.42624
1933.22	7.04821
1934.71	7.23226
1936.19	6.96259
1937.67	6.916
1939.16	7.10079
1940.64	7.15128
1942.13	7.21697
1943.61	7.17771
1945.09	7.44216
1946.58	7.62567
1948.06	6.95308
1949.54	6.78009
1951.03	6.7312
1952.51	6.88511
1953.99	7.54586
1955.47	7.44406
1956.95	8.38593
1958.43	8.28378
1959.91	7.98901
1961.39	7.23177
1962.87	6.68086
1964.35	6.30898
1965.83	6.12568
1967.31	5.33863
1968.79	5.2841
1970.27	5.23272
1971.75	4.89342
1973.22	4.23578
1974.7	4.30713
1976.18	4.20395
1977.66	4.10968
1979.13	4.13398
1980.61	3.95109
1982.09	4.36849
1983.56	4.4165
1985.04	4.708
1986.52	5.06902
1987.99	4.74159
1989.47	4.61512
1990.94	4.65698
1992.41	4.48003
1993.89	4.48167
1995.36	4.23992
1996.84	4.20356
1998.31	3.9858
1999.78	4.96941
2001.26	5.09855
2002.73	5.41115
2004.2	5.07496
2005.67	5.19982
2007.15	4.38873
2008.62	3.84802
2010.09	3.88944
2011.56	3.74126
2013.03	2.85442
2014.5	2.55931
2015.97	2.81522
2017.44	3.21526
2018.91	3.91476
2020.38	4.20541
2021.85	4.11758
2023.32	4.79446
2024.79	5.47709
2026.25	5.55768
2027.72	5.25659
2029.19	5.65295
2030.66	6.58514
2032.13	6.49284
2033.59	7.13221
2035.06	7.54273
2036.53	8.58436
2037.99	9.18234
2039.46	9.68048
2040.92	10.3477
2042.39	10.7561
2043.85	11.2961
2045.32	12.0782
2046.78	13.396
2048.25	13.8146
2049.71	14.3279
2051.18	15.3692
2052.64	15.8858
2054.1	17.3201
2055.56	18.1761
2057.03	18.4265
2058.49	18.6898
2059.95	19.7981
2061.42	19.9897
2062.88	19.57
2064.34	19.6732
2065.8	20.038
2067.26	21.2961
2068.72	21.8192
2070.18	23.0808
2071.64	24.2208
2073.1	24.9989
2074.56	25.537
2076.02	25.6354
2077.48	25.4289
2078.94	25.9723
2080.39	26.2702
2081.85	27.1819
2083.31	27.4158
2084.77	27.5992
2086.22	28.2747
2087.68	29.8563
2089.14	31.0545
2090.6	31.8566
2092.05	33.1057
2093.51	33.644
2094.96	34.7005
2096.42	35.5849
2097.87	36.729
2099.33	37.7785
2100.78	39.3013
2102.24	41.2267
2103.69	42.2777
2105.15	43.822
2106.6	45.3592
2108.05	47.0152
2109.51	48.043
2110.96	49.0093
2112.41	50.2303
2113.86	51.5623
2115.32	52.6174
2116.77	54.2855
2118.22	55.6565
2119.67	56.6879
2121.12	57.4639
2122.57	59.5307
2124.02	61.785
2125.47	62.9938
2126.92	65.5706
2128.37	67.2998
2129.82	69.4488
2131.27	71.0086
2132.72	73.4097
2134.17	74.9955
2135.62	77.5721
2137.06	80.1426
