#Acq. time (s)=	45
#Accumulations=	2
#Range (cm-¹)=	200...3150
#Windows=	2
#Auto scanning=	Off
#Autofocus=	Off
#Macrospot=	Off
#AutoExposure=	Off
#Spike filter=	Multiple accum.
#Delay time (s)=	0
#Binning=	1
#Readout mode=	Signal
#DeNoise=	Off
#ICS correction=	On
#Dark correction=	Off
#Inst. Process=	Off
#Detector Gain=	Best Dynamic Range
#Detector ADC=	20 kHz       
#Detector temperature (°C)=	-69.85
#Instrument=	LabRAM HR Evol
#Detector=	Synapse
#Objective=	x100
#Grating=	600 gr/mm
#ND Filter=	100%
#Laser (nm)=	532 
#Hole=	100.021
#Range=	Auto
#Laser Pol.=	No
#Raman. Pol.=	No
#Laser Pol. (°)=	-0.0007625
#Raman Pol. (°)=	89.9995
#Collection=	Microscope
#StageXY=	Marzhauser
#StageZ=	Marzhauser
#X (µm)=	-5904.6
#Y (µm)=	2839.4
#Z (µm)=	-223.25
#Full time(mm:ss)=	3:18
#Project=	
#Sample=	
#Site=	
#Title=	Thy_20_09_08_2x_45s_532 nm_x100_100%_600 gr_mm
#Remark=	
#Date=	29.06.2022 11:18
#Acquired=	29.06.2022 11:18:20
#Base:Fit=	10.08.2022 09:49:32
#Base:Fit=	10.08.2022 09:49:42
#Base:Fit=	10.08.2022 09:49:53
#Base:Fit=	10.08.2022 09:50:12
#Base:Fit=	10.08.2022 09:50:26
#Base:Fit=	10.08.2022 09:50:30
#Base:Fit=	10.08.2022 09:50:43
#Base:Fit=	10.08.2022 09:52:02
#Base:Fit=	10.08.2022 09:52:12
#Base:Sub=	10.08.2022 09:54:21
#Filter:Polynom=	16.08.2022 10:24:04
#AxisType[0]=Intens
#AxisUnit[0]=Cnt
#AxisType[1]=Spectr
#AxisUnit[1]=1/cm
200.523	23.0473
202.339	19.7815
204.154	16.5643
205.967	15.1415
207.781	13.6796
209.596	12.794
211.409	12.325
213.222	11.1855
215.034	10.6699
216.848	10.0369
218.659	10.5693
220.47	10.4519
222.281	11.3571
224.091	10.9813
225.903	10.1149
227.713	10.1212
229.522	10.5239
231.331	9.35037
233.14	9.2871
234.948	8.35772
236.756	9.0834
238.566	8.3484
240.373	8.47277
242.18	8.1936
243.986	7.86728
245.792	7.39095
247.598	7.16707
249.403	7.60017
251.208	7.75948
253.013	7.22774
254.818	7.24985
256.624	6.8378
258.427	5.99714
260.231	5.72494
262.034	4.2559
263.836	4.50786
265.638	2.80721
267.44	1.74789
269.242	0.620548
271.043	0.771525
272.844	0.953564
274.645	0.628799
276.445	0.524354
278.245	-0.117242
280.044	0.115219
281.843	1.0066
283.642	1.79642
285.44	1.63171
287.238	2.01222
289.036	3.72635
290.833	5.59643
292.63	6.3053
294.425	7.10621
296.221	7.1594
298.017	8.01521
299.813	8.52755
301.608	8.24574
303.403	8.24092
305.198	8.41422
306.992	9.7455
308.786	11.319
310.579	12.5726
312.371	13.4679
314.163	13.8802
315.956	13.8491
317.748	14.6199
319.54	15.4197
321.331	15.1206
323.122	16.5719
324.911	16.4458
326.701	17.544
328.491	16.7707
330.281	17.0742
332.071	17.038
333.857	17.2037
335.646	16.8929
337.434	16.3959
339.222	15.0553
341.008	14.5824
342.795	13.1765
344.582	13.2186
346.369	12.4357
348.153	11.2193
349.939	10.5237
351.724	9.72832
353.51	10.333
355.292	9.29833
357.077	9.33947
358.861	7.88382
360.643	7.7275
362.426	7.18542
364.21	6.74066
365.99	6.87574
367.773	6.10056
369.555	5.80675
371.335	5.67626
373.116	5.01575
374.897	4.30277
376.676	4.09353
378.456	4.94504
380.236	4.76701
382.014	3.06579
383.793	2.17873
385.57	2.03057
387.349	2.56723
389.127	2.15188
390.903	2.79905
392.681	3.35231
394.456	4.05003
396.233	6.22395
398.007	7.19513
399.784	8.22069
401.56	7.29811
403.333	7.47106
405.108	7.02572
406.881	7.30751
408.656	7.49711
410.428	8.02664
412.202	8.74379
413.973	8.48288
415.746	9.50328
417.517	9.6653
419.29	10.1269
421.06	10.6898
422.831	10.878
424.601	10.3217
426.37	10.0664
428.141	9.83738
429.909	11.1633
431.679	11.0216
433.447	11.758
435.216	10.3966
436.983	9.97458
438.75	10.0165
440.519	9.98032
442.285	9.8084
444.052	8.31233
445.818	7.07222
447.583	6.49422
449.349	7.01168
451.114	6.64827
452.878	7.19695
454.643	6.90546
456.407	5.43552
458.169	4.09761
459.934	3.35797
461.696	3.86336
463.458	3.59475
465.222	3.17794
466.983	3.42172
468.744	2.97039
470.507	3.70924
472.267	5.26102
474.027	6.22666
475.787	6.92831
477.548	7.29399
479.307	7.93142
481.065	8.25316
482.823	8.60296
484.583	9.43933
486.341	10.3444
488.098	9.75693
489.855	9.71217
491.612	10.6478
493.37	11.0134
495.126	11.5957
496.881	12.1544
498.636	13.667
500.391	14.5712
502.148	15.2568
503.902	16.5476
505.656	16.974
507.409	17.2404
509.162	17.8185
510.915	18.2173
512.668	17.3911
514.42	17.2271
516.174	17.9563
517.925	18.9735
519.676	18.9615
521.427	18.5414
523.178	18.0169
524.928	18.7198
526.678	18.8999
528.427	18.2699
530.176	18.0347
531.925	17.7054
533.673	17.668
535.422	17.724
537.169	16.9691
538.917	16.2977
540.664	15.284
542.411	13.9674
544.157	12.6985
545.903	11.7644
547.649	11.796
549.395	11.6677
551.14	10.4836
552.884	10.5783
554.629	11.163
556.373	11.7866
558.117	11.9258
559.86	11.9195
561.603	11.3959
563.346	11.1798
565.089	11.4224
566.831	11.0374
568.573	10.991
570.314	10.8503
572.053	10.4965
573.794	10.2247
575.534	9.07181
577.274	9.43919
579.014	9.12734
580.754	8.11187
582.493	8.1202
584.23	7.28845
585.968	8.27498
587.706	7.41496
589.444	6.06842
591.181	5.70689
592.919	5.01991
594.653	4.86636
596.39	3.82695
598.126	3.81483
599.862	3.13722
601.595	4.20091
603.33	4.40905
605.065	5.44254
606.8	5.77262
608.532	6.31351
610.266	6.72434
611.999	6.85784
613.732	7.33291
615.463	7.58367
617.196	7.64186
618.928	7.70388
620.66	7.48375
622.389	7.24926
624.12	6.97189
625.851	8.02834
627.58	8.39023
629.31	9.46517
631.04	8.9002
632.767	8.87197
634.497	10.7282
636.223	11.3873
637.952	12.6821
639.68	14.0938
641.406	14.8703
643.134	16.2237
644.861	16.9699
646.586	18.2471
648.312	18.6921
650.037	19.7331
651.762	20.6502
653.486	20.4877
655.211	20.4438
656.936	20.5299
658.659	20.9282
660.383	21.8332
662.105	21.7416
663.829	22.1091
665.55	22.1392
667.273	22.4945
668.994	22.9244
670.716	22.6359
672.436	23.3643
674.158	23.0591
675.877	24.4458
677.598	24.3394
679.317	25.0477
681.035	24.5673
682.755	24.6431
684.473	25.2631
686.192	25.7495
687.909	27.0833
689.628	27.2004
691.344	28.7721
693.06	28.659
694.778	28.6548
696.493	27.7936
698.211	28.1613
699.925	29.1141
701.64	29.2072
703.356	29.2334
705.07	30.3402
706.783	30.9286
708.498	31.5729
710.211	33.0335
711.924	34.1968
713.638	35.0042
715.35	35.8879
717.061	36.9124
718.774	39.0862
720.485	40.8131
722.196	41.7128
723.906	43.1091
725.618	43.7798
727.328	44.918
729.037	45.4994
730.746	46.0319
732.456	47.5133
734.165	48.3046
735.873	49.5612
737.58	50.2723
739.289	51.5251
740.997	52.9748
742.703	53.7009
744.41	55.3262
746.116	56.7774
747.823	57.089
749.529	59.2687
751.234	59.8533
752.938	61.5301
754.643	62.3513
756.347	64.4609
758.051	65.0712
759.756	65.4921
761.459	66.4542
763.162	67.0462
764.865	68.5479
766.567	69.136
768.269	69.9253
769.97	70.3385
771.671	71.3378
773.372	71.9174
775.073	70.8861
776.773	71.9981
778.473	72.6082
780.174	73.1135
781.874	72.7932
783.573	73.7932
785.271	74.5153
786.97	74.1469
788.668	74.5906
790.365	75.3228
792.063	74.9761
793.76	76.6313
795.456	76.7695
797.153	77.9154
798.847	78.8848
800.543	78.4675
802.238	79.983
803.933	79.4706
805.628	79.2744
807.322	80.0733
809.017	80.2773
810.71	80.7945
812.404	81.0024
814.097	80.7788
815.79	81.82
817.483	81.7635
819.173	81.3248
820.865	81.8791
822.556	81.6335
824.248	81.3385
825.939	81.4984
827.629	80.7323
829.318	81.0772
831.008	79.8506
832.697	79.3004
834.387	79.0177
836.076	76.645
837.765	76.7237
839.451	75.7451
841.139	74.7828
842.827	72.1813
844.514	71.3922
846.2	70.3947
847.886	69.4772
849.573	67.4122
851.259	66.1809
852.943	64.8481
854.629	63.2318
856.314	62.1019
857.997	60.5144
859.682	58.9498
861.366	59.0176
863.05	57.0544
864.732	55.5146
866.415	53.565
868.098	53.2704
869.779	52.4279
871.461	51.7092
873.141	51.0854
874.823	51.4165
876.505	51.1425
878.184	51.5614
879.865	50.3698
881.545	51.4853
883.223	51.2084
884.903	50.8712
886.581	51.8279
888.26	50.5357
889.937	51.2354
891.616	51.8146
893.294	51.3314
894.97	50.8863
896.648	51.0125
898.323	51.221
900	52.5029
901.675	51.7733
903.351	51.7017
905.026	51.6723
906.701	50.7811
908.375	50.4051
910.05	50.2612
911.723	49.0851
913.398	48.2595
915.07	46.3998
916.742	46.4664
918.415	44.5004
920.087	43.2457
921.76	43.4108
923.43	42.9171
925.103	42.5418
926.773	41.4662
928.443	41.7287
930.114	41.9772
931.783	41.1866
933.454	39.9378
935.123	39.7262
936.791	39.2949
938.461	38.3791
940.128	38.6391
941.796	37.8619
943.464	37.2267
945.131	36.5122
946.797	35.6785
948.465	34.8861
950.131	33.9172
951.797	33.0394
953.462	31.7808
955.128	31.3687
956.793	29.6173
958.457	28.587
960.121	27.9618
961.786	27.4292
963.45	27.6796
965.113	29.1609
966.775	29.6459
968.44	30.3446
970.102	31.3943
971.763	31.5568
973.425	32.7766
975.086	34.0256
976.748	34.522
978.409	36.2812
980.069	37.2475
981.729	38.0247
983.388	39.0339
985.048	38.6711
986.708	38.8637
988.367	40.7402
990.025	40.8735
991.683	41.6635
993.341	41.913
994.998	42.5476
996.655	43.2401
998.312	44.0376
999.969	45.1104
1001.62	44.6184
1003.28	45.6657
1004.94	46.7934
1006.59	47.2499
1008.25	46.9044
1009.9	46.3405
1011.56	46.7652
1013.21	46.5391
1014.86	44.1966
1016.52	44.2212
1018.17	43.4551
1019.82	42.5929
1021.48	40.6999
1023.13	38.8478
1024.78	37.3768
1026.43	35.6618
1028.08	34.585
1029.73	33.3386
1031.38	31.641
1033.03	29.6538
1034.68	27.5206
1036.33	25.8397
1037.98	24.4231
1039.63	23.6272
1041.28	23.4305
1042.93	23.4702
1044.57	23.8394
1046.22	24.4929
1047.87	24.7325
1049.52	23.726
1051.16	23.0844
1052.81	22.4642
1054.45	21.9571
1056.1	22.1047
1057.75	23.0762
1059.39	22.5078
1061.04	23.032
1062.68	22.8449
1064.32	23.7248
1065.97	24.1022
1067.61	24.4851
1069.25	24.648
1070.9	25.3558
1072.54	23.8829
1074.18	23.4739
1075.82	23.3006
1077.47	23.891
1079.11	24.1376
1080.75	23.2943
1082.39	22.7051
1084.03	22.3597
1085.67	23.608
1087.31	23.601
1088.95	22.7623
1090.59	23.3421
1092.22	23.251
1093.86	23.5778
1095.5	23.8079
1097.14	23.475
1098.78	23.7453
1100.41	23.4214
1102.05	23.6931
1103.69	23.5027
1105.32	24.019
1106.96	24.4053
1108.59	24.4284
1110.23	24.2126
1111.86	23.0738
1113.5	22.8123
1115.13	21.7558
1116.77	21.1032
1118.4	20.9047
1120.03	20.478
1121.67	20.3639
1123.3	18.9587
1124.93	18.4146
1126.56	18.493
1128.19	17.7272
1129.83	16.4166
1131.46	15.4013
1133.09	14.306
1134.72	13.786
1136.35	13.397
1137.98	13.0682
1139.61	12.3254
1141.24	10.9744
1142.86	9.76283
1144.49	9.22458
1146.12	8.1888
1147.75	7.25502
1149.38	6.30431
1151	5.0067
1152.63	3.94757
1154.26	2.97823
1155.88	2.53805
1157.51	2.32964
1159.14	2.651
1160.76	2.49859
1162.39	2.40363
1164.01	3.10634
1165.63	3.08463
1167.26	4.25323
1168.88	3.48725
1170.51	3.63378
1172.13	5.20705
1173.75	5.10653
1175.38	6.63051
1177	8.08257
1178.62	7.86641
1180.24	8.25073
1181.86	10.637
1183.48	11.6042
1185.1	12.4599
1186.72	13.101
1188.34	13.6851
1189.96	14.5086
1191.58	14.5485
1193.2	14.8912
1194.82	16.5737
1196.44	16.9962
1198.06	18.2101
1199.68	19.4493
1201.29	20.451
1202.91	22.3627
1204.53	23.6135
1206.14	25.3685
1207.76	26.1399
1209.38	28.5116
1210.99	29.8086
1212.61	31.6456
1214.22	34.1531
1215.84	36.8051
1217.45	38.2139
1219.07	39.7719
1220.68	42.2718
1222.29	44.0024
1223.91	46.2278
1225.52	48.6933
1227.13	50.3521
1228.74	52.6668
1230.36	54.9998
1231.97	57.072
1233.58	58.7122
1235.19	60.9753
1236.8	62.8315
1238.41	65.0337
1240.02	66.7367
1241.63	67.3461
1243.24	69.3165
1244.85	70.2689
1246.46	70.5807
1248.07	71.8955
1249.67	71.8534
1251.28	72.9533
1252.89	74.159
1254.5	75.1828
1256.1	74.795
1257.71	74.5421
1259.32	74.6754
1260.92	75.1934
1262.53	75.6996
1264.13	74.6618
1265.74	74.7631
1267.34	74.9427
1268.95	74.8404
1270.55	75.2049
1272.15	75.5363
1273.76	76.0059
1275.36	76.0447
1276.97	76.7077
1278.57	77.4996
1280.17	77.7484
1281.77	79.0842
1283.37	79.9747
1284.97	80.3906
1286.58	81.0078
1288.18	81.6882
1289.78	83.2815
1291.38	83.6034
1292.98	84.6157
1294.58	85.5728
1296.18	85.4872
1297.78	86.5002
1299.37	88.1908
1300.97	89.0539
1302.57	89.0418
1304.17	90.7247
1305.77	91.891
1307.36	93.9255
1308.96	94.997
1310.55	96.3311
1312.15	96.0967
1313.75	97.0726
1315.34	97.4418
1316.94	97.6377
1318.53	98.0974
1320.13	97.6099
1321.72	97.3705
1323.32	97.734
1324.91	96.3455
1326.5	95.1684
1328.1	94.4383
1329.69	93.715
1331.28	92.3093
1332.87	90.927
1334.47	89.4688
1336.06	88.0147
1337.65	88.1468
1339.24	88.1291
1340.83	86.5427
1342.42	85.5633
1344.01	83.684
1345.6	83.1539
1347.19	81.046
1348.78	79.6324
1350.37	77.965
1351.96	76.5417
1353.54	74.9905
1355.13	73.652
1356.72	73.0992
1358.31	72.0481
1359.89	70.527
1361.48	68.8755
1363.07	67.6393
1364.65	66.8236
1366.24	65.498
1367.82	64.3309
1369.41	63.9148
1370.99	63.7988
1372.58	62.7467
1374.16	61.5047
1375.75	60.5598
1377.33	60.2212
1378.91	58.9394
1380.5	57.9498
1382.08	58.1511
1383.66	58.5052
1385.25	58.1679
1386.83	57.1467
1388.41	55.6579
1389.99	55.1446
1391.57	54.3078
1393.15	54.2871
1394.73	53.2232
1396.31	52.6294
1397.89	51.3093
1399.47	49.5744
1401.05	48.5832
1402.63	48.4893
1404.21	47.8104
1405.78	47.2168
1407.36	48.0807
1408.94	48.5705
1410.52	48.2352
1412.1	49.1476
1413.67	50.7621
1415.25	52.2128
1416.82	53.6918
1418.4	55.29
1419.98	56.6061
1421.55	58.2393
1423.13	60.6943
1424.7	63.0952
1426.28	65.0169
1427.85	68.4079
1429.42	70.9881
1431	74.5683
1432.57	77.4841
1434.14	80.7095
1435.71	84.0983
1437.29	87.0207
1438.86	88.7542
1440.43	90.6371
1442	92.5545
1443.57	93.8577
1445.14	94.1493
1446.71	94.838
1448.28	96.1994
1449.85	95.7781
1451.42	94.9206
1452.99	94.8367
1454.56	93.8289
1456.13	93.8242
1457.7	93.0348
1459.26	91.7953
1460.83	90.5261
1462.4	88.8961
1463.97	86.1063
1465.54	83.2167
1467.1	80.4078
1468.67	77.2375
1470.23	74.6569
1471.8	71.5398
1473.36	68.1265
1474.93	64.4948
1476.49	61.0028
1478.06	59.0221
1479.62	56.2572
1481.19	52.5046
1482.75	49.2894
1484.31	46.1251
1485.88	44.4776
1487.44	41.4106
1489	39.6287
1490.56	38.3643
1492.13	36.9992
1493.69	35.2187
1495.25	34.2064
1496.81	33.4518
1498.37	32.354
1499.93	31.4706
1501.49	30.9217
1503.05	30.3625
1504.61	30.2843
1506.17	30.0033
1507.73	30.6245
1509.28	30.1557
1510.84	29.938
1512.4	30.0536
1513.96	29.4946
1515.52	28.549
1517.07	28.5996
1518.63	28.2347
1520.19	28.6277
1521.74	29.577
1523.3	29.7459
1524.85	30.8811
1526.41	32.6013
1527.96	32.831
1529.52	33.5085
1531.07	35.046
1532.63	35.9579
1534.18	38.4949
1535.73	38.6106
1537.29	39.8517
1538.84	41.9936
1540.39	42.9134
1541.94	44.0636
1543.5	45.7957
1545.05	47.5093
1546.6	49.157
1548.15	51.1519
1549.7	53.2028
1551.25	55.3479
1552.8	57.8171
1554.35	59.461
1555.9	61.3114
1557.45	61.911
1559	64.0921
1560.55	66.7002
1562.1	68.7755
1563.65	70.712
1565.19	72.9069
1566.74	74.6546
1568.29	75.7314
1569.83	76.9907
1571.38	78.2263
1572.93	80.1344
1574.47	81.181
1576.02	82.2523
1577.56	83.6121
1579.11	84.6482
1580.66	86.368
1582.2	87.7888
1583.74	89.2363
1585.29	90.1224
1586.83	89.997
1588.38	90.1925
1589.92	90.0807
1591.46	89.0292
1593.01	89.2936
1594.55	88.6707
1596.09	87.0596
1597.63	87.1854
1599.17	86.2965
1600.71	85.0817
1602.25	84.4108
1603.79	83.7634
1605.34	82.5485
1606.88	81.6124
1608.41	80.634
1609.95	79.6125
1611.49	78.3733
1613.03	76.6583
1614.57	76.5978
1616.11	75.446
1617.65	74.6688
1619.18	74.7684
1620.72	74.7446
1622.26	74.5299
1623.79	74.9461
1625.33	75.0932
1626.87	76.1774
1628.4	76.8909
1629.94	77.6196
1631.48	78.2297
1633.01	79.3173
1634.55	80.683
1636.08	82.169
1637.61	83.4068
1639.15	85.7551
1640.68	87.6139
1642.21	90.8184
1643.75	92.0596
1645.28	94.3655
1646.81	96.3433
1648.34	97.9972
1649.88	100.964
1651.41	102.629
1652.94	104.595
1654.47	106.679
1656	107.736
1657.53	109.504
1659.06	110.335
1660.59	110.007
1662.12	109.501
1663.65	108.959
1665.18	107.792
1666.71	106.94
1668.24	105.251
1669.76	103.85
1671.29	101.774
1672.82	99.937
1674.35	98.5898
1675.87	96.4139
1677.4	94.0487
1678.93	91.6283
1680.45	88.3692
1681.98	84.9953
1683.5	80.7646
1685.03	76.5461
1686.55	72.7559
1688.08	69.4345
1689.6	66.483
1691.13	63.2285
1692.65	59.1871
1694.17	56.1762
1695.7	53.1031
1697.22	49.4735
1698.74	46.3171
1700.27	43.2181
1701.79	39.4719
1703.31	37.1902
1704.83	34.3651
1706.35	31.7897
1707.87	29.5532
1709.39	27.8961
1710.91	26.2231
1712.43	24.3519
1713.95	23.2999
1715.47	22.2447
1716.99	20.8156
1718.51	19.3305
1720.03	17.5933
1721.55	16.9587
1723.07	15.5957
1724.58	15.181
1726.1	15.3665
1727.62	14.193
1729.13	13.6216
1730.65	13.1385
1732.17	11.9494
1733.68	12.1778
1735.2	11.171
1736.72	10.2323
1738.23	9.44609
1739.74	9.12471
1741.26	8.31201
1742.77	7.47939
1744.29	6.96821
1745.8	6.96736
1747.32	7.72721
1748.83	7.67197
1750.34	7.62375
1751.85	7.59353
1753.37	7.10406
1754.88	6.59431
1756.39	5.91126
1757.9	5.76804
1759.41	4.97444
1760.92	4.89943
1762.44	4.83897
1763.95	5.47174
1765.46	5.34099
1766.96	4.6599
1768.47	4.1415
1769.98	4.08381
1771.49	4.06154
1773	3.10486
1774.51	3.17601
1776.02	2.64807
1777.53	3.13601
1779.03	3.64637
1780.54	3.62802
1782.05	3.67166
1783.55	4.36457
1785.06	4.51605
1786.57	3.91932
1788.07	3.75471
1789.58	3.91802
1791.08	3.9407
1792.59	3.90908
1794.09	3.89601
1795.6	4.13465
1797.1	4.24595
1798.61	4.10962
1800.11	4.73482
1801.61	4.43729
1803.12	3.41271
1804.62	3.07791
1806.12	2.51664
1807.62	3.00314
1809.12	3.17304
1810.63	2.28415
1812.13	2.11488
1813.63	1.89397
1815.13	1.65131
1816.63	1.52689
1818.13	1.87336
1819.63	2.03611
1821.13	2.10968
1822.63	1.81223
1824.13	1.77642
1825.63	1.56955
1827.13	1.81596
1828.62	1.43608
1830.12	0.892719
1831.62	0.943553
1833.12	0.864845
1834.61	0.330336
1836.11	0.218622
1837.61	0.396987
1839.1	0.348968
1840.6	0.559572
1842.09	0.527164
1843.59	0.794751
1845.09	1.02653
1846.58	1.33009
1848.08	1.13439
1849.57	1.53758
1851.06	2.12279
1852.56	2.37861
1854.05	2.38941
1855.54	2.38594
1857.04	2.07151
1858.53	2.39701
1860.02	1.6644
1861.51	1.65707
1863.01	1.7439
1864.5	1.90729
1865.99	2.7051
1867.48	2.73612
1868.97	3.11886
1870.46	3.10253
1871.95	3.09416
1873.44	2.92738
1874.93	2.70256
1876.42	2.30027
1877.91	2.00416
1879.4	2.08049
1880.89	1.9775
1882.37	2.20814
1882.46	1.89282
1883.95	1.83715
1885.45	1.59403
1886.94	1.25209
1888.43	1.22497
1889.93	1.16966
1891.42	1.36584
1892.91	1.41062
1894.41	1.28154
1895.9	1.55577
1897.39	2.24116
1898.88	2.27997
1900.37	1.97054
1901.86	2.28355
1903.36	2.48729
1904.85	2.81311
1906.34	2.68375
1907.83	3.08563
1909.32	3.60165
1910.81	4.30862
1912.29	4.28861
1913.78	4.67433
1915.27	4.89579
1916.76	4.96688
1918.25	5.56106
1919.74	5.77133
1921.23	6.15955
1922.71	5.97104
1924.2	6.06653
1925.69	5.37099
1927.17	5.49836
1928.66	5.06064
1930.15	5.1347
1931.63	5.49955
1933.12	5.5472
1934.6	6.72335
1936.09	6.56297
1937.57	6.4484
1939.06	6.70889
1940.54	6.34969
1942.02	7.01024
1943.51	6.93925
1944.99	6.87273
1946.47	7.36204
1947.96	7.52592
1949.44	7.53445
1950.92	6.87623
1952.4	6.5257
1953.88	6.16227
1955.37	6.10149
1956.85	5.91623
1958.33	5.64075
1959.81	5.43929
1961.29	5.87769
1962.77	6.47708
1964.25	6.72719
1965.73	7.55062
1967.21	7.45468
1968.69	7.65963
1970.16	7.60232
1971.64	7.49169
1973.12	7.86358
1974.6	7.86306
1976.08	8.25652
1977.55	8.28866
1979.03	8.18685
1980.51	8.04458
1981.98	8.11541
1983.46	7.61786
1984.94	7.29788
1986.41	6.87482
1987.89	7.1224
1989.36	7.11545
1990.84	7.35752
1992.31	7.31712
1993.79	6.84845
1995.26	6.83136
1996.73	6.18699
1998.21	7.07529
1999.68	6.63429
2001.15	6.91822
2002.63	6.9718
2004.1	6.53956
2005.57	5.99581
2007.04	6.16111
2008.51	6.11488
2009.99	5.18884
2011.46	5.28945
2012.93	5.47374
2014.4	5.35643
2015.87	5.66959
2017.34	5.38919
2018.81	5.72835
2020.28	5.89385
2021.75	5.26513
2023.21	5.29
2024.68	5.16523
2026.15	6.1588
2027.62	6.29065
2029.09	7.36293
2030.56	7.38518
2032.02	7.72953
2033.49	8.28308
2034.96	8.52087
2036.42	8.68894
2037.89	8.93013
2039.36	8.98423
2040.82	8.92145
2042.29	8.51854
2043.75	8.3238
2045.22	8.77969
2046.68	9.37379
2048.14	9.26229
2049.61	9.24124
2051.07	9.15549
2052.54	9.1766
2054	9.23412
2055.46	9.44775
2056.93	8.90972
2058.39	9.66103
2059.85	10.1885
2061.31	10.7604
2062.77	10.6974
2064.23	11.3623
2065.7	11.1757
2067.16	11.3931
2068.62	11.9936
2070.08	12.115
2071.54	12.5866
2073	12.2637
2074.46	12.3317
2075.92	12.2366
2077.38	12.3186
2078.83	12.7967
2080.29	13.332
2081.75	13.3791
2083.21	13.8093
2084.67	13.9822
2086.12	14.5624
2087.58	15.0084
2089.04	15.9339
2090.49	16.3762
2091.95	16.6433
2093.41	16.3695
2094.86	16.6459
2096.32	17.3165
2097.77	17.6439
2099.23	18.3996
2100.68	18.6738
2102.14	19.3937
2103.59	19.1764
2105.05	19.6224
2106.5	19.6108
2107.95	20.1967
2109.41	20.9741
2110.86	21.787
2112.31	22.3306
