#Acq. time (s)=	45
#Accumulations=	2
#Range (cm-¹)=	200...3150
#Windows=	2
#Auto scanning=	Off
#Autofocus=	Off
#Macrospot=	Off
#AutoExposure=	Off
#Spike filter=	Multiple accum.
#Delay time (s)=	0
#Binning=	1
#Readout mode=	Signal
#DeNoise=	Off
#ICS correction=	On
#Dark correction=	Off
#Inst. Process=	Off
#Detector Gain=	Best Dynamic Range
#Detector ADC=	20 kHz       
#Detector temperature (°C)=	-69.85
#Instrument=	LabRAM HR Evol
#Detector=	Synapse
#Objective=	x100
#Grating=	600 gr/mm
#ND Filter=	100%
#Laser (nm)=	532 
#Hole=	100.021
#Range=	Auto
#Laser Pol.=	No
#Raman. Pol.=	No
#Laser Pol. (°)=	-0.0007625
#Raman Pol. (°)=	89.9995
#Collection=	Microscope
#StageXY=	Marzhauser
#StageZ=	Marzhauser
#X (µm)=	-5089.9
#Y (µm)=	1507.4
#Z (µm)=	62.65
#Full time(mm:ss)=	3:18
#Project=	
#Sample=	
#Site=	
#Title=	Thy_50_12_05_2x_45s_532 nm_x100_100%_600 gr_mm
#Remark=	
#Date=	07.07.2022 09:30
#Acquired=	07.07.2022 09:30:26
#Base:Fit=	10.08.2022 10:03:08
#Base:Fit=	10.08.2022 10:03:15
#Base:Fit=	10.08.2022 10:03:19
#Base:Fit=	10.08.2022 10:04:29
#Base:Sub=	10.08.2022 10:04:45
#Filter:Polynom=	16.08.2022 10:20:24
#AxisType[0]=Intens
#AxisUnit[0]=Cnt
#AxisType[1]=Spectr
#AxisUnit[1]=1/cm
200.43	6.64618
202.246	9.79449
204.061	10.7685
205.875	10.6032
207.688	11.1858
209.501	11.794
211.316	12.4486
213.129	12.4493
214.941	13.4303
216.753	12.8833
218.566	12.615
220.377	13.5782
222.188	13.6027
223.999	13.7409
225.809	13.4985
227.618	13.4737
229.43	13.3771
231.239	13.357
233.047	13.7223
234.855	14.3269
236.663	13.4102
238.471	13.377
240.278	14.2949
242.087	14.8778
243.894	14.6037
245.7	14.392
247.506	13.5391
249.311	13.1865
251.116	12.8691
252.921	13.0487
254.725	13.3424
256.529	12.9278
258.333	12.0797
260.136	11.7801
261.939	12.527
263.744	12.1078
265.546	11.4611
267.348	10.8687
269.15	10.5139
270.951	11.3601
272.752	10.1706
274.552	10.0493
276.353	9.21303
278.152	9.53999
279.952	8.52163
281.751	8.00396
283.55	7.81139
285.348	7.34236
287.146	7.36945
288.942	7.10742
290.739	6.85638
292.536	5.6437
294.333	5.28756
296.129	4.95461
297.925	4.71432
299.721	3.96829
301.516	4.41122
303.311	4.07567
305.106	3.46953
306.9	2.36383
308.694	2.23538
310.486	2.55805
312.279	1.76623
314.072	2.32972
315.864	2.59682
317.656	2.77921
319.448	3.46358
321.24	3.79337
323.029	4.70117
324.819	5.36512
326.61	5.23662
328.4	5.99608
330.19	6.46466
331.977	6.24449
333.766	5.59092
335.555	6.39798
337.343	6.66584
339.131	7.45343
340.917	8.38507
342.704	9.05521
344.491	8.74347
346.277	8.89246
348.062	9.6804
349.848	10.1034
351.633	10.5004
353.416	10.3812
355.201	10.4353
356.986	10.0542
358.77	10.6798
360.552	11.2191
362.335	11.7685
364.118	11.931
365.899	12.0003
367.682	12.1038
369.464	11.4898
371.243	12.2027
373.025	11.6772
374.806	11.258
376.585	11.2303
378.365	9.20918
380.143	9.35562
381.923	9.36666
383.702	9.00307
385.479	9.96288
387.258	10.2401
389.034	9.77443
390.812	9.32444
392.59	8.70458
394.365	7.52165
396.142	8.57826
397.916	7.56301
399.693	8.80675
401.467	9.24779
403.242	9.55708
405.015	9.40512
406.79	9.56019
408.565	10.0261
410.337	9.69331
412.111	10.2108
413.882	10.377
415.656	10.6962
417.426	11.4493
419.197	12.642
420.969	13.2872
422.739	13.4988
424.51	14.8405
426.279	15.1527
428.05	16.2455
429.819	16.3488
431.589	15.8858
433.356	16.0681
435.124	16.3527
436.893	15.9776
438.66	16.1106
440.428	16.1295
442.194	16.2032
443.96	15.714
445.727	16.1611
447.492	16.5136
449.259	16.2472
451.023	16.4173
452.787	15.4586
454.553	16.1214
456.316	15.9721
458.079	16.3986
459.844	16.8352
461.606	16.2038
463.368	16.9108
465.132	17.7084
466.893	18.0147
468.654	18.9236
470.415	18.4397
472.177	18.2534
473.937	18.7446
475.696	18.794
477.456	19.3027
479.217	19.8023
480.975	19.8275
482.733	20.4276
484.491	21.2706
486.251	20.8407
488.008	22.7544
489.765	22.5
491.522	23.1744
493.278	23.7988
495.036	23.9567
496.791	24.442
498.546	25.7939
500.301	26.765
502.056	27.2022
503.81	27.2065
505.566	27.5051
507.319	27.6708
509.073	28.0251
510.825	28.1602
512.578	28.9632
514.33	28.482
516.082	28.0783
517.833	28.4679
519.587	29.272
521.337	29.5055
523.088	29.2
524.838	28.8868
526.588	29.667
528.337	29.8865
530.087	29.9271
531.835	30.6523
533.584	31.5504
535.332	30.9327
537.08	31.0726
538.827	31.8688
540.574	32.4131
542.321	33.4367
544.068	33.2323
545.814	33.4548
547.56	32.2515
549.305	30.9466
551.05	30.7471
552.795	29.0181
554.54	27.935
556.284	26.7122
558.027	26.0075
559.771	25.3495
561.514	25.276
563.257	24.9217
564.999	23.7487
566.742	22.5347
568.481	20.8675
570.223	19.2791
571.964	17.4267
573.705	15.9648
575.445	15.0662
577.185	13.602
578.925	12.8234
580.665	11.7141
582.402	10.9843
584.141	10.1609
585.879	9.97641
587.617	8.90486
589.355	7.98104
591.092	8.67602
592.828	8.83771
594.564	8.72862
596.301	7.62831
598.037	7.33333
599.773	6.60195
601.506	5.76636
603.242	6.56721
604.976	7.45764
606.711	7.79926
608.443	8.21775
610.177	9.0795
611.91	9.07808
613.644	10.3065
615.374	11.9067
617.107	11.9572
618.839	13.2732
620.569	13.4151
622.3	14.1389
624.032	15.4607
625.761	16.5798
627.491	17.7134
629.221	18.4079
630.949	18.792
632.679	20.0196
634.408	20.5823
636.135	21.7541
637.863	23.1969
639.592	23.4016
641.318	24.6834
643.045	25.1784
644.77	25.8691
646.497	26.8074
648.224	27.8298
649.948	28.1405
651.674	29.1661
653.398	28.5088
655.123	28.5851
656.846	29.3444
658.57	29.5059
660.293	30.7558
662.017	31.4244
663.738	32.2007
665.462	32.7076
667.185	33.5151
668.905	33.4521
670.628	33.9382
672.348	34.5816
674.067	34.4011
675.789	34.9436
677.508	36.2123
679.228	35.8605
680.947	36.1146
682.667	36.3231
684.385	37.7597
686.104	37.7377
687.821	38.6099
689.538	39.5038
691.256	39.2973
692.972	39.3428
694.69	38.8513
696.406	38.8209
698.121	38.5868
699.837	39.2952
701.552	40.5211
703.268	39.9173
704.982	41.0776
706.695	42.3544
708.41	43.5578
710.123	44.0589
711.836	44.916
713.55	45.7034
715.262	46.6189
716.973	47.465
718.685	48.6463
720.398	47.5497
722.108	48.2043
723.818	48.471
725.53	48.1025
727.24	49.3689
728.949	49.5905
730.658	49.1479
732.369	50.0535
734.077	51.0366
735.785	51.623
737.493	51.9795
739.2	51.5343
740.909	53.2606
742.616	54.5897
744.322	54.4005
746.028	57.1406
747.734	58.0453
749.441	59.8627
751.146	61.4948
752.851	63.6092
754.555	65.4623
756.26	67.1713
757.963	68.518
759.667	70.1355
761.372	72.2996
763.075	74.5381
764.777	75.931
766.479	77.199
768.181	78.3414
769.883	79.7967
771.584	80.4483
773.285	80.8686
774.986	81.8763
776.686	82.7489
778.386	82.6949
780.085	83.3495
781.785	83.5867
783.484	84.368
785.182	86.167
786.881	86.1729
788.579	85.8404
790.276	87.0863
791.974	87.3531
793.671	87.5795
795.367	88.0402
797.064	88.2299
798.76	88.0813
800.456	88.2667
802.151	87.9339
803.846	88.153
805.541	87.6644
807.236	87.8637
808.93	87.2803
810.624	86.4368
812.317	85.8519
814.01	84.9602
815.703	84.6471
817.394	85.7724
819.086	85.7598
820.778	85.2425
822.47	85.4171
824.161	85.4502
825.852	85.4894
827.543	85.8338
829.231	85.9335
830.921	86.7559
832.611	85.6925
834.3	85.3295
835.989	84.6749
837.676	83.0387
839.364	81.7746
841.053	79.8699
842.74	78.9338
844.426	77.612
846.113	76.82
847.8	75.6159
849.486	73.9481
851.171	72.1831
852.857	70.5857
854.542	70.285
856.227	68.5427
857.911	67.3568
859.595	67.2427
861.279	66.1466
862.961	65.2922
864.645	65.2445
866.329	64.52
868.01	64.1848
869.692	63.0306
871.375	62.0357
873.055	62.3658
874.737	61.9351
876.418	61.23
878.097	60.7738
879.778	59.8071
881.457	58.2417
883.137	57.5318
884.817	57.2273
886.495	56.6037
888.174	55.7787
889.851	55.3601
891.53	54.1641
893.206	54.6074
894.884	54.2805
896.562	54.1668
898.237	54.5893
899.914	54.4517
901.589	54.8876
903.265	54.4233
904.94	54.6101
906.615	54.691
908.289	53.9432
909.964	53.8428
911.637	53.7119
913.31	53.0503
914.984	51.4664
916.656	50.1336
918.33	49.2363
920.001	48.9575
921.674	47.796
923.345	47.9975
925.015	47.2467
926.687	47.1603
928.357	46.5398
930.028	46.1515
931.698	45.0113
933.366	44.2093
935.037	43.5008
936.705	43.9682
938.373	44.4446
940.043	43.8179
941.71	44.6203
943.379	44.9397
945.046	44.4599
946.712	44.3011
948.378	43.8943
950.046	43.4206
951.711	43.1434
953.376	43.0643
955.043	43.6289
956.708	43.1216
958.372	42.1684
960.036	41.4584
961.701	40.8807
963.364	40.9852
965.027	41.5853
966.69	42.4851
968.354	42.0955
970.016	42.3482
971.678	42.2997
973.339	43.8514
975	44.0075
976.661	45.1459
978.324	44.3374
979.984	44.0276
981.644	44.0787
983.303	43.4863
984.962	43.1024
986.621	41.9736
988.282	41.7232
989.94	41.9276
991.598	41.1541
993.256	40.8793
994.913	40.1381
996.57	39.4105
998.227	38.812
999.884	38.5201
1001.54	38.4323
1003.2	38.4333
1004.85	37.473
1006.51	37.9394
1008.16	37.2611
1009.82	37.6936
1011.47	37.4803
1013.12	37.0495
1014.78	37.1546
1016.43	37.838
1018.08	38.0804
1019.74	38.2795
1021.39	37.831
1023.04	38.1383
1024.69	38.8442
1026.34	37.9904
1028	37.7527
1029.65	38.2367
1031.3	38.4637
1032.95	38.6963
1034.6	39.1801
1036.25	39.4619
1037.9	39.422
1039.55	39.283
1041.19	38.7422
1042.84	38.7266
1044.49	39.1953
1046.14	39.6284
1047.79	39.8261
1049.43	38.8302
1051.08	37.2986
1052.73	37.1811
1054.37	36.3258
1056.02	35.8957
1057.66	34.0888
1059.31	31.8055
1060.95	29.63
1062.6	28.8632
1064.24	27.1231
1065.88	26.5137
1067.53	25.6735
1069.17	24.7981
1070.81	23.6254
1072.46	22.9704
1074.1	21.0185
1075.74	20.4232
1077.38	20.653
1079.02	20.7071
1080.66	20.1999
1082.3	19.2563
1083.94	19.356
1085.58	18.9397
1087.22	18.445
1088.86	18.4146
1090.5	18.305
1092.14	19.3462
1093.78	19.0086
1095.42	18.5328
1097.05	18.4959
1098.69	17.7778
1100.33	17.7417
1101.97	17.9261
1103.6	18.469
1105.24	19.1642
1106.87	18.8466
1108.51	18.8307
1110.15	18.9334
1111.78	19.7216
1113.41	20.0383
1115.05	19.7189
1116.68	19.3023
1118.31	18.5735
1119.95	17.8528
1121.58	17.7699
1123.21	16.4427
1124.85	16.9913
1126.48	16.0283
1128.11	15.76
1129.74	15.9556
1131.37	14.7313
1133	13.4744
1134.63	12.4789
1136.26	11.2777
1137.89	10.2651
1139.52	9.25663
1141.15	7.39693
1142.78	6.94247
1144.41	6.6898
1146.04	6.19018
1147.66	6.20995
1149.29	5.17998
1150.92	4.25182
1152.55	3.92499
1154.17	4.98074
1155.8	5.2852
1157.43	4.65936
1159.05	3.84639
1160.68	2.92099
1162.3	1.95606
1163.93	2.27659
1165.55	2.13918
1167.17	2.29814
1168.8	3.3281
1170.42	4.6246
1172.05	5.6402
1173.67	6.54671
1175.29	7.38904
1176.91	7.95076
1178.54	8.70267
1180.16	9.68337
1181.78	10.0165
1183.4	10.7479
1185.02	11.3515
1186.64	10.9815
1188.26	10.9525
1189.88	9.91499
1191.5	8.94305
1193.12	9.36187
1194.74	10.2054
1196.36	10.3936
1197.97	10.561
1199.59	11.0725
1201.21	12.3803
1202.83	13.4759
1204.44	14.2434
1206.06	15.8147
1207.68	15.7174
1209.29	17.3747
1210.91	18.2574
1212.52	18.0223
1214.14	18.8822
1215.75	19.0221
1217.37	19.8285
1218.98	20.0967
1220.6	21.1879
1222.21	21.8319
1223.82	23.1099
1225.44	24.3048
1227.05	25.4671
1228.66	25.3305
1230.27	26.7943
1231.88	28.0868
1233.49	29.9501
1235.1	30.897
1236.72	31.2369
1238.33	31.177
1239.94	33.0744
1241.55	34.5831
1243.16	35.934
1244.76	38.2782
1246.37	39.8964
1247.98	41.2709
1249.59	43.2314
1251.2	44.2527
1252.8	45.7222
1254.41	47.7137
1256.02	49.0756
1257.63	48.8954
1259.23	50.2913
1260.84	50.4042
1262.44	50.5697
1264.05	51.8805
1265.66	52.6784
1267.26	53.4382
1268.87	54.3369
1270.47	55.3119
1272.07	57.5581
1273.68	58.8974
1275.28	61.0301
1276.88	61.1316
1278.48	62.3547
1280.09	64.0128
1281.69	65.3626
1283.29	65.9596
1284.89	66.6387
1286.49	67.4279
1288.09	67.8427
1289.69	68.4313
1291.3	68.5126
1292.9	68.8612
1294.49	69.0279
1296.09	68.1366
1297.69	68.2321
1299.29	67.5183
1300.89	67.1689
1302.49	66.858
1304.09	66.6568
1305.68	66.9923
1307.28	66.4241
1308.88	66.1834
1310.47	66.6985
1312.07	66.4452
1313.66	65.207
1315.26	64.6543
1316.86	64.0466
1318.45	63.7393
1320.05	63.5723
1321.64	62.9204
1323.23	62.5882
1324.83	62.8634
1326.42	61.8751
1328.01	61.1842
1329.61	61.3154
1331.2	60.2904
1332.79	59.3846
1334.38	58.5905
1335.98	57.6394
1337.57	56.1338
1339.16	55.2659
1340.75	53.3821
1342.34	53.5863
1343.93	52.9804
1345.52	52.0835
1347.11	51.6658
1348.7	50.5451
1350.29	49.7567
1351.87	48.7238
1353.46	47.5525
1355.05	47.2532
1356.64	45.659
1358.23	45.3231
1359.81	44.2924
1361.4	43.3792
1362.99	42.8833
1364.57	42.915
1366.16	42.7092
1367.74	41.2915
1369.33	40.4164
1370.91	39.1855
1372.5	38.221
1374.08	37.3292
1375.67	36.3557
1377.25	36.3547
1378.83	36.1275
1380.42	36.2973
1382	36.0738
1383.58	36.1597
1385.16	35.5893
1386.75	35.5034
1388.33	35.3579
1389.91	35.731
1391.49	35.5408
1393.07	34.6433
1394.65	34.6769
1396.23	33.9453
1397.81	33.903
1399.39	33.4782
1400.97	33.8529
1402.55	34.2406
1404.13	34.8488
1405.7	34.5865
1407.28	35.3281
1408.86	35.8857
1410.44	36.562
1412.01	37.3911
1413.59	39.3407
1415.17	41.0636
1416.74	41.716
1418.32	44.2129
1419.89	46.2814
1421.47	49.2682
1423.05	50.9777
1424.62	53.5604
1426.19	56.1051
1427.77	58.0188
1429.34	60.9841
1430.92	63.8394
1432.49	65.0001
1434.06	67.562
1435.63	70.291
1437.2	72.1093
1438.78	74.4797
1440.35	76.1528
1441.92	77.379
1443.49	78.0686
1445.06	78.0557
1446.63	78.0238
1448.2	78.7915
1449.77	79.3851
1451.34	78.917
1452.91	78.0164
1454.48	77.01
1456.05	75.9831
1457.62	74.7199
1459.18	73.1809
1460.75	71.1861
1462.32	69.2144
1463.89	66.2369
1465.45	64.2163
1467.02	61.2683
1468.59	59.2272
1470.15	55.7655
1471.72	52.3456
1473.28	49.5485
1474.85	46.7648
1476.41	43.8125
1477.98	41.5477
1479.54	40.2546
1481.11	37.9993
1482.67	36.268
1484.23	35.0816
1485.8	33.6074
1487.36	31.6902
1488.92	31.1165
1490.48	30.5012
1492.05	29.3961
1493.61	28.7688
1495.17	27.6546
1496.73	27.1343
1498.29	26.4105
1499.85	26.4277
1501.41	25.7587
1502.97	26.6301
1504.53	26.0296
1506.09	26.9651
1507.65	27.1106
1509.2	26.7492
1510.76	27.0344
1512.32	27.8234
1513.88	28.0083
1515.44	26.7796
1516.99	27.5106
1518.55	27.5882
1520.1	27.24
1521.66	28.2714
1523.22	29.1658
1524.77	29.7049
1526.33	30.5117
1527.88	30.6377
1529.44	30.1028
1530.99	29.8898
1532.55	30.4345
1534.1	30.729
1535.65	31.5792
1537.21	31.5918
1538.76	32.1239
1540.31	32.8196
1541.86	34.4132
1543.42	35.9404
1544.97	37.6377
1546.52	40.1548
1548.07	42.3298
1549.62	43.6011
1551.17	45.9599
1552.72	48.0982
1554.27	50.2266
1555.82	51.8417
1557.37	53.0928
1558.92	54.238
1560.47	55.1386
1562.02	55.7307
1563.57	57.0899
1565.11	59.3573
1566.66	61.4483
1568.21	62.3185
1569.75	63.0652
1571.3	63.9873
1572.85	65.3436
1574.39	66.6535
1575.94	68.6295
1577.49	68.6156
1579.03	70.053
1580.58	71.3588
1582.12	71.4057
1583.67	72.5491
1585.21	72.9923
1586.75	73.1045
1588.3	73.3442
1589.84	71.6955
1591.38	71.9419
1592.93	71.8342
1594.47	71.7918
1596.01	71.3136
1597.55	69.6344
1599.09	69.2396
1600.63	68.0638
1602.18	67.4781
1603.72	66.8889
1605.26	66.3822
1606.8	64.334
1608.34	63.3758
1609.87	63.7326
1611.41	64.2705
1612.95	65.1499
1614.49	65.0302
1616.03	65.6437
1617.57	65.7028
1619.11	66.8011
1620.64	68.7942
1622.18	70.0665
1623.72	71.6888
1625.25	72.112
1626.79	72.4342
1628.32	73.5742
1629.86	74.2123
1631.4	74.8392
1632.93	75.3599
1634.47	76.0184
1636	77.5752
1637.53	77.9391
1639.07	80.1679
1640.6	82.7336
1642.14	83.6633
1643.67	84.045
1645.2	84.871
1646.73	85.4112
1648.27	85.9746
1649.8	87.7017
1651.33	87.7586
1652.86	88.1413
1654.39	87.7776
1655.92	88.658
1657.45	87.7001
1658.98	86.8863
1660.51	85.8299
1662.04	85.0543
1663.57	82.595
1665.1	80.7278
1666.63	78.4614
1668.16	76.8901
1669.69	74.1809
1671.21	71.3475
1672.74	69.2987
1674.27	67.1135
1675.79	65.678
1677.32	63.7647
1678.85	61.5665
1680.37	59.4325
1681.9	57.0895
1683.42	53.8034
1684.95	52.029
1686.47	50.0259
1688	47.5985
1689.52	44.6494
1691.05	41.5438
1692.57	39.8775
1694.1	38.5979
1695.62	37.6463
1697.14	36.2731
1698.66	33.2678
1700.19	31.7898
1701.71	30.0443
1703.23	28.4449
1704.75	27.1235
1706.27	25.5054
1707.79	24.1123
1709.32	22.1774
1710.83	20.5703
1712.35	20.5337
1713.88	19.4485
1715.39	18.8808
1716.91	17.932
1718.43	16.8955
1719.95	16.0416
1721.47	15.5083
1722.99	14.7877
1724.5	14.7074
1726.02	15.0054
1727.54	14.3073
1729.06	14.2985
1730.57	13.9613
1732.09	13.3812
1733.61	12.9404
1735.12	12.9051
1736.64	12.1412
1738.15	11.5998
1739.67	10.7812
1741.18	10.7845
1742.7	10.7311
1744.21	10.4792
1745.72	10.7794
1747.24	11.0029
1748.75	10.9332
1750.26	10.782
1751.78	10.4951
1753.29	10.788
1754.8	10.6695
1756.31	10.2823
1757.82	9.48493
1759.34	8.8859
1760.85	8.28355
1762.36	8.34685
1763.87	7.82779
1765.38	7.10106
1766.89	6.5712
1768.4	6.62989
1769.91	6.2476
1771.41	5.41827
1772.92	4.50541
1774.43	3.85945
1775.94	3.95585
1777.45	4.21414
1778.96	3.5322
1780.46	3.34647
1781.97	2.48317
1783.48	2.14234
1784.98	1.40046
1786.49	1.48279
1788	1.05291
1789.5	0.477688
1791.01	0.404474
1792.51	0.381558
1794.01	0.612232
1795.52	0.486859
1797.02	0.869345
1798.53	1.00188
1800.03	1.1776
1801.54	1.033
1803.04	0.632411
1804.54	1.22022
1806.04	0.863244
1807.54	0.853418
1809.05	1.136
1810.55	1.34822
1812.05	1.26492
1813.55	1.78339
1815.05	2.10731
1816.55	2.34981
1818.05	2.94008
1819.55	3.48333
1821.05	4.1801
1822.55	4.70897
1824.05	4.75171
1825.55	4.93772
1827.05	5.18021
1828.55	5.51834
1830.04	4.72003
1831.54	4.14242
1833.04	4.46712
1834.54	4.31735
1836.03	4.16552
1837.53	4.22455
1839.03	3.78703
1840.52	3.74229
1842.02	3.79879
1843.51	4.07919
1845.01	3.77198
1846.5	3.29204
1848	3.2052
1849.49	3.38877
1850.99	3.66285
1852.48	3.73504
1853.97	3.13619
1855.47	3.71496
1856.96	3.8704
1858.45	4.57826
1859.94	5.36773
1861.44	5.80779
1862.93	5.51014
1864.42	5.7094
1865.91	6.18692
1867.4	6.20047
1868.89	6.74621
1870.38	7.04972
1871.87	7.2022
1873.36	7.31556
1874.85	7.44501
1876.34	8.02322
1877.83	8.18148
1879.32	8.88595
1880.81	8.54576
1882.3	8.84097
1882.56	8.6825
1884.06	9.59687
1885.55	9.74252
1887.04	9.91173
1888.54	9.69008
1890.03	9.4751
1891.52	9.32035
1893.02	8.93514
1894.51	8.46196
1896	7.46323
1897.49	6.3063
1898.99	6.21604
1900.48	6.32636
1901.97	6.16485
1903.46	5.79584
1904.95	5.54347
1906.44	5.39011
1907.93	4.99778
1909.42	4.8432
1910.91	4.00649
1912.4	3.43462
1913.89	3.62203
1915.38	3.05708
1916.86	2.60012
1918.35	3.00718
1919.84	3.2875
1921.33	3.82253
1922.82	4.21099
1924.3	4.87853
1925.79	5.11129
1927.28	5.45138
1928.76	5.47533
1930.25	5.42213
1931.74	5.29742
1933.22	5.37143
1934.71	4.16108
1936.19	4.76955
1937.67	5.48465
1939.16	6.04345
1940.64	5.60519
1942.13	5.85181
1943.61	5.57089
1945.09	5.80242
1946.58	5.57895
1948.06	5.22592
1949.54	4.93428
1951.03	4.36154
1952.51	4.68169
1953.99	4.18737
1955.47	4.18284
1956.95	4.66243
1958.43	4.90485
1959.91	4.32627
1961.39	3.76132
1962.87	3.3984
1964.35	2.96335
1965.83	2.87954
1967.31	3.2268
1968.79	3.26148
1970.27	2.7552
1971.75	3.55995
1973.22	4.45158
1974.7	4.95217
1976.18	5.08467
1977.66	5.12086
1979.13	5.06013
1980.61	5.35281
1982.09	5.58928
1983.56	6.04179
1985.04	6.40364
1986.52	7.51406
1987.99	8.61206
1989.47	8.83371
1990.94	9.76616
1992.41	10.5048
1993.89	11.0587
1995.36	11.8525
1996.84	12.1265
1998.31	12.2655
1999.78	12.3
2001.26	12.1484
2002.73	11.5947
2004.2	12.2985
2005.67	12.7425
2007.15	12.7384
2008.62	12.3909
2010.09	13.0275
2011.56	12.9892
2013.03	12.3638
2014.5	11.6172
2015.97	11.2357
2017.44	10.2808
2018.91	9.96937
2020.38	9.22817
2021.85	8.9275
2023.32	8.43428
2024.79	8.20208
2026.25	8.17593
2027.72	7.97636
2029.19	7.70023
2030.66	7.95321
2032.13	6.93432
2033.59	6.84002
2035.06	6.51253
2036.53	6.20393
2037.99	6.14804
2039.46	6.25798
2040.92	6.19525
2042.39	6.11121
2043.85	6.12068
2045.32	6.49075
2046.78	6.75117
2048.25	7.06334
2049.71	7.65138
2051.18	7.99293
2052.64	8.57219
2054.1	9.38702
2055.56	10.4638
2057.03	11.6001
2058.49	12.5707
2059.95	12.7284
2061.42	13.7937
2062.88	14.3664
2064.34	15.5552
2065.8	16.3727
2067.26	17.7112
2068.72	18.2639
2070.18	18.8826
2071.64	19.7221
2073.1	20.6046
2074.56	21.1501
2076.02	22.3207
2077.48	23.4441
2078.94	23.8655
2080.39	24.1997
2081.85	25.0619
2083.31	26.4497
2084.77	27.7779
2086.22	27.9084
2087.68	28.6844
2089.14	28.803
2090.6	29.5094
2092.05	30.9443
2093.51	32.1199
2094.96	32.4475
2096.42	33.8431
2097.87	35.3265
2099.33	36.6189
2100.78	37.2944
2102.24	37.663
2103.69	39.4758
2105.15	40.3492
2106.6	41.6696
2108.05	43.4626
2109.51	44.3997
2110.96	45.965
2112.41	47.5894
2113.86	48.8358
2115.32	50.4459
2116.77	51.8788
2118.22	53.5623
2119.67	55.6986
2121.12	57.0599
2122.57	58.9844
2124.02	60.8876
2125.47	62.3546
2126.92	64.6384
2128.37	66.5252
