#Acq. time (s)=	45
#Accumulations=	2
#Range (cm-¹)=	200...3150
#Windows=	2
#Auto scanning=	Off
#Autofocus=	Off
#Macrospot=	Off
#AutoExposure=	Off
#Spike filter=	Multiple accum.
#Delay time (s)=	0
#Binning=	1
#Readout mode=	Signal
#DeNoise=	Off
#ICS correction=	On
#Dark correction=	Off
#Inst. Process=	Off
#Detector Gain=	Best Dynamic Range
#Detector ADC=	20 kHz       
#Detector temperature (°C)=	-69.85
#Instrument=	LabRAM HR Evol
#Detector=	Synapse
#Objective=	x100
#Grating=	600 gr/mm
#ND Filter=	100%
#Laser (nm)=	532 
#Hole=	100.021
#Range=	Auto
#Laser Pol.=	No
#Raman. Pol.=	No
#Laser Pol. (°)=	-0.0007625
#Raman Pol. (°)=	89.9995
#Collection=	Microscope
#StageXY=	Marzhauser
#StageZ=	Marzhauser
#X (µm)=	-1435.8
#Y (µm)=	-613.2
#Z (µm)=	-227.9
#Full time(mm:ss)=	3:18
#Project=	
#Sample=	
#Site=	
#Title=	Thy_00_07_45_2x_45s_532 nm_x100_100%_600 gr_mm
#Remark=	
#Date=	29.06.2022 09:41
#Acquired=	29.06.2022 09:41:23
#Base:Fit=	10.08.2022 10:07:56
#Base:Sub=	10.08.2022 10:08:40
#Filter:Polynom=	16.08.2022 10:26:06
#AxisType[0]=Intens
#AxisUnit[0]=Cnt
#AxisType[1]=Spectr
#AxisUnit[1]=1/cm
200.523	19.4384
202.339	20.3986
204.154	20.7208
205.967	21.4611
207.781	21.39
209.596	21.6591
211.409	22.6338
213.222	23.3125
215.034	24.3272
216.848	25.9774
218.659	26.6517
220.47	27.3745
222.281	27.176
224.091	27.4278
225.903	27.5729
227.713	27.0919
229.522	26.9965
231.331	25.4921
233.14	25.0265
234.948	24.4525
236.756	22.68
238.566	21.2934
240.373	20.8091
242.18	19.3976
243.986	19.1768
245.792	19.147
247.598	17.6459
249.403	16.6022
251.208	16.1627
253.013	15.5264
254.818	15.2181
256.624	15.2859
258.427	13.4441
260.231	12.613
262.034	11.9899
263.836	11.7383
265.638	10.9804
267.44	9.91074
269.242	10.2813
271.043	10.4511
272.844	9.25906
274.645	9.24547
276.445	9.00011
278.245	8.48133
280.044	7.30171
281.843	7.56484
283.642	7.58117
285.44	7.80829
287.238	7.71169
289.036	8.52694
290.833	8.98374
292.63	10.4178
294.425	11.5566
296.221	12.6123
298.017	14.657
299.813	15.2688
301.608	16.1788
303.403	16.5075
305.198	17.4824
306.992	18.0792
308.786	17.5676
310.579	18.3567
312.371	18.703
314.163	19.9022
315.956	19.4573
317.748	19.4489
319.54	19.3132
321.331	18.7993
323.122	19.9993
324.911	19.8774
326.701	19.0799
328.491	20.0456
330.281	20.7344
332.071	20.8664
333.857	21.717
335.646	22.0069
337.434	20.7845
339.222	22.0689
341.008	21.9237
342.795	21.443
344.582	20.5492
346.369	18.5021
348.153	17.3188
349.939	16.9662
351.724	16.8547
353.51	15.6239
355.292	14.4159
357.077	13.8406
358.861	13.6778
360.643	13.2593
362.426	12.8975
364.21	11.844
365.99	10.469
367.773	9.58738
369.555	8.44715
371.335	8.56631
373.116	8.50973
374.897	7.96992
376.676	7.32248
378.456	7.22574
380.236	6.7549
382.014	6.18696
383.793	5.0157
385.57	4.73535
387.349	4.17514
389.127	3.6195
390.903	4.51542
392.681	5.4901
394.456	5.80658
396.233	5.54729
398.007	5.83195
399.784	6.70096
401.56	7.13067
403.333	7.5002
405.108	7.36235
406.881	7.61438
408.656	7.70245
410.428	8.84033
412.202	10.2803
413.973	10.5198
415.746	10.9317
417.517	12.2393
419.29	12.375
421.06	13.2979
422.831	14.1698
424.601	14.807
426.37	14.4466
428.141	13.9246
429.909	12.5169
431.679	12.664
433.447	11.4304
435.216	12.0576
436.983	13.0231
438.75	13.5987
440.519	14.1174
442.285	14.3025
444.052	15.4969
445.818	16.9831
447.583	18.5974
449.349	19.3835
451.114	20.2563
452.878	20.3419
454.643	21.5517
456.407	22.3942
458.169	23.0249
459.934	24.481
461.696	25.1442
463.458	26.1823
465.222	26.9185
466.983	27.2073
468.744	28.1892
470.507	29.207
472.267	30.6461
474.027	32.0805
475.787	33.4421
477.548	34.5944
479.307	35.0175
481.065	34.9325
482.823	34.4115
484.583	34.4705
486.341	34.6637
488.098	35.3403
489.855	35.7802
491.612	35.1234
493.37	34.5081
495.126	34.3167
496.881	34.6135
498.636	34.7121
500.391	34.7153
502.148	33.6691
503.902	32.8681
505.656	32.1677
507.409	31.5527
509.162	30.5276
510.915	29.1748
512.668	27.6674
514.42	24.9433
516.174	22.8044
517.925	21.7056
519.676	21.4577
521.427	20.8666
523.178	21.3358
524.928	20.3077
526.678	19.3134
528.427	18.6989
530.176	18.035
531.925	16.9635
533.673	15.6201
535.422	15.9437
537.169	15.671
538.917	15.0238
540.664	14.9933
542.411	15.0232
544.157	14.947
545.903	15.088
547.649	15.321
549.395	14.8275
551.14	15.1246
552.884	14.8412
554.629	14.8759
556.373	15.8557
558.117	15.9719
559.86	15.5705
561.603	14.562
563.346	14.9664
565.089	14.3919
566.831	13.4156
568.573	13.5243
570.314	13.6478
572.053	13.4424
573.794	13.2962
575.534	12.5292
577.274	11.7172
579.014	11.153
580.754	11.3483
582.493	12.0055
584.23	11.6909
585.968	10.9109
587.706	10.7651
589.444	10.8751
591.181	10.451
592.919	10.0952
594.653	9.91402
596.39	8.7862
598.126	8.52832
599.862	7.71175
601.595	6.40948
603.33	5.9254
605.065	5.55643
606.8	6.65608
608.532	6.48977
610.266	5.59061
611.999	5.06836
613.732	5.21097
615.463	4.838
617.196	4.74533
618.928	4.47987
620.66	4.96258
622.389	6.04189
624.12	5.8596
625.851	5.25752
627.58	5.47636
629.31	5.61752
631.04	5.45321
632.767	4.65526
634.497	4.034
636.223	4.74926
637.952	5.76538
639.68	6.50493
641.406	6.61416
643.134	6.50323
644.861	6.80451
646.586	6.36074
648.312	6.79527
650.037	7.68728
651.762	6.99072
653.486	6.39435
655.211	6.86663
656.936	6.8233
658.659	6.45496
660.383	6.69716
662.105	6.76155
663.829	7.22469
665.55	7.59611
667.273	7.86465
668.994	8.86201
670.716	8.1808
672.436	8.98446
674.158	10.4766
675.877	12.139
677.598	12.7748
679.317	14.515
681.035	15.6625
682.755	16.85
684.473	18.3224
686.192	19.2915
687.909	20.8918
689.628	22.526
691.344	24.219
693.06	26.0813
694.778	26.4705
696.493	27.192
698.211	28.0946
699.925	28.7145
701.64	28.6898
703.356	29.7659
705.07	29.1534
706.783	29.3482
708.498	30.5657
710.211	30.686
711.924	31.7107
713.638	32.5043
715.35	34.5651
717.061	34.3336
718.774	35.181
720.485	37.7354
722.196	40.007
723.906	40.4798
725.618	40.6887
727.328	40.7745
729.037	41.4698
730.746	43.0121
732.456	43.6925
734.165	45.1233
735.873	46.1247
737.58	46.4346
739.289	47.2873
740.997	48.5536
742.703	49.3795
744.41	50.6496
746.116	51.3131
747.823	51.9012
749.529	52.2417
751.234	53.4867
752.938	55.1561
754.643	56.294
756.347	56.5582
758.051	59.1121
759.756	60.4446
761.459	61.7542
763.162	62.9219
764.865	63.6018
766.567	63.2818
768.269	63.77
769.97	63.717
771.671	64.4818
773.372	64.5135
775.073	64.4014
776.773	64.4855
778.473	65.1032
780.174	64.7405
781.874	64.582
783.573	64.2873
785.271	64.7782
786.97	64.8957
788.668	65.4653
790.365	65.349
792.063	66.3852
793.76	66.8466
795.456	66.825
797.153	67.2419
798.847	68.0096
800.543	69.6948
802.238	69.2657
803.933	70.9492
805.628	71.8777
807.322	71.37
809.017	71.9958
810.71	73.5556
812.404	74.7384
814.097	75.9026
815.79	76.7887
817.483	77.2816
819.173	78.3061
820.865	79.1497
822.556	79.1027
824.248	81.3018
825.939	82.4217
827.629	83.3873
829.318	83.9774
831.008	84.4569
832.697	84.9552
834.387	85.7387
836.076	86.5699
837.765	86.9579
839.451	86.4924
841.139	87.0759
842.827	87.8128
844.514	86.6389
846.2	85.6118
847.886	84.9173
849.573	82.5056
851.259	80.757
852.943	79.3129
854.629	77.3671
856.314	76.8417
857.997	74.4954
859.682	73.8443
861.366	72.5902
863.05	70.268
864.732	68.7453
866.415	67.7772
868.098	66.5753
869.779	65.6032
871.461	63.7344
873.141	62.2934
874.823	60.4036
876.505	58.3925
878.184	57.1127
879.865	56.3299
881.545	55.5905
883.223	55.7798
884.903	53.8171
886.581	52.2433
888.26	51.984
889.937	52.0042
891.616	51.576
893.294	51.5421
894.97	50.8693
896.648	49.9824
898.323	51.1604
900	51.8744
901.675	52.9078
903.351	53.9309
905.026	55.2056
906.701	56.0932
908.375	58.1939
910.05	59.1393
911.723	60.2699
913.398	60.8843
915.07	62.3847
916.742	62.6097
918.415	63.2266
920.087	63.5016
921.76	63.3266
923.43	63.7697
925.103	64.139
926.773	63.8455
928.443	62.4905
930.114	62.1987
931.783	61.2155
933.454	58.8175
935.123	57.5939
936.791	56.3173
938.461	55.7476
940.128	55.6182
941.796	53.3379
943.464	51.6876
945.131	50.1866
946.797	49.1316
948.465	47.6522
950.131	45.8184
951.797	44.7287
953.462	43.1747
955.128	41.1429
956.793	39.1183
958.457	35.9748
960.121	33.8706
961.786	33.01
963.45	31.6423
965.113	31.5278
966.775	31.2368
968.44	30.6661
970.102	31.6085
971.763	32.2826
973.425	32.1618
975.086	31.4201
976.748	31.9493
978.409	32.6089
980.069	33.4035
981.729	34.6814
983.388	34.454
985.048	34.2957
986.708	33.6532
988.367	34.6819
990.025	35.4509
991.683	35.7698
993.341	36.3322
994.998	35.9955
996.655	36.286
998.312	36.9011
999.969	36.8264
1001.62	37.7192
1003.28	38.5402
1004.94	39.6906
1006.59	40.8916
1008.25	40.7733
1009.9	40.2326
1011.56	40.4006
1013.21	41.3117
1014.86	41.1918
1016.52	41.0824
1018.17	41.7061
1019.82	42.3965
1021.48	42.5959
1023.13	42.1795
1024.78	40.6895
1026.43	40.8391
1028.08	41.0617
1029.73	39.9478
1031.38	39.2305
1033.03	38.2194
1034.68	37.0779
1036.33	34.7092
1037.98	33.3506
1039.63	32.6954
1041.28	31.8052
1042.93	32.5887
1044.57	33.5033
1046.22	33.536
1047.87	34.0239
1049.52	33.7461
1051.16	33.6607
1052.81	32.7444
1054.45	32.7701
1056.1	31.5674
1057.75	31.9641
1059.39	32.0379
1061.04	31.8397
1062.68	31.5866
1064.32	31.0911
1065.97	30.2113
1067.61	29.8661
1069.25	30.0126
1070.9	30.6173
1072.54	30.724
1074.18	30.5416
1075.82	31.4946
1077.47	32.4766
1079.11	33.4412
1080.75	34.7723
1082.39	35.1629
1084.03	35.9427
1085.67	36.9115
1087.31	37.6489
1088.95	38.7183
1090.59	39.7571
1092.22	42.0481
1093.86	44.5685
1095.5	45.2158
1097.14	44.9914
1098.78	45.6857
1100.41	46.497
1102.05	46.7028
1103.69	46.8667
1105.32	47.0034
1106.96	47.1506
1108.59	47.9671
1110.23	47.5143
1111.86	46.0607
1113.5	46.2617
1115.13	44.5067
1116.77	44.6863
1118.4	44.4116
1120.03	44.0349
1121.67	43.8459
1123.3	42.974
1124.93	43.0842
1126.56	42.9621
1128.19	42.8485
1129.83	41.7031
1131.46	40.0129
1133.09	39.1239
1134.72	38.4199
1136.35	37.9529
1137.98	36.6923
1139.61	35.0493
1141.24	33.3142
1142.86	32.3112
1144.49	30.3073
1146.12	28.5997
1147.75	27.0697
1149.38	26.0191
1151	24.4931
1152.63	22.2532
1154.26	20.6045
1155.88	19.8585
1157.51	18.2847
1159.14	16.0704
1160.76	13.2799
1162.39	11.5723
1164.01	9.70635
1165.63	9.04799
1167.26	8.01327
1168.88	6.76822
1170.51	6.36977
1172.13	5.6617
1173.75	4.61873
1175.38	3.43107
1177	2.51744
1178.62	2.43796
1180.24	3.04625
1181.86	3.00255
1183.48	4.17475
1185.1	4.8269
1186.72	5.40013
1188.34	6.08952
1189.96	6.36022
1191.58	6.46575
1193.2	7.20477
1194.82	8.96042
1196.44	10.3123
1198.06	11.5764
1199.68	13.9143
1201.29	16.6345
1202.91	18.9926
1204.53	21.0612
1206.14	23.1459
1207.76	24.7104
1209.38	25.1449
1210.99	25.4143
1212.61	27.7125
1214.22	30.3307
1215.84	32.2662
1217.45	33.5723
1219.07	34.9396
1220.68	36.7463
1222.29	39.683
1223.91	41.6615
1225.52	42.7587
1227.13	44.2138
1228.74	45.1406
1230.36	45.6124
1231.97	45.7654
1233.58	45.9056
1235.19	46.4408
1236.8	46.7812
1238.41	46.4083
1240.02	45.9359
1241.63	46.2299
1243.24	46.8744
1244.85	46.1951
1246.46	46.0296
1248.07	45.3824
1249.67	44.6746
1251.28	44.113
1252.89	43.2591
1254.5	42.8122
1256.1	42.3796
1257.71	42.6739
1259.32	42.3033
1260.92	42.2527
1262.53	42.6591
1264.13	43.1299
1265.74	41.9003
1267.34	41.861
1268.95	42.1372
1270.55	42.0258
1272.15	42.7302
1273.76	42.9596
1275.36	43.9044
1276.97	44.4272
1278.57	45.1326
1280.17	47.0214
1281.77	48.3224
1283.37	47.9663
1284.97	49.4291
1286.58	50.2708
1288.18	50.9773
1289.78	52.038
1291.38	54.1795
1292.98	56.9306
1294.58	58.5047
1296.18	61.0191
1297.78	63.2771
1299.37	65.4109
1300.97	68.0328
1302.57	69.4365
1304.17	70.5617
1305.77	72.824
1307.36	74.3546
1308.96	76.3687
1310.55	78.205
1312.15	80.2663
1313.75	81.7194
1315.34	83.8087
1316.94	85.0543
1318.53	86.6622
1320.13	87.654
1321.72	88.8227
1323.32	89.005
1324.91	89.9392
1326.5	90.4827
1328.1	90.3391
1329.69	90.3506
1331.28	90.2415
1332.87	90.6161
1334.47	91.1996
1336.06	90.7515
1337.65	91.2078
1339.24	90.2857
1340.83	90.1897
1342.42	89.1111
1344.01	88.1409
1345.6	87.414
1347.19	86.1171
1348.78	85.1035
1350.37	83.6276
1351.96	82.1497
1353.54	79.8372
1355.13	79.21
1356.72	77.6344
1358.31	77.5639
1359.89	76.3412
1361.48	75.2294
1363.07	72.7086
1364.65	71.3445
1366.24	70.1955
1367.82	69.2197
1369.41	68.0139
1370.99	67.394
1372.58	66.4108
1374.16	65.8465
1375.75	64.9228
1377.33	64.1507
1378.91	64.2792
1380.5	63.6698
1382.08	62.7921
1383.66	63.0132
1385.25	63.5267
1386.83	62.1217
1388.41	62.4234
1389.99	61.6502
1391.57	61.4329
1393.15	61.3924
1394.73	60.8656
1396.31	59.677
1397.89	60.1183
1399.47	59.0467
1401.05	58.1733
1402.63	58.1621
1404.21	57.8504
1405.78	57.0963
1407.36	57.8944
1408.94	57.9874
1410.52	58.0097
1412.1	58.1551
1413.67	58.907
1415.25	59.6731
1416.82	61.6642
1418.4	62.7839
1419.98	64.0704
1421.55	64.8676
1423.13	66.4925
1424.7	67.985
1426.28	69.0943
1427.85	71.1109
1429.42	73.265
1431	74.7455
1432.57	76.7404
1434.14	79.6576
1435.71	82.0661
1437.29	84.3336
1438.86	84.9154
1440.43	86.4957
1442	87.7552
1443.57	89.3588
1445.14	90.8876
1446.71	90.6598
1448.28	89.9025
1449.85	90.4518
1451.42	90.2265
1452.99	90.0064
1454.56	88.3314
1456.13	87.7185
1457.7	86.0452
1459.26	83.2014
1460.83	81.0336
1462.4	79.4229
1463.97	76.5913
1465.54	73.4531
1467.1	71.3754
1468.67	68.0862
1470.23	64.5516
1471.8	60.8227
1473.36	57.1581
1474.93	53.7379
1476.49	50.8126
1478.06	46.6019
1479.62	43.8149
1481.19	40.342
1482.75	36.3607
1484.31	34.1498
1485.88	31.5742
1487.44	28.4273
1489	26.064
1490.56	23.8254
1492.13	22.2077
1493.69	20.7097
1495.25	19.2203
1496.81	17.1035
1498.37	15.7006
1499.93	15.6284
1501.49	15.2964
1503.05	15.2969
1504.61	14.6165
1506.17	13.9863
1507.73	13.9878
1509.28	14.251
1510.84	14.4684
1512.4	14.9883
1513.96	14.8459
1515.52	14.6606
1517.07	14.88
1518.63	15.9802
1520.19	16.0855
1521.74	15.9665
1523.3	16.4653
1524.85	16.9879
1526.41	17.8246
1527.96	17.8339
1529.52	18.6384
1531.07	19.2228
1532.63	20.1858
1534.18	21.3697
1535.73	21.8386
1537.29	23.2319
1538.84	24.9873
1540.39	26.6375
1541.94	27.768
1543.5	28.8692
1545.05	30.2298
1546.6	30.6769
1548.15	31.1743
1549.7	32.495
1551.25	34.4863
1552.8	35.5599
1554.35	36.8381
1555.9	37.2366
1557.45	38.7552
1559	39.3276
1560.55	39.9289
1562.1	41.3234
1563.65	41.8705
1565.19	42.8949
1566.74	44.2172
1568.29	44.9016
1569.83	46.6369
1571.38	47.361
1572.93	48.3586
1574.47	49.8455
1576.02	51.6341
1577.56	52.6234
1579.11	52.0541
1580.66	52.5109
1582.2	52.8914
1583.74	54.3458
1585.29	56.2733
1586.83	56.9161
1588.38	57.1948
1589.92	57.922
1591.46	59.0533
1593.01	60.1556
1594.55	60.81
1596.09	61.1213
1597.63	60.7766
1599.17	60.1098
1600.71	60.2219
1602.25	59.8367
1603.79	58.7619
1605.34	58.6083
1606.88	59.259
1608.41	58.6151
1609.95	58.5183
1611.49	58.2319
1613.03	58.1278
1614.57	59.2256
1616.11	59.7743
1617.65	59.973
1619.18	59.9453
1620.72	60.0059
1622.26	59.6297
1623.79	59.2205
1625.33	59.8652
1626.87	60.4789
1628.4	61.3469
1629.94	60.8986
1631.48	61.4074
1633.01	61.8824
1634.55	62.3099
1636.08	62.3669
1637.61	62.3863
1639.15	63.1391
1640.68	64.3634
1642.21	66.119
1643.75	67.1781
1645.28	68.1936
1646.81	69.1555
1648.34	69.6184
1649.88	70.9638
1651.41	72.222
1652.94	71.7165
1654.47	71.4067
1656	71.6741
1657.53	72.0068
1659.06	71.9023
1660.59	72.4838
1662.12	71.5718
1663.65	70.8678
1665.18	70.195
1666.71	68.9429
1668.24	67.6966
1669.76	65.8865
1671.29	63.9471
1672.82	61.895
1674.35	59.6072
1675.87	57.5132
1677.4	55.7879
1678.93	54.0354
1680.45	52.0162
1681.98	51.101
1683.5	48.5397
1685.03	46.5071
1686.55	45.1557
1688.08	43.3657
1689.6	41.5367
1691.13	39.8735
1692.65	37.2014
1694.17	34.1832
1695.7	31.3196
1697.22	29.1158
1698.74	26.5461
1700.27	25.2163
1701.79	24.2095
1703.31	22.0525
1704.83	21.5689
1706.35	19.5058
1707.87	18.6241
1709.39	17.4396
1710.91	16.3391
1712.43	16.3546
1713.95	15.1882
1715.47	15.1921
1716.99	15.4851
1718.51	15.0198
1720.03	14.5204
1721.55	13.643
1723.07	12.9993
1724.58	13.5806
1726.1	13.443
1727.62	13.5734
1729.13	12.9201
1730.65	13.158
1732.17	13.5206
1733.68	13.6712
1735.2	13.9994
1736.72	14.1751
1738.23	13.9368
1739.74	14.8182
1741.26	14.4068
1742.77	14.5557
1744.29	15.0316
1745.8	15.6449
1747.32	15.2845
1748.83	15.15
1750.34	15.3932
1751.85	15.0268
1753.37	14.8974
1754.88	15.0707
1756.39	14.4328
1757.9	13.6573
1759.41	12.9825
1760.92	12.0772
1762.44	11.9787
1763.95	10.7708
1765.46	10.361
1766.96	9.25725
1768.47	8.24193
1769.98	7.48547
1771.49	7.07535
1773	6.79438
1774.51	6.44193
1776.02	6.33904
1777.53	5.83262
1779.03	4.99415
1780.54	5.16707
1782.05	4.44067
1783.55	4.3678
1785.06	3.94604
1786.57	3.90963
1788.07	3.54151
1789.58	3.13113
1791.08	2.9816
1792.59	3.09816
1794.09	2.92655
1795.6	2.89359
1797.1	3.00566
1798.61	3.68691
1800.11	4.26905
1801.61	4.43875
1803.12	4.56285
1804.62	4.54151
1806.12	4.58127
1807.62	5.01219
1809.12	5.1709
1810.63	5.37003
1812.13	5.70973
1813.63	6.45226
1815.13	6.77835
1816.63	6.10884
1818.13	6.46489
1819.63	6.39576
1821.13	6.5425
1822.63	6.12098
1824.13	5.87618
1825.63	6.07192
1827.13	5.89858
1828.62	5.95267
1830.12	5.63842
1831.62	5.8984
1833.12	6.71276
1834.61	7.11736
1836.11	7.14406
1837.61	8.26483
1839.1	7.96949
1840.6	8.57299
1842.09	7.96547
1843.59	8.08072
1845.09	8.21144
1846.58	8.46582
1848.08	8.56655
1849.57	8.67492
1851.06	8.35513
1852.56	8.51813
1854.05	8.95
1855.54	8.79732
1857.04	9.02972
1858.53	8.45054
1860.02	8.55668
1861.51	9.17294
1863.01	9.33566
1864.5	9.06221
1865.99	8.3333
1867.48	8.25693
1868.97	7.86935
1870.46	8.16329
1871.95	8.60381
1873.44	9.24166
1874.93	9.22726
1876.42	9.37919
1877.91	9.17426
1879.4	9.53734
1880.89	9.21545
1882.37	9.74278
1882.46	9.7723
1883.95	9.40872
1885.45	9.23621
1886.94	8.42884
1888.43	7.62934
1889.93	6.65944
1891.42	6.62071
1892.91	5.986
1894.41	6.03316
1895.9	5.73994
1897.39	5.7529
1898.88	6.00101
1900.37	6.20195
1901.86	5.89389
1903.36	6.47201
1904.85	6.91903
1906.34	6.6012
1907.83	5.72746
1909.32	5.66716
1910.81	5.64831
1912.29	5.32321
1913.78	5.14437
1915.27	4.60478
1916.76	4.4725
1918.25	4.24383
1919.74	4.59958
1921.23	4.69191
1922.71	4.91715
1924.2	4.93105
1925.69	5.12699
1927.17	4.75426
1928.66	3.95476
1930.15	3.6124
1931.63	3.34916
1933.12	3.48341
1934.6	3.00372
1936.09	2.03562
1937.57	1.32502
1939.06	1.77843
1940.54	2.2491
1942.02	2.74237
1943.51	3.30754
1944.99	3.37343
1946.47	3.28855
1947.96	3.51228
1949.44	3.72499
1950.92	4.13633
1952.4	4.66162
1953.88	4.27768
1955.37	4.46819
1956.85	3.94312
1958.33	4.12473
1959.81	4.23552
1961.29	3.649
1962.77	4.18115
1964.25	4.4632
1965.73	5.1897
1967.21	5.77025
1968.69	6.71535
1970.16	6.99418
1971.64	7.11723
1973.12	7.24307
1974.6	7.58753
1976.08	7.31779
1977.55	8.2148
1979.03	8.20046
1980.51	8.85469
1981.98	9.10262
1983.46	9.68795
1984.94	9.97838
1986.41	10.1354
1987.89	9.89448
1989.36	10.0407
1990.84	10.3143
1992.31	11.1441
1993.79	12.1378
1995.26	11.3505
1996.73	10.4653
1998.21	10.28
1999.68	9.20522
2001.15	8.68016
2002.63	7.93643
2004.1	7.93844
2005.57	7.90551
2007.04	6.54513
2008.51	6.07579
2009.99	5.72471
2011.46	6.52652
2012.93	6.47913
2014.4	6.46646
2015.87	6.33193
2017.34	6.64572
2018.81	6.02902
2020.28	6.09438
2021.75	6.13975
2023.21	5.39247
2024.68	5.65153
2026.15	5.035
2027.62	4.75995
2029.09	4.05128
2030.56	4.1105
2032.02	3.64822
2033.49	3.08788
2034.96	3.35539
2036.42	3.2362
2037.89	3.14394
2039.36	3.3249
2040.82	3.68501
2042.29	3.8399
2043.75	3.45601
2045.22	3.70343
2046.68	4.12225
2048.14	4.21231
2049.61	4.38825
2051.07	4.70058
2052.54	4.5426
2054	4.53158
2055.46	4.29679
2056.93	4.14694
2058.39	4.2325
2059.85	4.10202
2061.31	4.15039
2062.77	4.26444
2064.23	5.0617
2065.7	5.9626
2067.16	6.67957
2068.62	6.24197
2070.08	6.36876
2071.54	6.27121
2073	5.91615
2074.46	6.49908
2075.92	6.77556
2077.38	7.07106
2078.83	7.54023
2080.29	7.45441
2081.75	8.32837
2083.21	8.97288
2084.67	9.2721
2086.12	8.98359
2087.58	9.54423
2089.04	8.98361
2090.49	9.05601
2091.95	8.00827
2093.41	8.38653
2094.86	7.35876
2096.32	7.56317
2097.77	7.36316
2099.23	6.44288
2100.68	6.53214
2102.14	6.4647
2103.59	6.91536
2105.05	6.9747
2106.5	7.12911
2107.95	7.42442
2109.41	7.09025
2110.86	7.22853
2112.31	7.16101
2113.76	7.47254
2115.21	6.6979
2116.67	6.37944
2118.12	6.11895
2119.57	5.73021
2121.02	5.34414
2122.47	5.00813
2123.92	4.67962
2125.37	5.00381
2126.82	4.85165
2128.27	5.19958
2129.72	5.21605
2131.17	5.63467
2132.62	5.4264
2134.07	6.26979
2135.51	6.76343
2136.96	7.21878
2138.41	7.44739
