#Acq. time (s)=	45
#Accumulations=	2
#Range (cm-¹)=	200...3150
#Windows=	2
#Auto scanning=	Off
#Autofocus=	Off
#Macrospot=	Off
#AutoExposure=	Off
#Spike filter=	Multiple accum.
#Delay time (s)=	0
#Binning=	1
#Readout mode=	Signal
#DeNoise=	Off
#ICS correction=	On
#Dark correction=	Off
#Inst. Process=	Off
#Detector Gain=	Best Dynamic Range
#Detector ADC=	20 kHz       
#Detector temperature (°C)=	-69.85
#Instrument=	LabRAM HR Evol
#Detector=	Synapse
#Objective=	x100
#Grating=	600 gr/mm
#ND Filter=	100%
#Laser (nm)=	532 
#Hole=	100.021
#Range=	Auto
#Laser Pol.=	No
#Raman. Pol.=	No
#Laser Pol. (°)=	-0.0007625
#Raman Pol. (°)=	89.9995
#Collection=	Microscope
#StageXY=	Marzhauser
#StageZ=	Marzhauser
#X (µm)=	-5913.2
#Y (µm)=	2876.9
#Z (µm)=	-223.7
#Full time(mm:ss)=	3:19
#Project=	
#Sample=	
#Site=	
#Title=	Thy_20_09_22_2x_45s_532 nm_x100_100%_600 gr_mm
#Remark=	
#Date=	29.06.2022 12:13
#Acquired=	29.06.2022 12:13:12
#Base:Fit=	10.08.2022 09:52:02
#Base:Fit=	10.08.2022 09:52:12
#Base:Sub=	10.08.2022 09:54:21
#Filter:Polynom=	16.08.2022 10:24:04
#AxisType[0]=Intens
#AxisUnit[0]=Cnt
#AxisType[1]=Spectr
#AxisUnit[1]=1/cm
200.523	32.9711
202.339	29.8329
204.154	27.4405
205.967	24.474
207.781	21.6224
209.596	19.0214
211.409	16.5694
213.222	14.2434
215.034	12.4291
216.848	11.5247
218.659	10.2727
220.47	9.31186
222.281	7.61395
224.091	6.67928
225.903	5.97273
227.713	4.85905
229.522	4.88373
231.331	4.0122
233.14	3.59844
234.948	2.80841
236.756	3.10785
238.566	2.87349
240.373	2.56376
242.18	2.59669
243.986	2.56064
245.792	1.8995
247.598	1.60936
249.403	2.22991
251.208	2.55691
253.013	2.69021
254.818	3.76748
256.624	3.88314
258.427	4.5406
260.231	4.72294
262.034	5.33928
263.836	4.47632
265.638	5.06563
267.44	4.77651
269.242	4.66395
271.043	5.00436
272.844	4.40205
274.645	3.93722
276.445	3.30119
278.245	3.45288
280.044	4.41861
281.843	4.10245
283.642	4.85962
285.44	4.96653
287.238	4.59823
289.036	4.40308
290.833	5.49408
292.63	6.06278
294.425	5.21896
296.221	5.34309
298.017	5.67388
299.813	5.0631
301.608	5.21759
303.403	5.06602
305.198	6.01439
306.992	6.23617
308.786	6.16665
310.579	6.53043
312.371	5.91655
314.163	6.6781
315.956	7.14215
317.748	7.51518
319.54	8.72954
321.331	8.85369
323.122	9.1488
324.911	9.55167
326.701	10.933
328.491	10.8118
330.281	10.9355
332.071	11.022
333.857	10.6115
335.646	10.7176
337.434	11.9213
339.222	12.5164
341.008	12.2245
342.795	12.8588
344.582	13.4307
346.369	12.6883
348.153	11.8407
349.939	11.1149
351.724	11.6263
353.51	11.2292
355.292	11.4414
357.077	11.0708
358.861	10.822
360.643	9.93319
362.426	9.39844
364.21	9.73795
365.99	9.76482
367.773	10.4894
369.555	9.59001
371.335	9.14701
373.116	8.6933
374.897	8.38148
376.676	8.42546
378.456	8.15542
380.236	7.95907
382.014	6.58696
383.793	4.83628
385.57	4.38592
387.349	3.84052
389.127	3.46179
390.903	3.85421
392.681	4.12854
394.456	5.03453
396.233	3.89752
398.007	4.32742
399.784	3.56224
401.56	3.28524
403.333	3.87766
405.108	4.25436
406.881	5.25063
408.656	6.28884
410.428	5.84244
412.202	5.9126
413.973	6.15453
415.746	6.13691
417.517	5.39277
419.29	5.35838
421.06	5.51828
422.831	6.30721
424.601	7.38632
426.37	7.22977
428.141	6.51418
429.909	6.9602
431.679	7.77597
433.447	7.19078
435.216	6.77697
436.983	7.35504
438.75	7.7672
440.519	8.44855
442.285	7.39567
444.052	7.04814
445.818	6.1218
447.583	6.5458
449.349	6.61203
451.114	7.44938
452.878	8.10183
454.643	7.85474
456.407	8.3414
458.169	8.09212
459.934	8.50219
461.696	8.34821
463.458	8.71034
465.222	8.92685
466.983	9.02737
468.744	9.13559
470.507	9.19888
472.267	9.58502
474.027	9.62669
475.787	10.3665
477.548	11.7506
479.307	12.673
481.065	12.9471
482.823	13.3308
484.583	13.5598
486.341	15.2489
488.098	15.8322
489.855	16.6131
491.612	17.8572
493.37	19.0657
495.126	19.9535
496.881	19.2308
498.636	18.0544
500.391	18.45
502.148	18.2921
503.902	18.1105
505.656	19.1663
507.409	19.6858
509.162	20.2481
510.915	20.3392
512.668	19.5493
514.42	19.1064
516.174	19.8592
517.925	20.1719
519.676	20.098
521.427	19.8638
523.178	19.833
524.928	20.0657
526.678	19.18
528.427	18.9251
530.176	18.6554
531.925	19.2827
533.673	18.8357
535.422	19.4406
537.169	18.5125
538.917	18.318
540.664	17.1466
542.411	16.9673
544.157	15.9512
545.903	14.9601
547.649	14.2889
549.395	14.1518
551.14	14.6116
552.884	14.4323
554.629	14.3895
556.373	14.0152
558.117	13.7803
559.86	12.9099
561.603	12.1735
563.346	12.3618
565.089	12.9667
566.831	12.033
568.573	10.8184
570.314	10.5627
572.053	9.90412
573.794	8.55995
575.534	7.90691
577.274	6.85194
579.014	6.66409
580.754	6.47118
582.493	5.83362
584.23	5.37839
585.968	5.2895
587.706	5.83148
589.444	5.24764
591.181	5.26873
592.919	6.0159
594.653	5.90384
596.39	5.58119
598.126	5.05765
599.862	5.25503
601.595	6.2862
603.33	6.98346
605.065	7.40659
606.8	8.29921
608.532	9.09077
610.266	9.90581
611.999	10.8316
613.732	10.5955
615.463	10.6288
617.196	11.0642
618.928	10.5483
620.66	10.7412
622.389	11.4662
624.12	11.7182
625.851	12.9116
627.58	14.0174
629.31	15.8651
631.04	16.5158
632.767	18.6355
634.497	19.0176
636.223	19.7627
637.952	20.2154
639.68	20.374
641.406	21.0867
643.134	21.115
644.861	20.567
646.586	19.8215
648.312	20.1662
650.037	20.813
651.762	20.7301
653.486	20.0918
655.211	20.0601
656.936	20.7097
658.659	21.208
660.383	21.5438
662.105	22.8567
663.829	23.2746
665.55	24.094
667.273	25.1359
668.994	24.9905
670.716	25.0432
672.436	25.038
674.158	25.6615
675.877	26.4021
677.598	27.8808
679.317	28.1616
681.035	29.3699
682.755	29.7652
684.473	31.1484
686.192	31.7814
687.909	33.1053
689.628	33.5588
691.344	34.6945
693.06	35.041
694.778	36.2192
696.493	37.0224
698.211	36.5212
699.925	35.7413
701.64	36.7873
703.356	37.9831
705.07	39.2826
706.783	41.2906
708.498	42.964
710.211	43.5833
711.924	44.6124
713.638	45.0024
715.35	45.9477
717.061	46.3336
718.774	47.3852
720.485	47.2724
722.196	48.1741
723.906	49.7291
725.618	50.9359
727.328	51.7561
729.037	52.2248
730.746	52.7001
732.456	53.9578
734.165	54.439
735.873	54.8901
737.58	55.8709
739.289	56.2804
740.997	57.0546
742.703	57.8142
744.41	57.9812
746.116	58.0077
747.823	59.3904
749.529	60.4042
751.234	60.7029
752.938	61.2398
754.643	61.897
756.347	63.1139
758.051	64.5086
759.756	66.0247
761.459	67.3036
763.162	67.4468
764.865	67.5701
766.567	68.3615
768.269	68.4975
769.97	68.7551
771.671	68.7546
773.372	70.2552
775.073	70.3
776.773	71.3363
778.473	71.3098
780.174	71.6094
781.874	71.7552
783.573	72.2343
785.271	73.7824
786.97	75.6803
788.668	77.2101
790.365	78.0098
792.063	78.569
793.76	79.0353
795.456	79.0989
797.153	79.8398
798.847	80.6235
800.543	81.715
802.238	82.5781
803.933	83.3969
805.628	84.4582
807.322	85.016
809.017	86.4537
810.71	86.0961
812.404	85.9285
814.097	85.7657
815.79	86.0449
817.483	85.8216
819.173	84.7193
820.865	84.5128
822.556	84.2761
824.248	82.6791
825.939	82.8292
827.629	81.7294
829.318	81.3246
831.008	81.1621
832.697	81.0705
834.387	79.5915
836.076	78.6367
837.765	78.4185
839.451	78.0099
841.139	77.0556
842.827	75.6926
844.514	74.2079
846.2	72.9572
847.886	71.8793
849.573	70.6344
851.259	69.8698
852.943	69.2677
854.629	68.7201
856.314	67.8691
857.997	67.1521
859.682	65.2897
861.366	64.7733
863.05	63.7967
864.732	63.249
866.415	62.8577
868.098	62.4269
869.779	62.1556
871.461	61.5389
873.141	60.0476
874.823	58.6053
876.505	58.0886
878.184	56.288
879.865	55.8579
881.545	55.0144
883.223	54.3498
884.903	53.8665
886.581	54.2007
888.26	53.935
889.937	54.7411
891.616	54.1125
893.294	54.4409
894.97	54.0772
896.648	54.0711
898.323	54.746
900	55.2856
901.675	54.0663
903.351	52.8137
905.026	52.7657
906.701	52.933
908.375	52.5206
910.05	53.0169
911.723	51.8666
913.398	51.2453
915.07	50.0119
916.742	49.5796
918.415	48.2235
920.087	47.7259
921.76	47.7447
923.43	47.508
925.103	46.754
926.773	46.2278
928.443	46.2207
930.114	46.1775
931.783	45.406
933.454	44.9239
935.123	44.6792
936.791	44.1144
938.461	43.1652
940.128	41.1892
941.796	39.6488
943.464	37.7101
945.131	37.154
946.797	36.3087
948.465	35.2139
950.131	34.1543
951.797	34.2696
953.462	33.7691
955.128	32.9833
956.793	31.9548
958.457	30.833
960.121	29.0766
961.786	27.7651
963.45	28.6528
965.113	28.3264
966.775	28.7969
968.44	29.5216
970.102	30.643
971.763	31.0705
973.425	32.6139
975.086	32.6617
976.748	33.7997
978.409	34.4638
980.069	34.631
981.729	34.9798
983.388	34.3673
985.048	34.2163
986.708	34.4562
988.367	35.4909
990.025	35.5957
991.683	35.6668
993.341	34.8828
994.998	34.2483
996.655	34.9262
998.312	35.4092
999.969	35.2072
1001.62	34.4355
1003.28	35.3809
1004.94	35.7878
1006.59	35.115
1008.25	35.035
1009.9	35.0258
1011.56	35.4338
1013.21	34.9939
1014.86	35.1908
1016.52	35.1026
1018.17	33.6927
1019.82	32.3549
1021.48	30.6855
1023.13	30.4177
1024.78	30.2174
1026.43	30.3301
1028.08	30.5678
1029.73	29.8913
1031.38	29.2044
1033.03	28.8885
1034.68	28.9227
1036.33	27.5642
1037.98	26.6655
1039.63	26.077
1041.28	25.3083
1042.93	24.4046
1044.57	24.3617
1046.22	24.3453
1047.87	23.7729
1049.52	23.1694
1051.16	23.6114
1052.81	23.1456
1054.45	22.1297
1056.1	22.1394
1057.75	21.2028
1059.39	20.7502
1061.04	19.8958
1062.68	18.8638
1064.32	17.9593
1065.97	17.4677
1067.61	16.5376
1069.25	16.2404
1070.9	15.9745
1072.54	15.9739
1074.18	15.8829
1075.82	15.6626
1077.47	15.7827
1079.11	15.6702
1080.75	14.981
1082.39	14.1657
1084.03	15.669
1085.67	16.285
1087.31	16.2541
1088.95	16.1491
1090.59	16.1648
1092.22	16.0876
1093.86	16.8841
1095.5	16.3668
1097.14	16.5785
1098.78	17.4215
1100.41	17.8316
1102.05	19.0989
1103.69	20.55
1105.32	22.0248
1106.96	22.5805
1108.59	23.6509
1110.23	24.6146
1111.86	25.1367
1113.5	25.8928
1115.13	26.5708
1116.77	26.6652
1118.4	27.2051
1120.03	27.639
1121.67	27.8734
1123.3	28.0054
1124.93	28.1554
1126.56	28.1374
1128.19	28.1968
1129.83	27.1758
1131.46	27.0347
1133.09	26.8313
1134.72	25.452
1136.35	24.0715
1137.98	23.9624
1139.61	23.0939
1141.24	22.3655
1142.86	21.2797
1144.49	20.005
1146.12	19.6332
1147.75	19.084
1149.38	18.6569
1151	18.5168
1152.63	17.5225
1154.26	17.0632
1155.88	15.8049
1157.51	13.9648
1159.14	12.7747
1160.76	12.1434
1162.39	10.871
1164.01	9.49932
1165.63	8.16949
1167.26	5.58893
1168.88	4.50544
1170.51	3.70886
1172.13	2.98734
1173.75	3.23285
1175.38	2.62607
1177	1.90078
1178.62	2.58424
1180.24	3.26077
1181.86	2.32418
1183.48	3.40424
1185.1	4.12559
1186.72	4.73803
1188.34	5.99343
1189.96	6.92906
1191.58	7.90981
1193.2	8.62235
1194.82	9.25143
1196.44	11.1484
1198.06	12.1311
1199.68	14.1174
1201.29	15.4649
1202.91	16.835
1204.53	19.0956
1206.14	19.7234
1207.76	20.2518
1209.38	22.0771
1210.99	23.4076
1212.61	25.1405
1214.22	26.6071
1215.84	28.7319
1217.45	30.7167
1219.07	32.7208
1220.68	34.4807
1222.29	36.2826
1223.91	36.8818
1225.52	38.7046
1227.13	41.0556
1228.74	41.0017
1230.36	41.865
1231.97	41.6909
1233.58	43.0789
1235.19	43.8469
1236.8	44.2221
1238.41	44.7591
1240.02	45.1832
1241.63	45.3015
1243.24	45.0668
1244.85	45.4735
1246.46	45.7024
1248.07	47.2273
1249.67	48.8349
1251.28	49.2049
1252.89	49.1091
1254.5	49.4493
1256.1	49.3171
1257.71	50.0832
1259.32	50.7935
1260.92	51.9093
1262.53	52.3283
1264.13	53.6526
1265.74	54.7305
1267.34	55.2823
1268.95	56.4955
1270.55	56.7306
1272.15	57.6907
1273.76	58.7958
1275.36	59.079
1276.97	60.372
1278.57	60.493
1280.17	61.3785
1281.77	62.5311
1283.37	62.6835
1284.97	62.645
1286.58	62.848
1288.18	64.0541
1289.78	65.7065
1291.38	66.3029
1292.98	67.1208
1294.58	67.8801
1296.18	68.8523
1297.78	68.6366
1299.37	68.5622
1300.97	68.7123
1302.57	68.8977
1304.17	68.2489
1305.77	68.942
1307.36	69.1006
1308.96	69.1891
1310.55	70.356
1312.15	71.412
1313.75	72.7083
1315.34	71.1949
1316.94	70.7901
1318.53	71.3318
1320.13	70.7322
1321.72	70.8156
1323.32	70.4777
1324.91	71.1731
1326.5	71.1376
1328.1	71.7294
1329.69	70.9707
1331.28	70.2752
1332.87	69.3058
1334.47	69.1289
1336.06	69.1337
1337.65	68.8751
1339.24	69.1033
1340.83	68.428
1342.42	67.9691
1344.01	68.5818
1345.6	68.9076
1347.19	67.5881
1348.78	65.8804
1350.37	64.8959
1351.96	64.3933
1353.54	63.3362
1355.13	62.5596
1356.72	62.5634
1358.31	61.6409
1359.89	61.6123
1361.48	61.1847
1363.07	60.5463
1364.65	59.9688
1366.24	60.9834
1367.82	60.7482
1369.41	59.9556
1370.99	58.3322
1372.58	57.6955
1374.16	56.1086
1375.75	55.794
1377.33	54.9926
1378.91	54.7644
1380.5	53.9452
1382.08	53.7868
1383.66	53.1359
1385.25	53.0999
1386.83	52.8758
1388.41	53.1783
1389.99	52.6172
1391.57	51.6924
1393.15	50.0124
1394.73	48.4792
1396.31	49.1527
1397.89	49.1734
1399.47	47.9219
1401.05	48.1453
1402.63	48.1506
1404.21	48.8399
1405.78	48.0156
1407.36	48.5922
1408.94	47.9191
1410.52	48.2126
1412.1	48.1512
1413.67	49.1832
1415.25	50.11
1416.82	51.2197
1418.4	52.8976
1419.98	53.6887
1421.55	54.5697
1423.13	55.5993
1424.7	55.8486
1426.28	56.9434
1427.85	57.8042
1429.42	60.3718
1431	61.9084
1432.57	63.8787
1434.14	65.8944
1435.71	67.2356
1437.29	68.1173
1438.86	69.0903
1440.43	69.0501
1442	70.1255
1443.57	70.1538
1445.14	69.9308
1446.71	69.3189
1448.28	69.1793
1449.85	69.2715
1451.42	69.4192
1452.99	68.6745
1454.56	68.8252
1456.13	68.6332
1457.7	66.9593
1459.26	65.6084
1460.83	64.6308
1462.4	63.9954
1463.97	62.9896
1465.54	62.0561
1467.1	60.6249
1468.67	59.2205
1470.23	57.0412
1471.8	55.043
1473.36	53.4869
1474.93	52.2891
1476.49	49.7165
1478.06	47.3532
1479.62	45.7476
1481.19	44.0031
1482.75	41.9898
1484.31	39.7396
1485.88	38.3331
1487.44	36.3757
1489	35.6964
1490.56	34.0948
1492.13	33.1028
1493.69	32.0168
1495.25	30.3414
1496.81	28.2707
1498.37	26.8445
1499.93	24.8103
1501.49	24.2409
1503.05	23.395
1504.61	22.6682
1506.17	21.2522
1507.73	21.6116
1509.28	20.4729
1510.84	19.9962
1512.4	19.3947
1513.96	19.2545
1515.52	18.54
1517.07	18.0303
1518.63	18.7861
1520.19	20.1201
1521.74	20.8866
1523.3	21.2026
1524.85	22.503
1526.41	23.5822
1527.96	24.4023
1529.52	25.8718
1531.07	27.3293
1532.63	29.0767
1534.18	30.7505
1535.73	31.7352
1537.29	34.696
1538.84	37.5778
1540.39	39.9235
1541.94	41.3638
1543.5	43.3989
1545.05	45.4071
1546.6	47.6446
1548.15	48.5681
1549.7	50.3927
1551.25	53.1465
1552.8	55.1416
1554.35	57.6386
1555.9	60.643
1557.45	62.5742
1559	64.4198
1560.55	66.1692
1562.1	67.9533
1563.65	68.7641
1565.19	69.2477
1566.74	70.5809
1568.29	71.1697
1569.83	72.2998
1571.38	73.3331
1572.93	73.6569
1574.47	74.4634
1576.02	75.1587
1577.56	74.9205
1579.11	75.4943
1580.66	75.9916
1582.2	75.8607
1583.74	76.6305
1585.29	77.1778
1586.83	76.4987
1588.38	76.4459
1589.92	76.625
1591.46	76.6982
1593.01	76.1245
1594.55	75.8825
1596.09	75.7021
1597.63	75.2659
1599.17	74.0859
1600.71	73.1044
1602.25	72.4706
1603.79	71.3248
1605.34	71.0532
1606.88	70.6371
1608.41	69.5438
1609.95	69.1386
1611.49	68.4605
1613.03	67.3523
1614.57	67.8065
1616.11	66.4771
1617.65	65.3242
1619.18	64.7282
1620.72	64.2252
1622.26	64.0419
1623.79	64.2255
1625.33	63.9737
1626.87	63.9226
1628.4	64.2601
1629.94	64.2829
1631.48	64.8455
1633.01	64.2449
1634.55	63.8662
1636.08	63.7331
1637.61	64.0994
1639.15	64.4481
1640.68	64.5479
1642.21	65.8636
1643.75	67.6353
1645.28	68.3508
1646.81	68.9713
1648.34	69.1338
1649.88	69.1797
1651.41	70.6439
1652.94	71.0532
1654.47	71.3422
1656	71.498
1657.53	71.7521
1659.06	71.8477
1660.59	72.0612
1662.12	71.5464
1663.65	70.8897
1665.18	70.9559
1666.71	70.2555
1668.24	69.4159
1669.76	68.3532
1671.29	67.2005
1672.82	66.1096
1674.35	64.1844
1675.87	61.6282
1677.4	60.2913
1678.93	57.5762
1680.45	55.0114
1681.98	53.1955
1683.5	50.6535
1685.03	48.8466
1686.55	46.4039
1688.08	43.7086
1689.6	41.749
1691.13	40.1546
1692.65	36.4396
1694.17	33.9066
1695.7	31.5728
1697.22	29.3283
1698.74	27.0853
1700.27	24.1676
1701.79	21.6592
1703.31	19.9148
1704.83	18.823
1706.35	17.3152
1707.87	16.1976
1709.39	14.8864
1710.91	13.8997
1712.43	13.3515
1713.95	13.0106
1715.47	12.4351
1716.99	11.5396
1718.51	11.2112
1720.03	10.92
1721.55	10.1897
1723.07	9.93294
1724.58	9.66362
1726.1	9.80153
1727.62	9.8643
1729.13	9.55432
1730.65	9.81267
1732.17	10.1761
1733.68	10.6807
1735.2	11.0886
1736.72	11.1777
1738.23	10.8791
1739.74	10.8831
1741.26	10.5318
1742.77	9.50489
1744.29	9.29198
1745.8	8.62428
1747.32	7.92423
1748.83	7.3546
1750.34	6.34054
1751.85	6.4559
1753.37	6.40095
1754.88	5.90667
1756.39	5.52269
1757.9	5.328
1759.41	5.3732
1760.92	5.03055
1762.44	4.12897
1763.95	4.24153
1765.46	4.14298
1766.96	3.4145
1768.47	2.39377
1769.98	2.52767
1771.49	2.19827
1773	1.74581
1774.51	1.25953
1776.02	1.29745
1777.53	1.39703
1779.03	1.45549
1780.54	1.45596
1782.05	1.29898
1783.55	1.60125
1785.06	1.34146
1786.57	1.40275
1788.07	1.26075
1789.58	1.26349
1791.08	1.85561
1792.59	2.20503
1794.09	2.71201
1795.6	3.66698
1797.1	3.89956
1798.61	4.06709
1800.11	4.07223
1801.61	4.17139
1803.12	4.35182
1804.62	4.89492
1806.12	4.64422
1807.62	4.25825
1809.12	4.51294
1810.63	4.67401
1812.13	4.46954
1813.63	4.29412
1815.13	4.29905
1816.63	3.66361
1818.13	4.02286
1819.63	4.4468
1821.13	4.64912
1822.63	5.03101
1824.13	5.08315
1825.63	5.40477
1827.13	5.96523
1828.62	5.98064
1830.12	6.36763
1831.62	6.24964
1833.12	6.17985
1834.61	6.38864
1836.11	6.22542
1837.61	6.4423
1839.1	6.41495
1840.6	6.06555
1842.09	5.5485
1843.59	5.33233
1845.09	4.82387
1846.58	4.33208
1848.08	3.96892
1849.57	3.48184
1851.06	3.64225
1852.56	3.631
1854.05	4.18841
1855.54	3.97301
1857.04	3.88802
1858.53	3.5808
1860.02	3.64796
1861.51	4.01501
1863.01	4.12332
1864.5	4.66823
1865.99	4.60118
1867.48	5.05326
1868.97	5.22186
1870.46	5.73956
1871.95	4.70379
1873.44	4.35531
1874.93	4.27652
1876.42	4.25306
1877.91	4.23828
1879.4	4.39427
1880.89	4.42745
1882.37	4.72654
1882.46	4.96277
1883.95	4.84537
1885.45	4.31641
1886.94	3.92478
1888.43	3.70625
1889.93	3.80566
1891.42	4.51828
1892.91	4.43537
1894.41	4.32738
1895.9	4.26173
1897.39	4.03304
1898.88	4.49143
1900.37	4.16613
1901.86	4.12589
1903.36	3.91735
1904.85	3.5875
1906.34	3.31338
1907.83	3.3463
1909.32	2.87392
1910.81	2.91745
1912.29	3.33819
1913.78	3.20513
1915.27	2.96286
1916.76	3.06153
1918.25	2.99405
1919.74	2.49049
1921.23	2.95419
1922.71	3.68497
1924.2	4.39687
1925.69	4.37941
1927.17	4.2301
1928.66	4.03688
1930.15	4.64608
1931.63	4.44199
1933.12	4.82638
1934.6	5.21553
1936.09	5.3592
1937.57	5.82069
1939.06	6.34406
1940.54	6.82226
1942.02	6.83469
1943.51	7.30343
1944.99	6.55169
1946.47	6.80854
1947.96	6.45916
1949.44	6.24493
1950.92	5.62936
1952.4	5.30752
1953.88	5.11802
1955.37	4.56882
1956.85	4.22317
1958.33	3.94162
1959.81	3.84545
1961.29	3.40512
1962.77	3.24444
1964.25	2.96551
1965.73	2.60303
1967.21	2.2815
1968.69	2.27599
1970.16	2.12109
1971.64	1.73495
1973.12	1.73449
1974.6	1.48156
1976.08	1.36428
1977.55	1.40955
1979.03	1.90259
1980.51	1.72781
1981.98	1.95796
1983.46	2.31762
1984.94	2.75765
1986.41	2.99592
1987.89	3.18231
1989.36	3.46882
1990.84	4.16914
1992.31	4.10257
1993.79	4.0702
1995.26	5.21968
1996.73	5.27636
1998.21	5.39914
1999.68	5.79295
2001.15	6.17786
2002.63	6.61663
2004.1	7.38461
2005.57	7.07153
2007.04	7.25416
2008.51	7.45971
2009.99	7.60633
2011.46	7.8312
2012.93	8.37377
2014.4	8.51258
2015.87	8.08263
2017.34	7.69597
2018.81	6.32197
2020.28	6.0586
2021.75	5.9075
2023.21	5.8026
2024.68	5.72479
2026.15	5.54142
2027.62	5.60528
2029.09	4.96077
2030.56	4.96834
2032.02	5.17063
2033.49	5.13614
2034.96	4.57172
2036.42	4.25656
2037.89	3.58693
2039.36	3.77693
2040.82	3.75063
2042.29	3.66276
2043.75	3.66062
2045.22	3.35754
2046.68	3.59522
2048.14	3.95121
2049.61	4.19349
2051.07	4.67231
2052.54	4.37136
2054	3.44947
2055.46	4.43429
2056.93	4.6583
2058.39	4.93443
2059.85	5.46315
2061.31	5.56316
2062.77	5.25955
2064.23	5.37598
2065.7	5.51387
2067.16	6.02648
2068.62	6.15266
2070.08	5.67381
2071.54	5.89329
2073	6.10502
2074.46	6.34936
2075.92	6.54253
2077.38	7.2934
2078.83	7.329
2080.29	7.29849
2081.75	7.72599
2083.21	8.62302
2084.67	8.98851
2086.12	9.84374
2087.58	9.12914
2089.04	8.23235
2090.49	8.59945
2091.95	8.14121
2093.41	9.12738
2094.86	9.85611
2096.32	10.3206
2097.77	10.2541
2099.23	10.0658
2100.68	10.5076
2102.14	10.7037
2103.59	11.4569
2105.05	11.8126
2106.5	11.5702
2107.95	11.3744
2109.41	11.4908
2110.86	12.063
2112.31	13.1671
2113.76	13.6627
2115.21	14.4707
2116.67	15.2612
2118.12	15.8817
2119.57	16.4088
2121.02	17.1003
2122.47	17.6669
2123.92	18.0839
2125.37	18.2604
2126.82	18.6243
2128.27	19.9343
2129.72	20.3893
2131.17	20.5813
2132.62	20.8069
2134.07	20.7301
