#Acq. time (s)=	45
#Accumulations=	2
#Range (cm-¹)=	200...3150
#Windows=	2
#Auto scanning=	Off
#Autofocus=	Off
#Macrospot=	Off
#AutoExposure=	Off
#Spike filter=	Multiple accum.
#Delay time (s)=	0
#Binning=	1
#Readout mode=	Signal
#DeNoise=	Off
#ICS correction=	On
#Dark correction=	Off
#Inst. Process=	Off
#Detector Gain=	Best Dynamic Range
#Detector ADC=	20 kHz       
#Detector temperature (°C)=	-69.85
#Instrument=	LabRAM HR Evol
#Detector=	Synapse
#Objective=	x100
#Grating=	600 gr/mm
#ND Filter=	100%
#Laser (nm)=	532 
#Hole=	100.021
#Range=	Auto
#Laser Pol.=	No
#Raman. Pol.=	No
#Laser Pol. (°)=	-0.0007625
#Raman Pol. (°)=	89.9995
#Collection=	Microscope
#StageXY=	Marzhauser
#StageZ=	Marzhauser
#X (µm)=	4760.8
#Y (µm)=	-7735.6
#Z (µm)=	584.05
#Full time(mm:ss)=	3:19
#Project=	
#Sample=	
#Site=	
#Title=	Thy_30_10_05_2x_45s_532 nm_x100_100%_600 gr_mm
#Remark=	
#Date=	30.06.2022 11:44
#Acquired=	30.06.2022 11:44:21
#Base:Fit=	10.08.2022 09:56:48
#Base:Fit=	10.08.2022 09:57:06
#Base:Fit=	10.08.2022 09:57:43
#Base:Fit=	10.08.2022 09:57:50
#Base:Fit=	10.08.2022 09:58:11
#Base:Sub=	10.08.2022 09:58:44
#Filter:Polynom=	16.08.2022 10:22:53
#AxisType[0]=Intens
#AxisUnit[0]=Cnt
#AxisType[1]=Spectr
#AxisUnit[1]=1/cm
200.533	32.0745
202.348	32.2177
204.162	31.9262
205.976	31.5034
207.792	31.9886
209.605	32.2112
211.418	32.1696
213.23	32.1242
215.044	31.3915
216.856	30.8551
218.667	29.208
220.478	28.1493
222.289	27.0877
224.102	25.7796
225.912	24.4614
227.721	23.5895
229.531	22.0665
231.34	21.1395
233.148	19.2416
234.956	18.1386
236.766	17.434
238.574	16.0767
240.381	14.8034
242.188	14.3833
243.994	13.6672
245.801	13.0623
247.606	12.7239
249.412	11.7276
251.217	10.6046
253.024	11.3454
254.828	11.3819
256.632	11.0454
258.436	10.901
260.239	11.1773
262.042	11.1499
263.845	10.825
265.647	11.8551
267.449	11.97
269.25	11.3167
271.052	11.7379
272.852	11.4182
274.653	10.8741
276.453	11.1364
278.253	11.6195
280.052	11.4411
281.852	12.848
283.65	13.4627
285.449	14.8724
287.247	16.3997
289.044	16.6456
290.842	18.2003
292.639	19.1588
294.436	19.8532
296.232	20.6274
298.028	20.4425
299.821	20.8721
301.617	22.3217
303.412	22.2446
305.206	22.2111
307	23.1059
308.794	22.7362
310.588	22.7516
312.381	21.9108
314.172	21.9731
315.964	21.5606
317.756	21.4653
319.548	21.1618
321.34	21.2866
323.131	21.3698
324.921	21.6157
326.71	21.0577
328.5	20.4634
330.29	20.2955
332.079	20.357
333.868	20.2088
335.654	20.8325
337.443	21.973
339.231	21.0573
341.018	20.5813
342.804	21.2781
344.591	21.1128
346.377	20.496
348.163	19.2812
349.947	18.2764
351.733	17.4255
353.518	17.5947
355.303	16.0849
357.085	14.7548
358.869	14.3418
360.653	13.026
362.435	11.8674
364.218	12.4126
366.001	12.2463
367.781	12.2578
369.563	11.8437
371.345	12.0474
373.124	11.885
374.905	12.0355
376.686	11.4991
378.464	11.9391
380.244	11.5743
382.022	11.6725
383.801	12.1054
385.58	12.2977
387.357	12.5862
389.135	12.659
390.911	11.7054
392.689	10.9542
394.466	10.2774
396.241	9.85595
398.018	8.24233
399.792	6.94089
401.568	7.07781
403.341	7.43931
405.117	6.83683
406.889	6.94591
408.664	6.5575
410.436	6.44896
412.21	6.22699
413.981	5.3277
415.755	5.07912
417.525	5.58734
419.298	6.0699
421.068	6.2707
422.84	6.88162
424.609	6.89014
426.38	6.68446
428.149	6.12716
429.919	6.347
431.688	6.91972
433.455	5.53678
435.225	4.83538
436.992	3.82676
438.76	4.02187
440.527	3.70622
442.293	2.72075
444.06	2.18125
445.826	2.92832
447.593	2.73198
449.357	3.21138
451.122	3.66854
452.888	4.48514
454.651	4.60044
456.415	5.09009
458.18	5.62971
459.942	6.54197
461.705	7.08352
463.469	7.15557
465.23	7.93283
466.991	8.52919
468.752	8.19432
470.515	9.55077
472.275	9.87799
474.035	9.88337
475.797	10.9587
477.556	11.0633
479.315	11.4702
481.073	12.0495
482.834	11.9705
484.592	12.8605
486.349	12.0992
488.106	12.2552
489.863	13.4316
491.622	13.6825
493.378	14.0154
495.134	13.6446
496.889	14.2484
498.645	15.4734
500.401	16.1632
502.156	16.2306
503.91	16.4111
505.664	16.7458
507.417	16.8943
509.171	15.9507
510.923	15.981
512.678	15.9813
514.43	15.8322
516.182	15.3457
517.933	14.4602
519.684	13.6356
521.435	12.9244
523.186	12.705
524.936	12.187
526.686	11.7083
528.435	10.7808
530.184	10.152
531.933	10.8679
533.682	10.3952
535.43	10.421
537.18	11.514
538.927	10.8439
540.674	11.4766
542.421	11.3414
544.167	11.2171
545.913	11.7653
547.659	11.7669
549.403	11.4326
551.148	11.9419
552.893	12.3719
554.637	12.5127
556.381	13.0716
558.125	14.9363
559.868	15.1483
561.611	14.7975
563.354	15.0653
565.097	14.4229
566.839	14.1592
568.581	13.6561
570.322	12.863
572.063	11.8733
573.802	11.2039
575.542	11.4766
577.283	11.7463
579.022	12.0401
580.762	11.8409
582.501	11.5479
584.24	12.5359
585.976	12.1731
587.714	11.6441
589.452	10.8725
591.19	10.719
592.927	10.0273
594.663	9.54203
596.398	8.83424
598.134	8.53792
599.87	8.2483
601.605	7.64444
603.338	7.58113
605.073	7.53253
606.808	7.69913
608.542	6.97594
610.274	6.28363
612.007	6.69891
613.74	7.18775
615.473	6.87765
617.204	7.12837
618.936	7.86744
620.668	7.68151
622.397	7.842
624.128	7.88004
625.859	7.78317
627.588	8.20873
629.318	8.83484
631.048	8.84335
632.775	8.55544
634.505	8.26818
636.233	7.97452
637.96	8.55158
639.688	8.72984
641.416	8.87316
643.142	9.16031
644.869	8.79555
646.594	7.36907
648.32	7.62631
650.045	8.12096
651.771	7.25796
653.496	7.55908
655.219	7.76376
656.944	7.82492
658.667	8.12688
660.391	8.41213
662.113	8.51782
663.837	9.7146
665.558	11.0119
667.281	11.6509
669.002	12.1177
670.724	13.2524
672.444	13.3714
674.166	14.4047
675.885	15.1322
677.606	16.0476
679.325	17.0318
681.045	18.3498
682.763	19.5895
684.483	20.7072
686.2	22.2068
687.917	23.4825
689.636	24.752
691.352	25.8948
693.07	27.4943
694.786	28.7127
696.501	30.6729
698.219	32.1284
699.933	32.6858
701.65	33.0294
703.364	34.0952
705.078	34.2271
706.793	34.946
708.506	35.6066
710.219	36.3188
711.934	37.0655
713.646	37.3576
715.358	37.2098
717.071	37.0704
718.782	37.1257
720.493	37.7976
722.204	38.6411
723.916	39.4087
725.626	39.9484
727.336	39.7292
729.045	39.955
730.756	40.5492
732.464	41.3588
734.173	41.5732
735.881	41.4573
737.59	41.3888
739.297	42.4633
741.004	42.3818
742.711	42.8265
744.417	43.5739
746.125	44.3474
747.831	46.1174
749.537	48.1024
751.242	50.0493
752.946	50.5048
754.651	51.2393
756.357	53.9389
758.061	54.4245
759.764	54.8425
761.467	55.0017
763.17	55.9333
764.872	56.8798
766.575	57.9532
768.276	58.6668
769.978	59.4706
771.679	60.2381
773.382	60.6682
775.083	62.0406
776.783	62.6664
778.483	64.0373
780.182	64.6336
781.882	65.362
783.581	66.1525
785.279	67.0457
786.978	67.9569
788.676	67.608
790.373	67.9531
792.071	68.8574
793.768	68.6148
795.464	69.0769
797.161	70.0523
798.857	71.0507
800.552	71.5287
802.248	71.625
803.941	71.6752
805.636	72.0531
807.33	72.6484
809.024	73.0115
810.718	73.0714
812.412	72.6832
814.105	73.518
815.798	74.0737
817.49	73.7189
819.183	73.1007
820.873	73.786
822.564	73.7336
824.256	74.1772
825.947	73.8567
827.637	74.2022
829.328	74.5792
831.016	74.3756
832.705	74.0837
834.395	73.9062
836.084	72.6544
837.772	71.1387
839.459	70.4936
841.147	69.6939
842.835	67.4911
844.522	66.4036
846.209	66.1363
847.894	66.0289
849.581	64.9988
851.267	63.8264
852.953	62.4581
854.637	61.6049
856.322	60.9533
858.007	59.4746
859.689	58.6858
861.374	57.497
863.058	57.1618
864.739	55.9215
866.423	54.8453
868.106	53.9474
869.787	52.9236
871.469	52.5792
873.151	52.0367
874.831	51.3256
876.512	50.6125
878.193	49.6872
879.872	48.8026
881.553	48.4692
883.231	48.1287
884.911	47.3453
886.591	46.3062
888.268	45.8736
889.947	45.5585
891.623	45.0681
893.302	44.6269
894.978	44.5485
896.656	45.2449
898.331	45.5538
900.008	45.362
901.683	44.8247
903.359	44.5415
905.033	45.1833
906.709	43.8296
908.383	43.6929
910.058	43.0408
911.731	43.5403
913.405	42.8757
915.078	42.1124
916.752	41.6728
918.423	42.4015
920.096	41.7485
921.768	42.6328
923.438	42.4849
925.111	42.4737
926.781	42.9826
928.452	42.3683
930.122	42.1546
931.791	41.4383
933.462	40.541
935.13	40.4793
936.799	40.1886
938.468	39.3287
940.136	38.7793
941.803	37.5962
943.472	37.5417
945.139	37.3734
946.805	37.1611
948.473	37.2641
950.139	37.5808
951.804	37.989
953.471	38.0923
955.136	38.2604
956.801	37.2756
958.465	34.9552
960.131	34.6527
961.794	34.048
963.458	33.6888
965.12	34.6325
966.785	35.2009
968.447	34.7165
970.109	34.238
971.771	35.4738
973.432	35.8569
975.095	35.9275
976.756	36.6279
978.417	36.8348
980.077	36.9213
981.737	36.4376
983.396	36.7544
985.057	36.3453
986.716	36.3394
988.375	35.9984
990.033	35.5729
991.691	36.3161
993.349	36.7606
995.006	37.3958
996.663	36.3255
998.32	36.1465
999.976	35.974
1001.63	35.4448
1003.29	34.1568
1004.95	34.1546
1006.6	32.9031
1008.26	33.0989
1009.91	33.0218
1011.56	31.9428
1013.22	31.7801
1014.87	30.4998
1016.53	30.1089
1018.18	29.7372
1019.83	28.7819
1021.48	28.5809
1023.14	28.7399
1024.79	28.1835
1026.44	28.1844
1028.09	27.9741
1029.74	27.589
1031.39	27.3696
1033.04	26.7453
1034.69	26.4398
1036.34	25.5096
1037.99	25.1756
1039.64	25.0237
1041.29	24.3299
1042.94	25.4998
1044.58	24.948
1046.23	24.7557
1047.88	24.8523
1049.52	24.231
1051.17	23.7957
1052.82	23.5906
1054.46	23.8513
1056.11	22.6334
1057.75	22.4969
1059.4	22.1176
1061.04	21.6682
1062.69	22.0611
1064.33	21.894
1065.98	22.2301
1067.62	22.0708
1069.26	22.3774
1070.9	22.5936
1072.55	22.71
1074.19	22.2781
1075.83	21.8673
1077.47	21.7462
1079.11	21.1011
1080.76	20.8617
1082.4	20.377
1084.04	19.9834
1085.68	19.3526
1087.32	19.3788
1088.95	18.4367
1090.59	19.0273
1092.23	18.9314
1093.87	18.2431
1095.51	18.7726
1097.15	18.0426
1098.78	18.8335
1100.42	19.1356
1102.06	18.6045
1103.69	18.6091
1105.33	18.312
1106.97	18.0355
1108.6	18.3467
1110.24	18.2221
1111.87	18.0357
1113.51	18.6416
1115.14	18.8594
1116.77	18.779
1118.41	18.4343
1120.04	19.0056
1121.67	18.0725
1123.31	17.2186
1124.94	17.34
1126.57	16.2863
1128.2	16.1368
1129.83	15.5627
1131.47	15.9008
1133.1	15.9628
1134.72	15.7401
1136.36	15.5139
1137.98	14.7486
1139.62	13.5698
1141.24	13.6556
1142.87	13.9715
1144.5	13.4153
1146.13	12.9079
1147.76	12.2988
1149.38	12.2765
1151.01	11.9339
1152.64	11.8792
1154.27	11.2856
1155.89	11.0341
1157.52	10.5699
1159.14	10.1276
1160.77	9.05133
1162.39	7.77358
1164.02	6.37284
1165.64	5.80077
1167.27	4.74895
1168.89	4.632
1170.51	4.67153
1172.14	4.51364
1173.76	4.30997
1175.38	3.46324
1177	3.31799
1178.63	2.24951
1180.25	1.9609
1181.87	0.716303
1183.49	0.170477
1185.11	-0.0870994
1186.73	0.875026
1188.35	1.22958
1189.97	1.72685
1191.59	2.6359
1193.21	2.92636
1194.83	2.89328
1196.45	2.69838
1198.07	3.21918
1199.68	4.74236
1201.3	5.44367
1202.92	6.31263
1204.53	8.04878
1206.15	9.03321
1207.77	10.5183
1209.38	11.9726
1211	13.6052
1212.62	15.9276
1214.23	17.1208
1215.84	18.1066
1217.46	19.8295
1219.07	21.552
1220.69	23.0636
1222.3	25.6065
1223.91	26.4714
1225.53	28.1174
1227.14	30.3815
1228.75	32.6071
1230.36	34.9361
1231.97	36.6811
1233.59	38.3356
1235.2	39.0644
1236.81	40.2969
1238.42	40.9884
1240.03	42.0125
1241.64	42.7273
1243.25	43.2132
1244.85	43.3185
1246.46	43.6066
1248.07	44.5251
1249.68	44.981
1251.29	45.5865
1252.9	45.4834
1254.5	45.9354
1256.11	45.3493
1257.72	45.7045
1259.32	45.7731
1260.93	46.3917
1262.54	46.3886
1264.14	47.0971
1265.75	46.6323
1267.35	47.7994
1268.96	47.9711
1270.56	47.9154
1272.16	47.9932
1273.77	47.8925
1275.37	47.8273
1276.97	49.1712
1278.57	51.188
1280.18	52.0393
1281.78	51.9934
1283.38	53.4089
1284.98	54.2673
1286.58	55.1845
1288.18	56.5427
1289.78	57.6105
1291.38	58.199
1292.99	59.392
1294.58	59.2475
1296.18	60.2974
1297.78	61.3288
1299.38	61.3069
1300.98	62.0656
1302.58	62.6993
1304.17	62.8158
1305.77	63.9015
1307.37	64.4232
1308.97	65.0711
1310.56	65.9156
1312.16	65.6936
1313.76	65.9981
1315.35	65.5584
1316.95	65.2843
1318.54	65.1124
1320.14	65.2625
1321.73	64.3731
1323.32	63.7971
1324.92	63.2411
1326.51	62.6509
1328.1	62.2962
1329.7	60.6955
1331.29	59.7072
1332.88	58.7444
1334.47	57.0238
1336.07	55.8214
1337.66	55.067
1339.25	53.5644
1340.84	52.7899
1342.43	51.3784
1344.02	50.2891
1345.61	49.0853
1347.2	48.5819
1348.79	47.2777
1350.37	46.1608
1351.96	45.448
1353.55	44.9084
1355.14	43.672
1356.73	42.8961
1358.31	41.8209
1359.9	39.5011
1361.49	39.033
1363.07	38.0103
1364.66	37.144
1366.25	36.2406
1367.83	34.9338
1369.42	33.6283
1371	32.35
1372.59	30.9078
1374.17	29.6926
1375.75	29.2659
1377.34	27.8805
1378.92	27.3024
1380.5	26.5339
1382.09	25.6668
1383.67	25.8036
1385.25	25.692
1386.83	25.0784
1388.42	24.7496
1390	24.2278
1391.58	23.5276
1393.16	24.3102
1394.74	23.2185
1396.32	23.2358
1397.9	22.7362
1399.48	21.9826
1401.06	21.0779
1402.64	20.5416
1404.21	20.132
1405.79	19.4133
1407.37	19.551
1408.95	19.7415
1410.53	19.6344
1412.1	20.33
1413.68	20.8977
1415.26	22.5662
1416.83	23.3176
1418.41	24.8318
1419.98	26.686
1421.56	28.5569
1423.13	30.8039
1424.71	33.2041
1426.28	35.1012
1427.86	36.8818
1429.43	39.3217
1431	41.5336
1432.58	44.1613
1434.15	46.1837
1435.72	48.4786
1437.29	50.0172
1438.87	51.9271
1440.44	53.4612
1442.01	53.6701
1443.58	54.731
1445.15	54.6387
1446.72	55.2071
1448.29	55.088
1449.86	55.4103
1451.43	54.9626
1453	55.213
1454.57	54.9474
1456.14	54.0897
1457.71	53.085
1459.27	51.3944
1460.84	50.7112
1462.41	49.7674
1463.98	47.3985
1465.54	45.6117
1467.11	43.7689
1468.67	41.6264
1470.24	39.9981
1471.81	38.255
1473.37	35.2005
1474.94	33.3774
1476.5	30.6532
1478.07	28.1531
1479.63	26.0641
1481.19	23.5144
1482.76	22.3548
1484.32	19.5242
1485.88	16.8593
1487.45	15.269
1489.01	13.899
1490.57	13.2947
1492.13	11.9309
1493.69	11.1351
1495.26	9.34322
1496.82	9.7417
1498.38	9.40222
1499.94	9.03599
1501.5	8.23365
1503.06	7.43651
1504.62	6.99012
1506.17	7.08609
1507.73	7.50445
1509.29	7.81986
1510.85	7.72683
1512.41	7.42084
1513.97	6.4665
1515.52	5.35398
1517.08	4.88834
1518.64	4.1355
1520.19	4.16805
1521.75	4.32459
1523.31	4.49856
1524.86	4.99009
1526.42	4.89692
1527.97	5.99075
1529.52	6.39195
1531.08	6.7156
1532.63	6.6503
1534.19	6.78743
1535.74	7.77453
1537.29	8.80146
1538.85	10.5839
1540.4	11.6983
1541.95	12.1179
1543.5	13.567
1545.06	15.1122
1546.61	17.4215
1548.16	18.5894
1549.71	19.5969
1551.26	21.0818
1552.81	22.8687
1554.36	24.1571
1555.91	25.9822
1557.46	27.2033
1559.01	27.972
1560.56	28.5389
1562.11	28.2394
1563.65	30.1783
1565.2	32.2209
1566.75	33.4638
1568.29	33.9703
1569.84	35.0128
1571.39	36.291
1572.94	36.4627
1574.48	38.1571
1576.03	38.9706
1577.57	39.4023
1579.12	40.4058
1580.66	42.099
1582.21	43.4096
1583.75	43.7265
1585.3	44.6743
1586.84	44.4669
1588.38	44.5821
1589.93	44.7038
1591.47	44.8988
1593.01	44.7488
1594.55	44.5231
1596.1	45.7384
1597.64	45.8978
1599.18	45.4874
1600.72	45.0667
1602.26	45.629
1603.8	45.3443
1605.34	44.5986
1606.88	44.1369
1608.42	44.2584
1609.96	43.7086
1611.5	43.8277
1613.04	44.5436
1614.58	44.9149
1616.12	44.3926
1617.65	44.0727
1619.19	43.6822
1620.73	44.5196
1622.27	45.3024
1623.8	46.0752
1625.34	45.727
1626.87	46.9796
1628.41	47.7834
1629.95	47.6201
1631.48	47.6041
1633.02	48.3261
1634.55	47.9803
1636.09	48.49
1637.62	49.5489
1639.15	50.4973
1640.69	51.8386
1642.22	52.4571
1643.76	54.0902
1645.29	55.288
1646.82	55.8734
1648.35	56.4861
1649.88	57.2033
1651.42	58.0448
1652.95	58.0733
1654.48	58.213
1656.01	58.4693
1657.54	58.7068
1659.07	58.3434
1660.6	57.7508
1662.13	57.5813
1663.66	56.5987
1665.19	57.0121
1666.72	56.5111
1668.24	56.0257
1669.77	55.2157
1671.3	54.5887
1672.83	53.9814
1674.35	52.2068
1675.88	50.4118
1677.41	48.7559
1678.93	46.966
1680.46	44.3246
1681.99	42.2208
1683.51	40.4284
1685.04	37.6488
1686.56	35.046
1688.09	33.3057
1689.61	31.3651
1691.13	28.7787
1692.66	26.2528
1694.18	24.5451
1695.71	22.7168
1697.23	21.5309
1698.75	19.3806
1700.27	17.1262
1701.8	14.6889
1703.32	12.8721
1704.84	10.8483
1706.36	9.77944
1707.88	9.0194
1709.4	8.31024
1710.92	6.95613
1712.44	6.16609
1713.96	5.55792
1715.48	4.45302
1717	4.62268
1718.52	4.74334
1720.04	4.82533
1721.56	4.28781
1723.07	3.30782
1724.59	3.09961
1726.11	2.35993
1727.63	1.07937
1729.14	0.799719
1730.66	1.06877
1732.18	0.468703
1733.69	0.984012
1735.21	1.00993
1736.72	1.19529
1738.24	2.17262
1739.75	3.17743
1741.27	3.60782
1742.78	3.51297
1744.3	3.95854
1745.81	4.02422
1747.32	3.88718
1748.84	3.7543
1750.35	3.70382
1751.86	3.78951
1753.37	3.38152
1754.89	3.13782
1756.4	3.22945
1757.91	2.60275
1759.42	2.42864
1760.93	2.1584
1762.44	2.78803
1763.95	2.78851
1765.46	2.91458
1766.97	3.07713
1768.48	2.83821
1769.99	2.6076
1771.5	2.36581
1773.01	2.53101
1774.52	2.21984
1776.03	1.61949
1777.53	1.99254
1779.04	2.2685
1780.55	2.92176
1782.06	3.3957
1783.56	3.59608
1785.07	3.75156
1786.57	3.7767
1788.08	3.83182
1789.59	4.25147
1791.09	4.4511
1792.6	4.50986
1794.1	4.0877
1795.6	3.54078
1797.11	2.85726
1798.61	2.05007
1800.12	1.51313
1801.62	1.3517
1803.12	1.30147
1804.63	1.77248
1806.13	2.14365
1807.63	1.45403
1809.13	1.98252
1810.63	2.14852
1812.14	2.27572
1813.64	2.71202
1815.14	2.67006
1816.64	2.35617
1818.14	2.28546
1819.64	2.52782
1821.14	2.35932
1822.64	2.42187
1824.14	2.61436
1825.63	2.52218
1827.13	2.9672
1828.63	2.68606
1830.13	2.54326
1831.63	2.83083
1833.12	3.05079
1834.62	3.75332
1836.12	4.20848
1837.62	4.66212
1839.11	4.80029
1840.61	5.1949
1842.1	5.47451
1843.6	5.76048
1845.09	5.50892
1846.59	5.40308
1848.08	5.67352
1849.58	5.52869
1851.07	5.80907
1852.57	6.72234
1854.06	7.08123
1855.55	7.62463
1857.04	7.48382
1858.54	7.60456
1860.03	7.54474
1861.52	7.17936
1863.01	6.81079
1864.5	6.82483
1866	7.34879
1867.49	7.87076
1868.98	7.68641
1870.47	8.09774
1871.96	8.27505
1873.45	8.81658
1874.94	9.01025
1876.43	9.28568
1877.92	9.27126
1879.41	9.62856
1880.89	9.5775
1882.38	9.38544
1882.48	10.1119
1883.97	10.3457
1885.47	10.8519
1886.96	11.2658
1888.46	11.1588
1889.95	10.9549
1891.44	11
1892.94	11.6608
1894.43	11.9909
1895.92	12.3072
1897.41	12.3686
1898.9	11.9239
1900.4	12.2267
1901.89	12.458
1903.38	12.5297
1904.87	12.7459
1906.36	13.6902
1907.85	14.0538
1909.34	14.1448
1910.83	13.9269
1912.32	14.1832
1913.81	14.0627
1915.29	14.1335
1916.78	13.3182
1918.27	12.6084
1919.76	13.297
1921.25	13.7825
1922.74	13.9409
1924.22	13.5947
1925.71	13.505
1927.2	13.3774
1928.68	12.7487
1930.17	11.7184
1931.65	11.6961
1933.14	11.0705
1934.63	11.3145
1936.11	11.3085
1937.59	11.6863
1939.08	11.9754
1940.56	11.6564
1942.05	11.4899
1943.53	11.4513
1945.01	10.7684
1946.5	10.2697
1947.98	9.58818
1949.46	9.61314
1950.94	9.5713
1952.43	9.74323
1953.91	9.56275
1955.39	9.53344
1956.87	9.76517
1958.35	9.32179
1959.83	9.65875
1961.31	9.25649
1962.79	9.23538
1964.27	9.03205
1965.75	9.09874
1967.23	9.38853
1968.71	9.28864
1970.19	9.10179
1971.67	9.45152
1973.14	9.25044
1974.62	9.54024
1976.1	10.0695
1977.58	9.90057
1979.05	10.1375
1980.53	10.6437
1982.01	9.97225
1983.48	9.3842
1984.96	9.13894
1986.43	9.68578
1987.91	9.06906
1989.38	9.04244
1990.86	9.02773
1992.33	9.56011
1993.81	9.82236
1995.28	9.31377
1996.76	9.28789
1998.23	9.28068
1999.7	9.54732
2001.18	9.23686
2002.65	9.23753
2004.12	9.62605
2005.59	9.98397
2007.06	10.2726
2008.54	10.8355
2010.01	11.1541
2011.48	11.2396
2012.95	12.0808
2014.42	12.3071
2015.89	12.1718
2017.36	11.7652
2018.83	12.2285
2020.3	12.9277
2021.77	13.2131
2023.24	13.8208
2024.71	13.9308
2026.17	14.2453
2027.64	14.1983
2029.11	14.2716
2030.58	15.1066
2032.04	15.4289
2033.51	16.162
2034.98	15.8437
2036.45	16.3254
2037.91	16.9318
2039.38	17.4963
2040.84	17.4524
2042.31	17.5156
2043.77	18.0209
2045.24	17.7021
2046.7	17.7345
2048.17	18.0171
2049.63	18.1078
2051.1	17.8938
2052.56	17.9487
2054.02	17.8109
2055.48	17.6808
2056.95	18.3279
2058.41	18.6337
2059.87	19.3722
2061.33	18.9217
2062.8	19.3879
2064.26	19.6317
2065.72	19.6168
2067.18	19.4026
2068.64	19.7728
2070.1	20.5863
2071.56	21.0973
2073.02	20.4217
2074.48	20.8618
2075.94	21.6553
2077.4	22.204
2078.86	22.5668
2080.31	23.0955
2081.77	23.5859
2083.23	24.2472
2084.69	24.4846
2086.14	25.4018
2087.6	25.7357
2089.06	25.8207
2090.52	26.3877
2091.97	26.9142
2093.43	26.7379
2094.88	26.5582
2096.34	27.4283
2097.79	28.121
2099.25	29.1457
2100.7	29.5186
2102.16	30.4839
2103.61	30.9127
2105.07	30.7515
2106.52	31.4986
2107.97	32.0056
2109.43	33.4584
2110.88	34.1546
2112.33	34.2727
2113.78	34.8532
2115.24	36.2347
2116.69	37.0109
2118.14	37.5108
2119.59	38.8558
2121.04	39.4806
2122.49	40.5502
