#Acq. time (s)=	45
#Accumulations=	2
#Range (cm-¹)=	200...3150
#Windows=	2
#Auto scanning=	Off
#Autofocus=	Off
#Macrospot=	Off
#AutoExposure=	Off
#Spike filter=	Multiple accum.
#Delay time (s)=	0
#Binning=	1
#Readout mode=	Signal
#DeNoise=	Off
#ICS correction=	On
#Dark correction=	Off
#Inst. Process=	Off
#Detector Gain=	Best Dynamic Range
#Detector ADC=	20 kHz       
#Detector temperature (°C)=	-69.85
#Instrument=	LabRAM HR Evol
#Detector=	Synapse
#Objective=	x100
#Grating=	600 gr/mm
#ND Filter=	100%
#Laser (nm)=	532 
#Hole=	100.021
#Range=	Auto
#Laser Pol.=	No
#Raman. Pol.=	No
#Laser Pol. (°)=	-0.0007625
#Raman Pol. (°)=	89.9995
#Collection=	Microscope
#StageXY=	Marzhauser
#StageZ=	Marzhauser
#X (µm)=	1961.4
#Y (µm)=	-44.4
#Z (µm)=	425.15
#Full time(mm:ss)=	3:18
#Project=	
#Sample=	
#Site=	
#Title=	Thy_40_11_22_2x_45s_532 nm_x100_100%_600 gr_mm
#Remark=	
#Date=	05.07.2022 11:25
#Acquired=	05.07.2022 11:25:23
#Base:Fit=	10.08.2022 10:01:35
#Base:Sub=	10.08.2022 10:01:52
#Filter:Polynom=	16.08.2022 10:21:53
#AxisType[0]=Intens
#AxisUnit[0]=Cnt
#AxisType[1]=Spectr
#AxisUnit[1]=1/cm
200.43	23.7842
202.244	20.821
204.059	17.4911
205.873	15.4781
207.688	14.127
209.501	12.6733
211.314	10.6803
213.127	9.20134
214.941	8.2196
216.753	7.10148
218.564	6.84867
220.375	5.78475
222.186	6.14579
223.999	6.38619
225.809	6.39839
227.618	6.0302
229.428	5.69785
231.236	4.40941
233.045	4.04104
234.855	4.27032
236.663	4.63604
238.471	4.51069
240.278	4.77383
242.085	4.10422
243.891	4.13995
245.698	2.7713
247.503	3.00169
249.309	3.58609
251.116	3.4271
252.921	3.96023
254.725	4.48511
256.529	4.66359
258.333	4.29612
260.136	4.51965
261.939	5.39473
263.742	5.05777
265.544	4.93444
267.346	5.22802
269.148	5.53546
270.949	5.40244
272.75	6.57381
274.55	6.46487
276.351	5.20103
278.15	5.99942
279.95	6.00756
281.749	6.68721
283.548	7.2958
285.346	7.76159
287.144	7.83515
288.942	7.6572
290.739	7.98308
292.536	8.58623
294.333	8.26675
296.129	6.9749
297.925	6.797
299.721	6.94292
301.514	6.32316
303.309	7.17833
305.104	7.13804
306.898	6.91364
308.692	7.59882
310.486	7.114
312.279	8.15568
314.072	7.05742
315.862	6.01108
317.654	5.97832
319.446	5.74808
321.238	5.32963
323.029	5.97143
324.819	6.39763
326.608	6.2239
328.398	5.2745
330.188	4.85698
331.977	3.85232
333.766	4.33889
335.553	4.09163
337.341	6.25556
339.129	6.34137
340.917	6.25428
342.704	6.78319
344.489	6.93361
346.275	6.24315
348.062	6.48142
349.845	7.20621
351.631	6.80661
353.416	6.61943
355.201	7.03684
356.984	6.88633
358.768	7.15265
360.552	7.11366
362.333	7.70946
364.116	7.63288
365.899	7.76045
367.68	7.6723
369.462	7.64339
371.243	8.3378
373.023	8.75893
374.804	9.58691
376.585	9.64138
378.363	10.2042
380.143	10.5489
381.923	10.2209
383.7	9.62272
385.479	10.3557
387.256	11.4255
389.034	11.2354
390.812	11.4044
392.588	11.7818
394.365	11.8102
396.14	11.6403
397.916	11.9332
399.691	11.3833
401.467	11.267
403.24	10.0719
405.015	10.9135
406.788	11.7371
408.563	11.181
410.335	10.7683
412.109	11.1837
413.88	11.2239
415.654	10.5818
417.424	10.2779
419.197	10.268
420.967	9.44321
422.739	9.91294
424.508	9.51121
426.279	9.33621
428.048	8.68108
429.819	7.9515
431.587	6.82094
433.356	5.24818
435.124	4.28394
436.891	4.49211
438.66	2.4733
440.426	1.8283
442.194	1.38246
443.96	0.790241
445.725	0.723097
447.492	0.632014
449.257	-0.109637
451.021	0.676354
452.787	0.588785
454.551	0.0370979
456.314	-0.656822
458.079	0.167716
459.842	1.84555
461.604	2.68757
463.368	2.85675
465.13	3.35817
466.891	4.18405
468.654	4.80012
470.415	5.44588
472.175	7.03321
473.935	7.85113
475.696	8.44522
477.456	9.73223
479.215	10.5181
480.973	11.6745
482.733	12.6766
484.491	13.4832
486.249	14.5825
488.006	16.2428
489.765	17.1586
491.522	18.8924
493.278	20.2423
495.034	21.593
496.789	22.8076
498.544	23.9303
500.301	25.9236
502.056	26.1364
503.81	26.7955
505.564	27.0888
507.317	27.2274
509.071	27.2757
510.825	28.2923
512.578	28.2927
514.33	28.4583
516.082	28.147
517.833	27.051
519.585	27.308
521.335	26.7211
523.086	25.8721
524.836	25.2255
526.586	23.7554
528.335	22.9545
530.085	21.3544
531.835	20.6395
533.584	19.7238
535.332	19.1942
537.08	18.1286
538.827	17.3135
540.574	15.2856
542.321	13.0775
544.068	12.2552
545.814	12.4041
547.56	11.8654
549.305	10.4065
551.05	9.115
552.795	8.26659
554.54	7.99584
556.282	7.64764
558.025	7.74518
559.769	7.64513
561.512	7.01533
563.255	7.39466
564.997	8.34876
566.739	8.37715
568.481	8.45631
570.223	8.77906
571.964	8.72435
573.705	9.39746
575.443	10.3783
577.183	9.74233
578.923	10.7965
580.663	11.3193
582.402	12.3797
584.141	12.2484
585.879	11.9713
587.615	10.9756
589.353	10.5072
591.09	10.3426
592.828	9.36043
594.564	10.0737
596.299	9.88774
598.035	9.96384
599.771	9.6018
601.506	9.53773
603.242	9.39181
604.974	8.61551
606.709	9.17741
608.443	8.35805
610.177	7.44197
611.908	7.35236
613.642	6.47014
615.374	6.17076
617.105	7.13967
618.837	7.43653
620.569	7.07484
622.3	7.22115
624.03	6.68401
625.761	5.79353
627.491	6.12442
629.219	6.7189
630.949	7.59843
632.677	7.7425
634.406	8.18655
636.135	8.93491
637.861	9.83546
639.59	11.5573
641.318	13.6267
643.043	14.3612
644.77	16.5343
646.495	16.9757
648.222	17.5966
649.948	19.0297
651.672	20.3292
653.398	20.2318
655.121	21.2154
656.846	21.3188
658.569	20.8197
660.293	21.7418
662.015	21.7452
663.738	22.1159
665.46	22.7579
667.183	22.3554
668.903	22.5262
670.626	21.9842
672.346	21.8104
674.067	22.389
675.787	23.362
677.508	23.0205
679.226	23.1061
680.947	23.605
682.665	23.6281
684.385	23.4509
686.102	22.5298
687.821	23.1976
689.538	23.1077
691.254	23.6545
692.972	24.9973
694.688	24.6872
696.406	23.4381
698.121	23.5043
699.835	24.3778
701.552	25.7805
703.266	26.5473
704.98	27.3798
706.695	27.5711
708.409	29.6111
710.121	30.7804
711.836	31.5831
713.548	33.3605
715.26	35.5954
716.973	36.3476
718.685	38.1322
720.396	40.1899
722.108	41.8934
723.818	43.0472
725.528	43.8305
727.238	44.9718
728.949	46.0528
730.658	46.7651
732.367	47.2288
734.075	49.0721
735.785	49.9812
737.493	50.2279
739.2	51.4418
740.907	53.1721
742.614	52.8017
744.322	53.8807
746.028	56.0137
747.734	56.5197
749.439	57.6045
751.144	58.3631
752.849	59.2213
754.555	60.3591
756.26	61.4346
757.963	62.6353
759.667	63.131
761.37	63.5682
763.073	63.6245
764.775	63.6371
766.477	63.9777
768.179	64.3274
769.883	63.9796
771.584	64.3791
773.285	65.4008
774.986	65.8661
776.686	67.1515
778.386	67.1015
780.085	67.4227
781.785	67.6179
783.484	69.2646
785.182	71.4291
786.881	73.4704
788.579	75.1316
790.276	76.6019
791.974	77.177
793.671	79.0806
795.367	79.8814
797.064	80.7227
798.76	82.2644
800.456	83.6501
802.151	83.0582
803.846	84.3103
805.541	84.0318
807.234	83.7049
808.928	83.1233
810.622	82.6656
812.315	83.2808
814.008	83.3977
815.701	83.0002
817.394	84.204
819.086	84.6541
820.778	83.3589
822.468	83.5402
824.159	84.1845
825.85	83.4292
827.541	82.2264
829.231	81.763
830.921	81.1791
832.609	80.6395
834.298	79.1602
835.987	78.4287
837.676	78.1174
839.364	76.4794
841.051	74.8038
842.738	72.4641
844.426	70.7434
846.113	68.9082
847.798	66.7382
849.484	65.229
851.171	64.7178
852.857	62.701
854.54	61.1894
856.226	59.9297
857.911	58.6178
859.593	57.5599
861.278	56.4315
862.961	54.9786
864.645	54.203
866.327	53.9268
868.01	53.6145
869.692	53.6254
871.373	52.6049
873.055	51.6451
874.735	50.5115
876.416	50.0676
878.097	49.9365
879.776	49.5936
881.457	48.5719
883.135	49.0613
884.815	47.7196
886.495	46.9643
888.172	46.8976
889.851	45.8918
891.528	45.395
893.206	44.732
894.882	44.8257
896.56	46.0744
898.237	47.543
899.912	47.9835
901.589	48.7703
903.263	48.5342
904.94	48.081
906.614	49.1521
908.289	49.2402
909.962	48.8135
911.635	48.2823
913.31	48.0058
914.982	48.2291
916.656	48.0091
918.328	46.7607
920.001	47.0947
921.672	46.3319
923.345	44.7555
925.015	44.9831
926.685	44.7709
928.357	45.0189
930.026	43.8778
931.698	44.0016
933.366	43.1
935.035	42.3563
936.705	40.1033
938.373	39.724
940.041	39.4837
941.71	37.7571
943.377	36.1301
945.044	34.662
946.712	34.0933
948.378	33.4095
950.044	33.3315
951.709	32.0213
953.376	31.7134
955.041	31.388
956.706	31.8431
958.372	31.1754
960.036	30.273
961.699	31.1453
963.362	31.3543
965.027	30.741
966.69	31.2074
968.352	30.5756
970.014	31.4271
971.676	31.7253
973.339	31.8156
975	32.6485
976.661	32.7574
978.322	34.2796
979.982	35.1779
981.642	35.6697
983.303	35.3342
984.962	35.2265
986.621	34.6845
988.28	35.1973
989.938	35.3134
991.596	35.3744
993.254	35.5436
994.911	35.505
996.57	35.6916
998.227	35.5229
999.884	34.5791
1001.54	34.3374
1003.2	34.1206
1004.85	33.1778
1006.51	33.1403
1008.16	33.1016
1009.82	32.1004
1011.47	32.3329
1013.12	31.2716
1014.78	30.9579
1016.43	30.663
1018.08	30.6681
1019.74	30.5827
1021.39	30.9738
1023.04	30.1833
1024.69	28.7689
1026.34	28.9732
1028	28.5253
1029.65	28.7295
1031.3	28.2148
1032.95	28.4968
1034.6	27.5647
1036.25	27.691
1037.9	26.8505
1039.54	25.8505
1041.19	24.8367
1042.84	24.4466
1044.49	24.6497
1046.14	23.7741
1047.78	22.7975
1049.43	23.2396
1051.08	23.607
1052.72	23.6875
1054.37	23.2984
1056.02	23.551
1057.66	23.495
1059.31	22.8266
1060.95	22.7815
1062.6	21.8397
1064.24	21.222
1065.88	19.8334
1067.53	19.1658
1069.17	19.0264
1070.81	18.8312
1072.45	18.8334
1074.1	17.9628
1075.74	17.3129
1077.38	17.0218
1079.02	16.1287
1080.66	16.125
1082.3	15.8199
1083.94	15.8439
1085.58	16.3111
1087.22	15.8083
1088.86	15.6336
1090.5	15.7876
1092.14	15.8951
1093.78	16.0608
1095.42	16.2569
1097.05	16.8179
1098.69	17.8868
1100.33	18.325
1101.96	17.8751
1103.6	17.176
1105.24	16.4437
1106.87	16.0665
1108.51	15.6674
1110.14	14.0959
1111.78	14.0606
1113.41	14.395
1115.05	13.2289
1116.68	11.3698
1118.31	10.9872
1119.95	11.09
1121.58	11.1576
1123.21	11.4869
1124.85	11.3263
1126.48	12.1161
1128.11	12.6534
1129.74	12.4841
1131.37	12.5756
1133	12.8455
1134.63	12.1421
1136.26	11.7313
1137.89	11.9418
1139.52	10.5543
1141.15	10.3595
1142.78	9.51471
1144.41	8.71715
1146.04	8.61933
1147.66	8.08793
1149.29	8.03482
1150.92	7.44474
1152.55	6.9353
1154.17	7.45923
1155.8	7.07342
1157.43	7.8882
1159.05	6.89131
1160.68	5.8083
1162.3	5.64381
1163.93	4.9974
1165.55	4.64192
1167.17	3.47672
1168.8	2.14442
1170.42	1.99687
1172.05	3.04309
1173.67	2.98385
1175.29	3.18157
1176.91	3.37102
1178.54	3.19642
1180.16	3.21755
1181.78	2.6641
1183.4	2.14114
1185.02	1.85753
1186.64	2.00723
1188.26	1.42472
1189.88	1.34885
1191.5	1.12591
1193.12	1.45808
1194.74	1.12506
1196.36	1.06805
1197.97	3.17349
1199.59	5.44567
1201.21	6.89058
1202.83	7.29302
1204.44	9.04729
1206.06	10.2957
1207.68	12.2942
1209.29	13.1853
1210.91	14.0742
1212.52	15.8721
1214.14	17.3457
1215.75	18.8916
1217.37	21.0353
1218.98	22.7513
1220.59	24.3015
1222.21	26.9785
1223.82	28.2657
1225.43	29.7462
1227.05	31.3004
1228.66	32.378
1230.27	33.5288
1231.88	34.8527
1233.49	36.2732
1235.1	37.6829
1236.72	38.4625
1238.33	39.6286
1239.94	39.7674
1241.55	41.1417
1243.16	43.0134
1244.76	45.0355
1246.37	45.4258
1247.98	46.4593
1249.59	47.26
1251.2	48.9687
1252.8	49.501
1254.41	49.1202
1256.02	50.32
1257.62	50.1959
1259.23	50.9983
1260.84	51.465
1262.44	52.0084
1264.05	53.3428
1265.66	54.1018
1267.26	55.0976
1268.86	55.3351
1270.47	56.7565
1272.07	56.7488
1273.67	57.5428
1275.28	58.6581
1276.88	60.5925
1278.48	61.2587
1280.09	61.1587
1281.69	61.6945
1283.29	63.145
1284.89	64.6336
1286.49	65.7986
1288.09	66.4034
1289.69	66.6645
1291.29	66.5557
1292.89	67.9443
1294.49	68.2676
1296.09	68.774
1297.69	68.4003
1299.29	68.5607
1300.89	68.4169
1302.49	68.2065
1304.08	67.9548
1305.68	67.5748
1307.28	68.1245
1308.88	67.9627
1310.47	68.2001
1312.07	68.6059
1313.66	68.62
1315.26	68.5851
1316.85	68.2619
1318.45	67.7076
1320.04	66.7209
1321.64	67.0974
1323.23	66.3689
1324.83	65.1761
1326.42	62.9638
1328.01	61.6765
1329.61	61.0773
1331.2	60.9152
1332.79	59.4375
1334.38	59.2304
1335.97	58.4714
1337.56	56.6066
1339.16	56.5883
1340.75	55.4112
1342.34	55.0102
1343.93	54.4216
1345.52	53.9102
1347.11	52.383
1348.7	50.8053
1350.29	49.8123
1351.87	47.9163
1353.46	47.5278
1355.05	46.2219
1356.64	44.553
1358.22	42.9946
1359.81	43.0348
1361.4	42.6043
1362.98	42.0322
1364.57	41.4406
1366.16	40.8215
1367.74	39.2608
1369.33	38.1735
1370.91	37.1654
1372.5	36.4768
1374.08	35.4169
1375.67	34.8199
1377.25	34.5171
1378.83	34.6015
1380.41	34.6387
1382	35.6001
1383.58	35.2946
1385.16	35.1776
1386.74	35.3989
1388.33	34.6509
1389.91	34.7223
1391.49	33.4969
1393.07	32.0991
1394.65	30.8283
1396.23	30.7067
1397.81	29.9056
1399.39	29.7801
1400.97	30.8201
1402.55	29.7003
1404.13	29.6491
1405.7	29.3476
1407.28	29.8202
1408.86	30.8242
1410.44	30.7173
1412.01	30.4358
1413.59	31.0059
1415.17	31.1337
1416.74	32.5179
1418.32	34.0293
1419.89	35.4647
1421.47	38.1382
1423.04	40.1182
1424.62	42.8293
1426.19	44.098
1427.77	46.192
1429.34	47.9644
1430.91	49.8144
1432.49	51.4721
1434.06	53.4408
1435.63	55.5636
1437.2	57.6602
1438.78	59.7294
1440.35	61.1161
1441.92	62.4048
1443.49	63.2058
1445.06	64.0576
1446.63	64.1295
1448.2	64.9469
1449.77	65.7008
1451.34	65.6095
1452.91	65.8883
1454.48	64.6913
1456.05	63.8875
1457.62	64.033
1459.18	63.4266
1460.75	62.0032
1462.32	59.5629
1463.89	58.1526
1465.45	55.6186
1467.02	53.1003
1468.59	49.8815
1470.15	46.7731
1471.72	44.7272
1473.28	43.0678
1474.85	41.0538
1476.41	37.8646
1477.98	36.4106
1479.54	34.2662
1481.1	30.1499
1482.67	27.9375
1484.23	24.9429
1485.79	23.2791
1487.36	21.9813
1488.92	20.2987
1490.48	17.9378
1492.04	17.7242
1493.61	16.5662
1495.17	16.1344
1496.73	15.8805
1498.29	15.8498
1499.85	15.4856
1501.41	14.8273
1502.97	14.6304
1504.53	13.9603
1506.09	13.0217
1507.65	12.9462
1509.2	13.5208
1510.76	13.1972
1512.32	13.12
1513.88	12.6353
1515.43	12.0436
1516.99	12.4918
1518.55	12.9864
1520.1	13.7634
1521.66	14.3879
1523.22	15.9225
1524.77	16.6869
1526.33	18.2529
1527.88	19.1438
1529.44	20.2033
1530.99	21.256
1532.54	22.6605
1534.1	24.3651
1535.65	25.3324
1537.21	25.0159
1538.76	25.4911
1540.31	26.9331
1541.86	28.2575
1543.42	29.4779
1544.97	31.3301
1546.52	32.7439
1548.07	34.2509
1549.62	35.9158
1551.17	37.0447
1552.72	37.875
1554.27	39.1182
1555.82	41.2749
1557.37	41.6323
1558.92	42.4874
1560.47	43.248
1562.02	43.6543
1563.56	44.4717
1565.11	45.3116
1566.66	45.426
1568.21	46.9364
1569.75	48.7478
1571.3	49.7276
1572.85	49.9708
1574.39	50.54
1575.94	51.5205
1577.49	52.0291
1579.03	52.8552
1580.57	53.1117
1582.12	54.0021
1583.66	53.7392
1585.21	55.1225
1586.75	55.645
1588.3	55.5498
1589.84	55.8051
1591.38	56.2317
1592.92	57.0418
1594.47	57.9502
1596.01	58.9469
1597.55	59.5649
1599.09	59.4862
1600.63	60.4512
1602.17	61.1955
1603.71	61.2373
1605.25	60.4647
1606.79	60.1383
1608.33	59.6278
1609.87	60.019
1611.41	60.3111
1612.95	60.1191
1614.49	60.1024
1616.03	60.4014
1617.57	61.5137
1619.1	60.9995
1620.64	61.8658
1622.18	62.2805
1623.72	61.6287
1625.25	62.1818
1626.79	62.526
1628.32	63.0239
1629.86	63.8099
1631.39	63.8156
1632.93	64.9051
1634.46	65.0783
1636	65.1391
1637.53	65.4031
1639.07	66.2522
1640.6	67.0924
1642.13	68.5629
1643.67	69.7213
1645.2	71.018
1646.73	71.0204
1648.26	70.7329
1649.8	70.7811
1651.33	71.9718
1652.86	72.5011
1654.39	72.4436
1655.92	72.502
1657.45	72.2944
1658.98	73.082
1660.51	73.3412
1662.04	73.9543
1663.57	72.9746
1665.1	72.2871
1666.63	71.2733
1668.16	70.1739
1669.68	69.2158
1671.21	67.4229
1672.74	65.0857
1674.27	61.972
1675.79	59.8366
1677.32	57.4539
1678.85	55.7313
1680.37	52.6143
1681.9	50.2628
1683.42	48.3579
1684.95	46.1
1686.47	43.7205
1688	40.5106
1689.52	37.236
1691.05	34.8229
1692.57	31.933
1694.09	30.045
1695.62	27.5634
1697.14	26.015
1698.66	24.0875
1700.18	22.4505
1701.71	21.0679
1703.23	18.4466
1704.75	17.5691
1706.27	15.3444
1707.79	13.7189
1709.31	13.0445
1710.83	11.6308
1712.35	10.3072
1713.87	9.73178
1715.39	8.67457
1716.91	8.34716
1718.43	8.04785
1719.95	7.56213
1721.47	6.70407
1722.99	6.54221
1724.5	6.36108
1726.02	6.91499
1727.54	7.29791
1729.06	7.30352
1730.57	7.22972
1732.09	7.0794
1733.61	8.0218
1735.12	8.11457
1736.64	8.62243
1738.15	7.88401
1739.67	7.21596
1741.18	7.00192
1742.7	6.43449
1744.21	6.18064
1745.72	6.13171
1747.24	5.18212
1748.75	4.65261
1750.26	4.90223
1751.77	5.66813
1753.29	5.5005
1754.8	5.71601
1756.31	4.65152
1757.82	4.4051
1759.33	3.84533
1760.84	3.57391
1762.36	2.72408
1763.87	2.41544
1765.38	2.75673
1766.89	2.40278
1768.4	1.52878
1769.91	1.50454
1771.41	1.26192
1772.92	1.16787
1774.43	1.54941
1775.94	1.29603
1777.45	0.788653
1778.95	0.661263
1780.46	1.19108
1781.97	0.617538
1783.48	1.4957
1784.98	1.44501
1786.49	1.52305
1787.99	2.00272
1789.5	2.08825
1791.01	2.18238
1792.51	2.91181
1794.01	2.82301
1795.52	2.64358
1797.02	2.67283
1798.53	3.06258
1800.03	3.25574
1801.53	3.11241
1803.04	3.03877
1804.54	2.88162
1806.04	2.62914
1807.54	2.92663
1809.05	3.53901
1810.55	3.76905
1812.05	4.44868
1813.55	4.02634
1815.05	4.46267
1816.55	4.7191
1818.05	5.0336
1819.55	5.28274
1821.05	5.69101
1822.55	5.37683
1824.05	5.71086
1825.55	5.65377
1827.05	5.30606
1828.55	5.11004
1830.04	4.90186
1831.54	4.40549
1833.04	4.37891
1834.54	4.30268
1836.03	4.21074
1837.53	4.41092
1839.03	4.56382
1840.52	4.29402
1842.02	4.17282
1843.51	3.75036
1845.01	3.66375
1846.5	3.85723
1848	4.24127
1849.49	3.98463
1850.99	3.83866
1852.48	3.41564
1853.97	3.67436
1855.47	4.12851
1856.96	3.48535
1858.45	3.26574
1859.94	3.0152
1861.44	2.93814
1862.93	2.66926
1864.42	2.24721
1865.91	1.9071
1867.4	1.53299
1868.89	0.845071
1870.38	0.501837
1871.87	0.563514
1873.36	0.447208
1874.85	1.08981
1876.34	0.83919
1877.83	1.12636
1879.32	1.71014
1880.81	1.6992
1882.3	1.66325
1882.57	2.26726
1884.07	2.72844
1885.56	3.2053
1887.06	3.99485
1888.55	4.68764
1890.04	4.78087
1891.54	4.95323
1893.03	5.47146
1894.52	5.9574
1896.02	5.64649
1897.51	5.3025
1899	4.94954
1900.49	4.77907
1901.98	4.75407
1903.47	5.12025
1904.96	6.03442
1906.45	6.03107
1907.94	6.26796
1909.43	6.30523
1910.92	6.77528
1912.41	6.37274
1913.9	6.7859
1915.39	7.17932
1916.88	7.25301
1918.37	7.58051
1919.85	8.08598
1921.34	8.0385
1922.83	7.78399
1924.32	7.76714
1925.8	8.04097
1927.29	7.57719
1928.78	6.9724
1930.26	6.09028
1931.75	5.60226
1933.23	5.8797
1934.72	5.42956
1936.2	4.9615
1937.69	4.55984
1939.17	4.68959
1940.66	4.61882
1942.14	4.56726
1943.63	4.75625
1945.11	4.7474
1946.59	4.68829
1948.07	5.15108
1949.56	4.97007
1951.04	5.50932
1952.52	5.70799
1954	5.15641
1955.48	5.739
1956.96	6.73711
1958.45	6.95471
1959.93	6.84297
1961.41	6.19245
1962.89	5.65274
1964.37	5.82812
1965.85	5.84034
1967.32	5.95677
1968.8	5.38291
1970.28	5.4723
1971.76	5.0451
1973.24	5.31803
1974.72	5.45277
1976.19	5.29139
1977.67	5.8375
1979.15	5.80923
1980.63	5.40247
1982.1	6.02892
1983.58	6.35111
1985.05	6.81249
1986.53	7.30579
1988	8.08484
1989.48	7.86366
1990.95	8.51657
1992.43	8.63359
1993.9	8.33002
1995.38	7.97967
1996.85	8.63262
1998.32	8.67227
1999.8	8.62316
2001.27	8.22827
2002.74	8.23895
2004.22	7.67841
2005.69	7.17198
2007.16	7.22536
2008.63	6.69118
2010.1	6.15936
2011.57	6.23718
2013.04	7.19026
2014.51	6.92326
2015.98	7.2146
2017.45	7.24617
2018.92	7.53678
2020.39	8.06618
2021.86	8.06129
2023.33	8.6679
2024.8	8.87918
2026.27	8.72141
2027.74	8.67984
2029.2	8.75932
2030.67	8.02269
2032.14	7.88225
2033.61	7.2616
2035.07	7.34415
2036.54	7.98795
2038.01	8.33824
2039.47	8.39205
2040.94	8.54331
2042.4	8.762
2043.87	9.18091
2045.33	8.93797
2046.8	9.39722
2048.26	9.37725
2049.72	9.5134
2051.19	10.3235
2052.65	10.4316
2054.12	11.0988
2055.58	11.0481
2057.04	11.6591
2058.5	12.0222
2059.97	12.2551
2061.43	12.6826
2062.89	13.0205
2064.35	14.0875
2065.81	14.5215
2067.27	14.6436
2068.73	15.7975
2070.19	16.0758
2071.65	15.5597
2073.11	15.8656
2074.57	16.1215
2076.03	16.4698
2077.49	16.7969
2078.95	17.5771
2080.41	18.6956
2081.87	20.065
2083.32	20.8895
2084.78	22.0671
2086.24	22.6064
2087.7	23.093
2089.15	23.7311
2090.61	24.0535
2092.07	24.3668
2093.52	24.3688
2094.98	24.9302
2096.43	25.9991
2097.89	26.1003
2099.34	25.8111
2100.8	26.5615
2102.25	26.7994
2103.71	27.9525
2105.16	28.5178
2106.61	28.7308
2108.07	30.3089
2109.52	30.9686
2110.97	31.607
2112.43	32.2428
2113.88	32.5773
2115.33	33.0573
2116.78	33.7752
2118.23	35.0166
2119.68	36.1419
2121.13	37.5086
2122.59	38.4072
2124.04	39.6728
2125.49	40.9181
2126.94	42.7014
2128.39	44.0091
2129.83	46.3994
2131.28	48.2871
2132.73	50.3827
2134.18	52.6623
2135.63	54.134
