#Acq. time (s)=	45
#Accumulations=	2
#Range (cm-¹)=	200...3150
#Windows=	2
#Auto scanning=	Off
#Autofocus=	Off
#Macrospot=	Off
#AutoExposure=	Off
#Spike filter=	Multiple accum.
#Delay time (s)=	0
#Binning=	1
#Readout mode=	Signal
#DeNoise=	Off
#ICS correction=	On
#Dark correction=	Off
#Inst. Process=	Off
#Detector Gain=	Best Dynamic Range
#Detector ADC=	20 kHz       
#Detector temperature (°C)=	-69.85
#Instrument=	LabRAM HR Evol
#Detector=	Synapse
#Objective=	x100
#Grating=	600 gr/mm
#ND Filter=	100%
#Laser (nm)=	532 
#Hole=	100.021
#Range=	Auto
#Laser Pol.=	No
#Raman. Pol.=	No
#Laser Pol. (°)=	-0.0007625
#Raman Pol. (°)=	89.9995
#Collection=	Microscope
#StageXY=	Marzhauser
#StageZ=	Marzhauser
#X (µm)=	4767.7
#Y (µm)=	-7736.3
#Z (µm)=	584
#Full time(mm:ss)=	3:18
#Project=	
#Sample=	
#Site=	
#Title=	Thy_30_10_03_2x_45s_532 nm_x100_100%_600 gr_mm
#Remark=	
#Date=	30.06.2022 11:36
#Acquired=	30.06.2022 11:36:39
#Base:Fit=	10.08.2022 09:56:48
#Base:Fit=	10.08.2022 09:57:06
#Base:Fit=	10.08.2022 09:57:43
#Base:Fit=	10.08.2022 09:57:50
#Base:Fit=	10.08.2022 09:58:11
#Base:Sub=	10.08.2022 09:58:44
#Filter:Polynom=	16.08.2022 10:22:53
#AxisType[0]=Intens
#AxisUnit[0]=Cnt
#AxisType[1]=Spectr
#AxisUnit[1]=1/cm
200.533	30.8153
202.348	26.3972
204.162	23.4348
205.976	21.0325
207.792	19.2065
209.605	17.5837
211.418	16.0825
213.23	14.4807
215.044	13.1832
216.856	12.022
218.667	10.5852
220.478	9.34419
222.289	9.33875
224.102	8.31276
225.912	7.38622
227.721	7.72647
229.531	7.82808
231.34	5.90556
233.148	5.10583
234.956	4.42057
236.766	3.33709
238.574	3.2335
240.381	3.48737
242.188	3.80456
243.994	3.58526
245.801	4.39236
247.606	4.86958
249.412	4.92752
251.217	5.87421
253.024	6.86136
254.828	7.12913
256.632	7.40702
258.436	6.83472
260.239	7.86095
262.042	7.80498
263.845	8.13874
265.647	9.34591
267.449	9.87135
269.25	10.1041
271.052	11.0681
272.852	10.6963
274.653	10.8708
276.453	10.0906
278.253	9.80222
280.052	9.49987
281.852	9.93497
283.65	9.9664
285.449	10.2556
287.247	10.4573
289.044	11.549
290.842	13.297
292.639	13.7782
294.436	13.9242
296.232	14.1757
298.028	13.6649
299.821	14.4964
301.617	14.6446
303.412	15.1975
305.206	15.7555
307	15.7032
308.794	16.6269
310.588	17.2843
312.381	18.3596
314.172	17.9079
315.964	17.5484
317.756	17.6719
319.548	17.1635
321.34	16.477
323.131	17.0792
324.921	18.1116
326.71	18.3305
328.5	19.3266
330.29	19.3348
332.079	19.1344
333.868	19.0491
335.654	19.047
337.443	18.3507
339.231	18.1432
341.018	17.9135
342.804	16.9192
344.591	16.705
346.377	16.3344
348.163	15.6673
349.947	14.5199
351.733	12.9882
353.518	12.553
355.303	12.2555
357.085	11.0955
358.869	10.6238
360.653	9.99466
362.435	8.84404
364.218	7.46478
366.001	6.96131
367.781	6.52033
369.563	7.52007
371.345	6.73745
373.124	5.90663
374.905	5.77297
376.686	4.63937
378.464	4.39029
380.244	5.09795
382.022	3.33347
383.801	2.76782
385.58	2.09875
387.357	1.99785
389.135	2.15111
390.911	1.94394
392.689	1.82963
394.466	2.39408
396.241	2.19074
398.018	2.60692
399.792	2.09825
401.568	2.31511
403.341	1.51031
405.117	1.10955
406.889	2.27275
408.664	3.11368
410.436	3.37066
412.21	3.1989
413.981	4.40533
415.755	3.44305
417.525	3.70079
419.298	2.53118
421.068	3.00476
422.84	2.99146
424.609	3.22606
426.38	3.28584
428.149	3.49129
429.919	3.2992
431.688	2.66679
433.455	2.53094
435.225	1.09923
436.992	0.564792
438.76	0.267451
440.527	2.24901
442.293	2.49341
444.06	2.22269
445.826	2.04112
447.593	2.13453
449.357	1.12538
451.122	2.07363
452.888	1.87588
454.651	2.01591
456.415	1.40928
458.18	1.69758
459.942	1.54584
461.705	2.51962
463.469	2.99254
465.23	2.7511
466.991	3.5896
468.752	4.11757
470.515	3.63072
472.275	5.13698
474.035	5.9561
475.797	6.82865
477.556	7.52733
479.315	8.85236
481.073	10.1295
482.834	11.3927
484.592	12.2397
486.349	13.9471
488.106	14.8797
489.863	15.5358
491.622	16.177
493.378	17.1775
495.134	18.8736
496.889	19.5212
498.645	20.4941
500.401	21.0017
502.156	21.7427
503.91	21.2262
505.664	21.645
507.417	20.923
509.171	21.5955
510.923	22.0167
512.678	22.2128
514.43	21.617
516.182	22.3377
517.933	22.7652
519.684	21.6221
521.435	21.9449
523.186	21.8135
524.936	21.1481
526.686	20.8239
528.435	20.2189
530.184	18.0676
531.933	16.8361
533.682	16.2968
535.43	14.9569
537.18	14.6093
538.927	14.9659
540.674	13.5193
542.421	13.1681
544.167	12.6519
545.913	12.3307
547.659	11.1454
549.403	10.1752
551.148	8.4647
552.893	8.50693
554.637	8.73408
556.381	8.41358
558.125	7.6431
559.868	7.37101
561.611	6.89875
563.354	6.06515
565.097	6.25445
566.839	6.29587
568.581	5.78818
570.322	5.95062
572.063	5.89381
573.802	5.24425
575.542	3.96184
577.283	4.05075
579.022	4.24465
580.762	3.84074
582.501	4.40725
584.24	4.05875
585.976	4.04353
587.714	3.14942
589.452	2.74885
591.19	2.36488
592.927	2.11946
594.663	1.76822
596.398	2.17271
598.134	2.49746
599.87	2.25741
601.605	2.83659
603.338	3.28894
605.073	3.19504
606.808	2.60004
608.542	3.29488
610.274	3.19323
612.007	3.20295
613.74	4.27328
615.473	4.28707
617.204	4.76847
618.936	5.0995
620.668	5.922
622.397	6.19792
624.128	7.84075
625.859	8.21214
627.588	7.93007
629.318	9.12801
631.048	9.72985
632.775	9.41167
634.505	9.4412
636.233	10.7024
637.96	11.1008
639.688	12.2329
641.416	11.6156
643.142	11.2459
644.869	11.0565
646.594	11.0937
648.32	11.1088
650.045	10.4728
651.771	11.9192
653.496	11.9081
655.219	12.6632
656.944	13.3165
658.667	13.5743
660.391	13.3074
662.113	12.9101
663.837	13.7274
665.558	13.2664
667.281	12.5774
669.002	12.6497
670.724	12.187
672.444	11.4644
674.166	11.4044
675.885	11.1122
677.606	10.3626
679.325	10.8325
681.045	11.9806
682.763	12.7042
684.483	13.451
686.2	14.8955
687.917	16.5059
689.636	16.8511
691.352	18.2284
693.07	19.6583
694.786	19.7503
696.501	19.5779
698.219	20.4072
699.933	20.6854
701.65	22.0639
703.364	24.3315
705.078	24.8737
706.793	25.6554
708.506	26.6302
710.219	27.2915
711.934	28.0315
713.646	29.0599
715.358	29.8978
717.071	30.4409
718.782	30.4734
720.493	32.2461
722.204	33.0545
723.916	33.2459
725.626	33.8918
727.336	34.4754
729.045	35.2655
730.756	35.8366
732.464	37.0856
734.173	38.6364
735.881	39.9714
737.59	41.7131
739.297	42.0903
741.004	43.7701
742.711	43.5128
744.417	44.3834
746.125	44.5214
747.831	44.5241
749.537	45.3292
751.242	45.456
752.946	45.6118
754.651	46.4754
756.357	47.7315
758.061	47.9248
759.764	49.1843
761.467	49.4009
763.17	51.1512
764.872	53.0843
766.575	54.8986
768.276	56.4931
769.978	57.5558
771.679	58.8956
773.382	60.1619
775.083	61.0255
776.783	62.8722
778.483	64.2913
780.182	63.8886
781.882	64.4926
783.581	65.9314
785.279	67.3439
786.978	68.2543
788.676	68.4201
790.373	67.8509
792.071	68.708
793.768	69.6726
795.464	71.0927
797.161	71.9215
798.857	73.5867
800.552	74.026
802.248	74.8682
803.941	74.9754
805.636	75.3493
807.33	74.625
809.024	75.4054
810.718	75.0245
812.412	75.4727
814.105	75.5782
815.798	76.0347
817.49	76.5105
819.183	76.4072
820.873	76.7751
822.564	76.6666
824.256	76.8953
825.947	76.1256
827.637	75.411
829.328	74.8321
831.016	73.2035
832.705	72.6552
834.395	71.9827
836.084	71.9749
837.772	71.4425
839.459	70.6826
841.147	69.0915
842.835	66.6538
844.522	66.2361
846.209	66.3139
847.894	66.5324
849.581	65.11
851.267	64.8104
852.953	64.1462
854.637	62.1124
856.322	61.613
858.007	61.6351
859.689	61.3924
861.374	59.9908
863.058	58.4676
864.739	56.5718
866.423	55.6672
868.106	55.0905
869.787	54.0122
871.469	53.2569
873.151	52.0403
874.831	51.1308
876.512	50.6178
878.193	50.4868
879.872	49.922
881.553	48.9832
883.231	48.9847
884.911	47.1127
886.591	45.4347
888.268	44.624
889.947	43.9063
891.623	43.1252
893.302	42.9246
894.978	41.7418
896.656	42.0768
898.331	41.5894
900.008	41.7279
901.683	41.0942
903.359	41.2171
905.033	40.9374
906.709	40.9383
908.383	40.7742
910.058	40.0978
911.731	39.5589
913.405	38.2535
915.078	38.4853
916.752	39.0022
918.423	38.641
920.096	38.3943
921.768	37.2979
923.438	35.8774
925.111	34.7809
926.781	35.0791
928.452	35.1251
930.122	35.1308
931.791	35.0473
933.462	35.0457
935.13	35.8171
936.799	35.6409
938.468	35.6613
940.136	36.7072
941.803	37.4402
943.472	36.9317
945.139	36.0397
946.805	35.9842
948.473	36.02
950.139	36.6264
951.804	37.7943
953.471	38.8636
955.136	39.1109
956.801	38.237
958.465	37.6789
960.131	37.2245
961.794	37.0284
963.458	36.9592
965.12	37.3025
966.785	36.6941
968.447	36.571
970.109	36.6951
971.771	38.0559
973.432	38.7325
975.095	39.1195
976.756	40.1885
978.417	39.5441
980.077	39.491
981.737	39.3301
983.396	39.491
985.057	38.4197
986.716	38.2373
988.375	37.8486
990.033	38.4164
991.691	37.2766
993.349	36.2492
995.006	36.0598
996.663	37.2811
998.32	37.582
999.976	36.1441
1001.63	35.9784
1003.29	34.9548
1004.95	34.3142
1006.6	33.4944
1008.26	33.394
1009.91	32.9017
1011.56	32.4479
1013.22	32.9594
1014.87	32.781
1016.53	32.3532
1018.18	32.071
1019.83	32.06
1021.48	31.7665
1023.14	31.7222
1024.79	30.807
1026.44	29.6147
1028.09	29.3507
1029.74	29.9895
1031.39	30.3801
1033.04	30.7542
1034.69	29.61
1036.34	27.6573
1037.99	26.5453
1039.64	25.9034
1041.29	25.0437
1042.94	25.4943
1044.58	26.0149
1046.23	26.5614
1047.88	26.3908
1049.52	25.568
1051.17	25.4102
1052.82	25.3658
1054.46	24.0154
1056.11	22.9347
1057.75	21.88
1059.4	20.0365
1061.04	18.3792
1062.69	18.8705
1064.33	17.4069
1065.98	17.3062
1067.62	15.86
1069.26	16.1696
1070.9	17.1955
1072.55	17.4025
1074.19	16.9275
1075.83	16.9573
1077.47	16.9501
1079.11	16.1499
1080.76	14.8523
1082.4	14.2758
1084.04	15.0677
1085.68	13.9217
1087.32	13.6906
1088.95	14.6637
1090.59	14.4511
1092.23	14.5023
1093.87	15.0533
1095.51	15.8698
1097.15	15.7599
1098.78	16.4763
1100.42	16.6259
1102.06	16.1607
1103.69	15.7913
1105.33	15.6353
1106.97	14.9155
1108.6	15.2677
1110.24	16.0238
1111.87	16.132
1113.51	14.8034
1115.14	13.9442
1116.77	13.158
1118.41	13.7526
1120.04	14.018
1121.67	13.587
1123.31	13.6098
1124.94	13.1168
1126.57	12.3256
1128.2	11.5715
1129.83	11.1478
1131.47	10.186
1133.1	10.2311
1134.72	9.9138
1136.36	8.93199
1137.98	9.21451
1139.62	9.13712
1141.24	8.72642
1142.87	9.77667
1144.5	9.18222
1146.13	7.79724
1147.76	8.46742
1149.38	7.31259
1151.01	7.02425
1152.64	5.92071
1154.27	4.9154
1155.89	4.51386
1157.52	3.32683
1159.14	3.23449
1160.77	2.59238
1162.39	2.88662
1164.02	2.87012
1165.64	3.05025
1167.27	2.50884
1168.89	2.97077
1170.51	2.96667
1172.14	3.06236
1173.76	3.76389
1175.38	3.47259
1177	3.00945
1178.63	1.93861
1180.25	1.41078
1181.87	0.521326
1183.49	0.393904
1185.11	0.343269
1186.73	0.090281
1188.35	0.0673895
1189.97	0.967597
1191.59	1.31271
1193.21	0.524725
1194.83	1.25309
1196.45	2.44541
1198.07	3.62215
1199.68	4.31231
1201.3	4.85469
1202.92	5.71722
1204.53	7.03298
1206.15	8.17525
1207.77	9.55119
1209.38	11.1125
1211	11.9358
1212.62	12.9208
1214.23	14.9933
1215.84	15.881
1217.46	17.0532
1219.07	19.7789
1220.69	21.1138
1222.3	22.4851
1223.91	24.7038
1225.53	24.9972
1227.14	26.8379
1228.75	28.7474
1230.36	29.4227
1231.97	30.7697
1233.59	32.8811
1235.2	35.8788
1236.81	37.4822
1238.42	38.5127
1240.03	39.9269
1241.64	39.8159
1243.25	41.1197
1244.85	41.2666
1246.46	41.8788
1248.07	42.8251
1249.68	43.9208
1251.29	45.5148
1252.9	46.1607
1254.5	45.1958
1256.11	44.9195
1257.72	44.7804
1259.32	45.6733
1260.93	45.8681
1262.54	47.4849
1264.14	48.6677
1265.75	48.8955
1267.35	50.0138
1268.96	50.4591
1270.56	51.7492
1272.16	51.9627
1273.77	52.3775
1275.37	53.9937
1276.97	54.4692
1278.57	54.5572
1280.18	53.9414
1281.78	54.8733
1283.38	55.3289
1284.98	56.5238
1286.58	57.1838
1288.18	57.4711
1289.78	56.9662
1291.38	56.557
1292.99	57.7927
1294.58	58.2421
1296.18	58.1072
1297.78	59.3654
1299.38	61.0942
1300.98	60.7832
1302.58	61.6439
1304.17	62.7957
1305.77	62.8404
1307.37	64.3208
1308.97	65.283
1310.56	65.9101
1312.16	67.1821
1313.76	67.5479
1315.35	67.1325
1316.95	66.6992
1318.54	65.814
1320.14	64.878
1321.73	63.4842
1323.32	64.0559
1324.92	63.4324
1326.51	63.4417
1328.1	63.1525
1329.7	62.8757
1331.29	61.7187
1332.88	59.5832
1334.47	59.3273
1336.07	59.611
1337.66	59.1793
1339.25	58.6369
1340.84	57.1064
1342.43	57.2157
1344.02	56.2994
1345.61	55.182
1347.2	54.2129
1348.79	52.8754
1350.37	51.4916
1351.96	50.0051
1353.55	47.997
1355.14	45.6306
1356.73	43.2146
1358.31	41.1595
1359.9	38.5972
1361.49	37.3993
1363.07	35.4852
1364.66	34.4214
1366.25	32.4744
1367.83	30.4453
1369.42	29.2048
1371	28.5611
1372.59	28.0283
1374.17	27.1025
1375.75	26.5136
1377.34	25.8374
1378.92	25.6339
1380.5	24.4825
1382.09	23.9944
1383.67	23.1031
1385.25	22.3536
1386.83	21.8796
1388.42	21.4732
1390	20.5274
1391.58	19.6968
1393.16	17.9435
1394.74	16.9706
1396.32	16.7245
1397.9	15.3832
1399.48	15.4617
1401.06	14.8271
1402.64	16.0131
1404.21	15.445
1405.79	16.0435
1407.37	17.5245
1408.95	19.0469
1410.53	20.6184
1412.1	21.9677
1413.68	23.6436
1415.26	25.8625
1416.83	27.4881
1418.41	28.9212
1419.98	30.9846
1421.56	34.1239
1423.13	36.0711
1424.71	37.1644
1426.28	39.3822
1427.86	41.2092
1429.43	43.388
1431	46.0506
1432.58	48.3789
1434.15	51.3983
1435.72	54.0939
1437.29	56.0479
1438.87	57.2261
1440.44	59.5226
1442.01	62.2448
1443.58	64.0949
1445.15	65.0197
1446.72	66.0259
1448.29	67.1737
1449.86	67.477
1451.43	67.6735
1453	68.0816
1454.57	67.6779
1456.14	66.8103
1457.71	65.9349
1459.27	63.4756
1460.84	61.715
1462.41	59.5633
1463.98	58.2796
1465.54	55.9699
1467.11	53.2006
1468.67	49.7006
1470.24	46.689
1471.81	42.7696
1473.37	39.7376
1474.94	36.8372
1476.5	33.8624
1478.07	31.4304
1479.63	28.4762
1481.19	26.3006
1482.76	23.3022
1484.32	21.4763
1485.88	19.9261
1487.45	17.4882
1489.01	14.2699
1490.57	10.8663
1492.13	9.00418
1493.69	8.07989
1495.26	5.43125
1496.82	4.4337
1498.38	3.70961
1499.94	2.93298
1501.5	1.82057
1503.06	0.603061
1504.62	1.02051
1506.17	0.172818
1507.73	0.360989
1509.29	0.30103
1510.85	-0.18018
1512.41	-0.658589
1513.97	-1.40861
1515.52	-1.73735
1517.08	-0.885415
1518.64	-0.319613
1520.19	0.110772
1521.75	0.753343
1523.31	1.85361
1524.86	2.78655
1526.42	3.95762
1527.97	4.48212
1529.52	4.65785
1531.08	5.63127
1532.63	6.40789
1534.19	6.71728
1535.74	7.5211
1537.29	8.91353
1538.85	10.4992
1540.4	11.7406
1541.95	12.4043
1543.5	13.0927
1545.06	13.9743
1546.61	14.7204
1548.16	15.6399
1549.71	16.3389
1551.26	18.4095
1552.81	19.1687
1554.36	21.038
1555.91	22.3729
1557.46	24.1086
1559.01	24.5282
1560.56	25.7028
1562.11	26.9095
1563.65	27.9167
1565.2	29.6285
1566.75	31.2114
1568.29	33.0678
1569.84	35.0658
1571.39	36.6517
1572.94	37.4805
1574.48	39.0144
1576.03	39.7463
1577.57	41.326
1579.12	42.829
1580.66	44.4747
1582.21	45.2485
1583.75	45.9929
1585.3	47.37
1586.84	48.3892
1588.38	48.1809
1589.93	49.2841
1591.47	49.2236
1593.01	49.7251
1594.55	49.9169
1596.1	49.464
1597.64	50.3991
1599.18	50.3005
1600.72	49.2866
1602.26	48.5744
1603.8	48.4364
1605.34	48.9535
1606.88	49.6096
1608.42	50.6039
1609.96	50.6432
1611.5	51.1823
1613.04	51.5688
1614.58	51.209
1616.12	50.6612
1617.65	50.5903
1619.19	50.3494
1620.73	50.9586
1622.27	51.2516
1623.8	51.2876
1625.34	52.2458
1626.87	54.2749
1628.41	55.7513
1629.95	56.8531
1631.48	58.9295
1633.02	59.2785
1634.55	60.5757
1636.09	60.6794
1637.62	63.4714
1639.15	65.5135
1640.69	67.0443
1642.22	68.7706
1643.76	70.3837
1645.29	70.8871
1646.82	71.3274
1648.35	72.2109
1649.88	74.2432
1651.42	75.5473
1652.95	76.4009
1654.48	77.5309
1656.01	77.3555
1657.54	76.7912
1659.07	76.1239
1660.6	76.0081
1662.13	75.6044
1663.66	74.1107
1665.19	72.6766
1666.72	72.0493
1668.24	70.2571
1669.77	68.7448
1671.3	66.7069
1672.83	64.5473
1674.35	62.7853
1675.88	59.1929
1677.41	58.1322
1678.93	56.6844
1680.46	54.6135
1681.99	52.4464
1683.51	50.2479
1685.04	47.0763
1686.56	43.7778
1688.09	41.317
1689.61	38.083
1691.13	35.0482
1692.66	33.0931
1694.18	30.7659
1695.71	27.976
1697.23	25.6584
1698.75	23.6204
1700.27	21.0726
1701.8	19.2415
1703.32	17.4197
1704.84	15.0931
1706.36	13.5046
1707.88	11.955
1709.4	10.5128
1710.92	9.70165
1712.44	8.37126
1713.96	8.08556
1715.48	7.14431
1717	6.02741
1718.52	5.54121
1720.04	5.93613
1721.56	4.67071
1723.07	4.62628
1724.59	5.0396
1726.11	5.39952
1727.63	4.21632
1729.14	4.10044
1730.66	4.15671
1732.18	3.13222
1733.69	2.8399
1735.21	3.11519
1736.72	3.01131
1738.24	3.13366
1739.75	2.76187
1741.27	2.9591
1742.78	2.6777
1744.3	2.48479
1745.81	1.79935
1747.32	1.65628
1748.84	1.83825
1750.35	1.95624
1751.86	2.08773
1753.37	2.78053
1754.89	2.2715
1756.4	1.86478
1757.91	2.55073
1759.42	2.68355
1760.93	1.55852
1762.44	1.89112
1763.95	1.88415
1765.46	1.63202
1766.97	1.0931
1768.48	0.73737
1769.99	-0.104568
1771.5	-0.654009
1773.01	-0.600655
1774.52	-0.715593
1776.03	-1.25665
1777.53	-0.704112
1779.04	-0.537639
1780.55	-0.107328
1782.06	0.178514
1783.56	0.811662
1785.07	0.862692
1786.57	1.23987
1788.08	1.79871
1789.59	2.29454
1791.09	2.87427
1792.6	2.88063
1794.1	3.15829
1795.6	3.34232
1797.11	2.83898
1798.61	2.96431
1800.12	2.82344
1801.62	2.97034
1803.12	2.80389
1804.63	2.67339
1806.13	2.39992
1807.63	2.05917
1809.13	2.4169
1810.63	3.34159
1812.14	3.97819
1813.64	4.42543
1815.14	4.69764
1816.64	4.35181
1818.14	4.73635
1819.64	5.18055
1821.14	5.41329
1822.64	5.83989
1824.14	6.02139
1825.63	6.06159
1827.13	6.08741
1828.63	6.28924
1830.13	6.75185
1831.63	7.32168
1833.12	8.21214
1834.62	7.99944
1836.12	7.88098
1837.62	7.99563
1839.11	8.45808
1840.61	8.17952
1842.1	7.78374
1843.6	7.65023
1845.09	7.11512
1846.59	6.87224
1848.08	6.75247
1849.58	6.72222
1851.07	7.03539
1852.57	7.24939
1854.06	6.96021
1855.55	6.84306
1857.04	7.38624
1858.54	7.8645
1860.03	7.53442
1861.52	7.77754
1863.01	7.54024
1864.5	7.37627
1866	7.48581
1867.49	7.66559
1868.98	7.70884
1870.47	7.93945
1871.96	8.73207
1873.45	8.93973
1874.94	9.60635
1876.43	9.66706
1877.92	10.1357
1879.41	10.6466
1880.89	11.4611
1882.38	11.1643
1882.48	12.1351
1883.97	12.8246
1885.47	12.6883
1886.96	12.7866
1888.46	12.4954
1889.95	12.1039
1891.44	12.6642
1892.94	12.6434
1894.43	12.5716
1895.92	12.7623
1897.41	12.8675
1898.9	12.3906
1900.4	12.3584
1901.89	12.7967
1903.38	12.2487
1904.87	12.4105
1906.36	12.7117
1907.85	13.0495
1909.34	13.25
1910.83	13.074
1912.32	13.3052
1913.81	12.4318
1915.29	11.7903
1916.78	11.371
1918.27	11.397
1919.76	11.6927
1921.25	11.7814
1922.74	12.3305
1924.22	12.16
1925.71	12.1356
1927.2	11.8497
1928.68	12.0089
1930.17	12.4237
1931.65	12.1604
1933.14	12.1859
1934.63	12.8288
1936.11	12.6392
1937.59	13.1514
1939.08	13.445
1940.56	13.3311
1942.05	13.1072
1943.53	13.3252
1945.01	13.8995
1946.5	13.7367
1947.98	14.3535
1949.46	13.9378
1950.94	14.333
1952.43	14.4622
1953.91	14.2904
1955.39	13.9499
1956.87	14.5097
1958.35	13.3558
1959.83	12.8713
1961.31	13.0522
1962.79	12.3003
1964.27	12.4307
1965.75	12.9846
1967.23	13.1898
1968.71	13.3436
1970.19	13.0859
1971.67	13.0278
1973.14	12.7703
1974.62	12.9618
1976.1	12.8678
1977.58	13.3454
1979.05	14.3041
1980.53	14.8545
1982.01	15.1624
1983.48	14.6029
1984.96	13.8125
1986.43	14.5594
1987.91	14.2274
1989.38	13.8859
1990.86	14.7534
1992.33	15.4026
1993.81	15.8809
1995.28	15.8442
1996.76	16.2389
1998.23	15.9402
1999.7	15.8928
2001.18	15.8417
2002.65	16.1716
2004.12	16.5993
2005.59	16.4464
2007.06	16.2639
2008.54	16.1178
2010.01	15.6715
2011.48	15.6984
2012.95	15.4621
2014.42	14.9601
2015.89	15.081
2017.36	15.5372
2018.83	15.4097
2020.3	15.3878
2021.77	15.6043
2023.24	15.9445
2024.71	16.8123
2026.17	16.9992
2027.64	17.4658
2029.11	18.0636
2030.58	18.3721
2032.04	18.4323
2033.51	19.512
2034.98	20.7105
2036.45	21.0457
2037.91	21.3481
2039.38	21.9867
2040.84	22.6493
2042.31	23.1054
2043.77	23.7061
2045.24	23.9491
2046.7	23.9937
2048.17	24.979
2049.63	25.9927
2051.1	26.6473
2052.56	26.815
2054.02	26.5596
2055.48	27.0339
2056.95	26.6468
2058.41	27.2586
2059.87	28.2826
2061.33	27.6391
2062.8	28.3889
2064.26	28.8479
2065.72	29.0514
2067.18	29.1161
2068.64	29.2349
2070.1	29.2482
2071.56	29.2217
2073.02	29.1482
2074.48	30.0039
2075.94	29.8062
2077.4	29.4049
2078.86	29.026
2080.31	29.3235
2081.77	29.571
2083.23	29.7162
2084.69	29.5259
2086.14	29.6179
2087.6	30.0734
2089.06	30.7066
2090.52	31.442
2091.97	32.0583
2093.43	32.6933
2094.88	33.4004
2096.34	34.1987
2097.79	35.1643
2099.25	35.7403
2100.7	37.0663
2102.16	37.726
2103.61	37.9299
2105.07	38.7369
2106.52	40.5239
2107.97	41.3479
2109.43	41.5466
2110.88	42.4531
2112.33	44.1596
2113.78	45.3999
2115.24	46.3865
2116.69	48.2156
2118.14	48.9677
2119.59	50.8403
