#Acq. time (s)=	45
#Accumulations=	2
#Range (cm-¹)=	200...3150
#Windows=	2
#Auto scanning=	Off
#Autofocus=	Off
#Macrospot=	Off
#AutoExposure=	Off
#Spike filter=	Multiple accum.
#Delay time (s)=	0
#Binning=	1
#Readout mode=	Signal
#DeNoise=	Off
#ICS correction=	On
#Dark correction=	Off
#Inst. Process=	Off
#Detector Gain=	Best Dynamic Range
#Detector ADC=	20 kHz       
#Detector temperature (°C)=	-69.85
#Instrument=	LabRAM HR Evol
#Detector=	Synapse
#Objective=	x100
#Grating=	600 gr/mm
#ND Filter=	100%
#Laser (nm)=	532 
#Hole=	100.021
#Range=	Auto
#Laser Pol.=	No
#Raman. Pol.=	No
#Laser Pol. (°)=	-0.0007625
#Raman Pol. (°)=	89.9995
#Collection=	Microscope
#StageXY=	Marzhauser
#StageZ=	Marzhauser
#X (µm)=	-5111.9
#Y (µm)=	1476.6
#Z (µm)=	62.85
#Full time(mm:ss)=	3:20
#Project=	
#Sample=	
#Site=	
#Title=	Thy_50_12_14_2x_45s_532 nm_x100_100%_600 gr_mm
#Remark=	
#Date=	07.07.2022 10:16
#Acquired=	07.07.2022 10:16:20
#Base:Fit=	10.08.2022 10:04:29
#Base:Sub=	10.08.2022 10:04:45
#Filter:Polynom=	16.08.2022 10:20:24
#AxisType[0]=Intens
#AxisUnit[0]=Cnt
#AxisType[1]=Spectr
#AxisUnit[1]=1/cm
200.43	34.7576
202.246	31.2258
204.061	27.444
205.875	23.9115
207.688	20.7011
209.501	17.7348
211.316	15.2047
213.129	13.3797
214.941	11.7106
216.753	10.0298
218.566	8.91311
220.377	7.87049
222.188	6.0569
223.999	3.98804
225.809	4.24753
227.618	4.03598
229.43	4.44896
231.239	3.67091
233.047	3.60087
234.855	2.59488
236.663	2.86729
238.471	2.57165
240.278	3.09403
242.087	2.43367
243.894	2.72922
245.7	1.75287
247.506	2.23981
249.311	3.17046
251.116	3.72814
252.921	4.0872
254.725	3.2122
256.529	2.89187
258.333	3.40702
260.136	4.36747
261.939	4.90158
263.744	5.1945
265.546	5.0595
267.348	5.01609
269.15	5.08455
270.951	4.9856
272.752	5.95929
274.552	5.76945
276.353	5.67098
278.152	6.2893
279.952	6.26587
281.751	6.13564
283.55	6.15829
285.348	5.99723
287.146	6.61339
288.942	6.0646
290.739	6.58753
292.536	6.69207
294.333	6.41932
296.129	6.42442
297.925	6.64801
299.721	6.89763
301.516	7.29139
303.311	7.82674
305.106	7.10043
306.9	7.35401
308.694	7.36966
310.486	6.71428
312.279	6.20009
314.072	7.58647
315.864	8.72828
317.656	8.28773
319.448	7.10857
321.24	7.42341
323.029	7.64914
324.819	8.11106
326.61	8.84238
328.4	8.64279
330.19	7.9678
331.977	6.8823
333.766	7.81847
335.555	7.80323
337.343	9.49788
339.131	9.215
340.917	8.74111
342.704	8.06445
344.491	7.13058
346.277	7.97869
348.062	8.00471
349.848	8.50159
351.633	7.94199
353.416	7.19472
355.201	7.6621
356.986	7.00282
358.77	7.17885
360.552	6.48734
362.335	6.69746
364.118	5.76135
365.899	5.0936
367.682	5.33001
369.464	5.62796
371.243	4.92859
373.025	4.78377
374.806	4.81871
376.585	5.02056
378.365	5.35322
380.143	4.92098
381.923	4.16653
383.702	4.274
385.479	4.54621
387.258	5.59983
389.034	5.28497
390.812	4.64953
392.59	3.97396
394.365	3.97668
396.142	4.73157
397.916	4.13009
399.693	4.18536
401.467	4.88509
403.242	5.54684
405.015	5.14536
406.79	5.08326
408.565	5.94525
410.337	7.06158
412.111	7.25494
413.882	7.09611
415.656	6.8437
417.426	6.93352
419.197	6.86419
420.969	8.15012
422.739	9.68767
424.51	10.1547
426.279	10.0576
428.05	9.13272
429.819	9.27378
431.589	9.41406
433.356	9.85234
435.124	9.9042
436.893	9.04315
438.66	8.82811
440.428	7.99921
442.194	7.95839
443.96	8.35639
445.727	7.18806
447.492	7.2548
449.259	6.65143
451.023	6.91198
452.787	6.19492
454.553	5.7482
456.316	6.0527
458.079	5.97312
459.844	5.86328
461.606	6.73574
463.368	7.54691
465.132	8.40527
466.893	8.27751
468.654	7.94936
470.415	8.4582
472.177	9.36552
473.937	9.39045
475.696	10.5666
477.456	10.449
479.217	10.8176
480.975	12.2289
482.733	13.8963
484.491	14.0583
486.251	14.8625
488.008	16.0178
489.765	16.698
491.522	17.8211
493.278	18.9286
495.036	19.964
496.791	21.0888
498.546	20.5864
500.301	22.0009
502.056	21.7227
503.81	22.8402
505.566	23.3408
507.319	23.4962
509.073	24.1968
510.825	24.7081
512.578	25.2837
514.33	25.331
516.082	25.122
517.833	25.2483
519.587	25.3242
521.337	24.5966
523.088	23.6351
524.838	23.9396
526.588	23.7296
528.337	23.2568
530.087	23.263
531.835	22.1958
533.584	21.7576
535.332	20.975
537.08	19.9937
538.827	19.1755
540.574	18.5054
542.321	18.0882
544.068	18.0659
545.814	17.9325
547.56	17.7237
549.305	16.7381
551.05	15.6331
552.795	14.3431
554.54	13.5248
556.284	12.7756
558.027	12.4047
559.771	12.414
561.514	12.1308
563.257	11.7864
564.999	11.0376
566.742	10.7747
568.481	10.5384
570.223	10.3419
571.964	9.65035
573.705	9.70852
575.445	9.45205
577.185	9.10478
578.925	9.10921
580.665	7.95588
582.402	6.85269
584.141	6.5192
585.879	5.64232
587.617	5.51838
589.355	4.32002
591.092	3.51315
592.828	2.80718
594.564	2.841
596.301	3.29355
598.037	3.35428
599.773	3.2407
601.506	2.4511
603.242	2.48691
604.976	2.88689
606.711	3.55075
608.443	3.83552
610.177	4.28125
611.91	4.8828
613.644	4.54926
615.374	5.35157
617.107	5.56805
618.839	5.67626
620.569	6.82284
622.3	7.70735
624.032	8.87116
625.761	9.11035
627.491	8.85765
629.221	9.05166
630.949	10.4467
632.679	10.8158
634.408	11.4131
636.135	11.7308
637.863	13.3219
639.592	13.7683
641.318	14.4933
643.045	14.8762
644.77	16.4671
646.497	17.8039
648.224	17.4558
649.948	18.5126
651.674	18.7854
653.398	19.0701
655.123	18.7422
656.846	19.4452
658.57	19.8838
660.293	20.1845
662.017	20.1966
663.738	19.572
665.462	19.405
667.185	19.398
668.905	20.2604
670.628	20.8631
672.348	20.5567
674.067	21.6179
675.789	21.6079
677.508	22.4398
679.228	24.0135
680.947	25.5921
682.667	26.6847
684.385	27.6917
686.104	28.9492
687.821	29.7205
689.538	31.5561
691.256	32.2891
692.972	33.1651
694.69	34.66
696.406	34.6297
698.121	36.053
699.837	37.4602
701.552	39.3435
703.268	39.8761
704.982	41.4609
706.695	42.8164
708.41	43.7415
710.123	43.7766
711.836	43.9298
713.55	44.9379
715.262	45.7068
716.973	45.8707
718.685	45.9333
720.398	46.697
722.108	46.0544
723.818	46.7712
725.53	46.4896
727.24	46.2646
728.949	46.6471
730.658	46.9908
732.369	47.4161
734.077	47.5
735.785	49.1915
737.493	48.3794
739.2	49.0461
740.909	49.7741
742.616	51.2555
744.322	51.4709
746.028	51.8195
747.734	53.22
749.441	54.5419
751.146	56.4406
752.851	57.6562
754.555	59.0031
756.26	60.4495
757.963	62.4395
759.667	64.4465
761.372	65.136
763.075	67.4069
764.777	67.8709
766.479	69.5793
768.181	71.1772
769.883	72.4419
771.584	74.0607
773.285	75.2552
774.986	77.1961
776.686	78.675
778.386	80.334
780.085	82.4417
781.785	82.8345
783.484	84.3938
785.182	84.5991
786.881	85.7288
788.579	86.0949
790.276	86.8256
791.974	87.2591
793.671	88.1531
795.367	88.238
797.064	88.2386
798.76	88.0486
800.456	87.773
802.151	87.8218
803.846	88.6782
805.541	88.0026
807.236	88.0034
808.93	88.9606
810.624	88.6771
812.317	88.5142
814.01	88.7593
815.703	89.4718
817.394	90.6467
819.086	90.601
820.778	89.6543
822.47	88.769
824.161	88.1104
825.852	87.7995
827.543	87.1118
829.231	85.9622
830.921	84.9554
832.611	84.291
834.3	82.5744
835.989	81.2091
837.676	79.6059
839.364	78.401
841.053	76.6324
842.74	74.9849
844.426	72.8153
846.113	71.4168
847.8	69.9283
849.486	68.4224
851.171	68.4112
852.857	66.8417
854.542	65.4237
856.227	63.4922
857.911	61.5541
859.595	60.1894
861.279	58.9041
862.961	57.169
864.645	55.8676
866.329	54.5276
868.01	53.6437
869.692	53.2316
871.375	52.783
873.055	51.2511
874.737	50.3906
876.418	50.0697
878.097	48.632
879.778	47.7579
881.457	47.0078
883.137	47.166
884.817	47.4243
886.495	47.4284
888.174	47.2179
889.851	46.5436
891.53	47.6801
893.206	48.1276
894.884	48.1795
896.562	47.6484
898.237	47.9192
899.914	48.6949
901.589	48.4462
903.265	46.8205
904.94	45.8319
906.615	45.6845
908.289	45.4341
909.964	45.8006
911.637	45.4046
913.31	45.1052
914.984	43.8082
916.656	44.7675
918.33	44.1176
920.001	43.9956
921.674	42.805
923.345	42.0728
925.015	41.2931
926.687	41.0543
928.357	41.3883
930.028	40.5032
931.698	39.8437
933.366	38.9782
935.037	38.2692
936.705	37.7435
938.373	37.3811
940.043	36.7803
941.71	37.4424
943.379	36.6643
945.046	35.9738
946.712	35.8642
948.378	35.8015
950.046	35.6951
951.711	35.5409
953.376	35.1031
955.043	35.4187
956.708	34.7771
958.372	34.7236
960.036	34.4122
961.701	34.733
963.364	36.1187
965.027	36.5453
966.69	37.584
968.354	36.5313
970.016	36.3133
971.678	36.4365
973.339	36.1364
975	35.6097
976.661	34.652
978.324	34.1932
979.984	33.3932
981.644	33.354
983.303	32.7457
984.962	33.0492
986.621	32.4302
988.282	33.0595
989.94	33.4532
991.598	32.636
993.256	31.7546
994.913	31.0226
996.57	30.4859
998.227	30.2227
999.884	30.6506
1001.54	29.8377
1003.2	29.4008
1004.85	28.9994
1006.51	28.7415
1008.16	28.74
1009.82	28.5548
1011.47	29.0349
1013.12	28.0454
1014.78	28.5
1016.43	28.8561
1018.08	29.375
1019.74	29.8173
1021.39	29.2211
1023.04	28.5561
1024.69	28.3569
1026.34	28.407
1028	29.0854
1029.65	29.4337
1031.3	29.858
1032.95	29.3124
1034.6	29.6428
1036.25	29.436
1037.9	29.3829
1039.55	28.2116
1041.19	28.6182
1042.84	28.0304
1044.49	28.6029
1046.14	27.6332
1047.79	27.1517
1049.43	27.0484
1051.08	24.9614
1052.73	24.918
1054.37	23.6504
1056.02	22.4507
1057.66	21.4837
1059.31	21.4135
1060.95	21.3494
1062.6	20.6438
1064.24	19.9214
1065.88	18.7866
1067.53	17.9446
1069.17	16.417
1070.81	15.4733
1072.46	15.029
1074.1	14.2757
1075.74	14.3698
1077.38	14.8145
1079.02	14.7302
1080.66	14.5254
1082.3	14.1357
1083.94	14.0541
1085.58	14.3407
1087.22	15.1398
1088.86	14.7916
1090.5	15.9698
1092.14	15.7589
1093.78	16.0076
1095.42	15.4418
1097.05	16.1759
1098.69	16.2767
1100.33	15.8851
1101.97	15.6046
1103.6	14.9714
1105.24	15.2688
1106.87	15.0939
1108.51	15.1951
1110.15	14.5749
1111.78	13.9327
1113.41	13.9166
1115.05	13.1459
1116.68	13.1737
1118.31	12.4555
1119.95	11.7501
1121.58	11.4241
1123.21	10.9542
1124.85	10.2915
1126.48	10.2782
1128.11	9.40098
1129.74	9.12723
1131.37	8.31706
1133	6.46227
1134.63	5.8306
1136.26	5.11833
1137.89	4.02451
1139.52	3.69115
1141.15	2.88218
1142.78	2.74111
1144.41	2.14455
1146.04	0.709174
1147.66	-0.0270709
1149.29	0.32181
1150.92	-0.0683467
1152.55	0.154905
1154.17	0.35595
1155.8	-0.413068
1157.43	-0.743775
1159.05	-0.376829
1160.68	-0.610431
1162.3	-0.40157
1163.93	0.0293025
1165.55	0.503769
1167.17	1.07641
1168.8	1.06613
1170.42	0.759374
1172.05	0.871658
1173.67	-0.142902
1175.29	0.129029
1176.91	0.0878096
1178.54	0.788629
1180.16	-0.0653746
1181.78	1.01821
1183.4	0.938749
1185.02	1.04751
1186.64	0.675209
1188.26	0.558793
1189.88	1.15663
1191.5	1.21331
1193.12	0.960402
1194.74	1.46223
1196.36	2.37574
1197.97	1.84096
1199.59	2.58881
1201.21	2.58947
1202.83	3.22377
1204.44	3.32078
1206.06	4.1971
1207.68	4.42478
1209.29	3.93357
1210.91	4.73819
1212.52	5.27587
1214.14	5.7901
1215.75	6.97842
1217.37	8.13975
1218.98	9.70284
1220.6	12.1195
1222.21	13.5146
1223.82	15.1641
1225.44	16.7304
1227.05	18.0229
1228.66	20.5609
1230.27	22.9671
1231.88	24.1346
1233.49	26.2048
1235.1	27.5205
1236.72	28.4997
1238.33	30.5279
1239.94	31.4919
1241.55	32.8359
1243.16	33.6476
1244.76	34.6679
1246.37	35.8817
1247.98	37.2034
1249.59	38.2905
1251.2	39.389
1252.8	40.4076
1254.41	42.5363
1256.02	44.1829
1257.63	45.3025
1259.23	47.4471
1260.84	48.8618
1262.44	49.8947
1264.05	50.3274
1265.66	52.1455
1267.26	53.3105
1268.87	55.1083
1270.47	55.3731
1272.07	55.9851
1273.68	56.893
1275.28	57.9768
1276.88	58.5334
1278.48	58.0117
1280.09	58.8485
1281.69	58.5705
1283.29	59.3691
1284.89	59.464
1286.49	58.9297
1288.09	58.3975
1289.69	58.6187
1291.3	59.6158
1292.9	59.8516
1294.49	59.675
1296.09	60.2943
1297.69	59.8956
1299.29	60.3655
1300.89	60.7016
1302.49	60.3975
1304.09	60.8255
1305.68	61.2573
1307.28	61.394
1308.88	61.5993
1310.47	61.8928
1312.07	60.7377
1313.66	60.0126
1315.26	60.2991
1316.86	59.2558
1318.45	59.2701
1320.05	58.3055
1321.64	58.4601
1323.23	57.6486
1324.83	57.1119
1326.42	56.7555
1328.01	55.9982
1329.61	56.1905
1331.2	56.0416
1332.79	56.0263
1334.38	55.311
1335.98	54.029
1337.57	53.916
1339.16	53.498
1340.75	52.4432
1342.34	51.5793
1343.93	51.858
1345.52	51.0593
1347.11	48.9111
1348.7	48.327
1350.29	46.5593
1351.87	46.0578
1353.46	45.2724
1355.05	44.1597
1356.64	43.0734
1358.23	42.0386
1359.81	41.0335
1361.4	39.5443
1362.99	38.9206
1364.57	37.3463
1366.16	35.597
1367.74	35.2346
1369.33	34.5815
1370.91	33.4874
1372.5	33.0428
1374.08	32.3753
1375.67	31.9188
1377.25	31.8563
1378.83	32.6624
1380.42	32.8488
1382	33.0243
1383.58	34.214
1385.16	33.6153
1386.75	32.9655
1388.33	32.2339
1389.91	31.8223
1391.49	30.1002
1393.07	30.2421
1394.65	30.3014
1396.23	28.9188
1397.81	28.4862
1399.39	28.4355
1400.97	28.2072
1402.55	28.1625
1404.13	27.6547
1405.7	28.4249
1407.28	29.0797
1408.86	30.1814
1410.44	29.832
1412.01	29.9443
1413.59	29.7557
1415.17	31.3568
1416.74	32.7369
1418.32	33.4673
1419.89	34.9457
1421.47	36.7172
1423.05	37.7082
1424.62	39.2087
1426.19	41.4324
1427.77	44.614
1429.34	46.8791
1430.92	49.2521
1432.49	51.3938
1434.06	52.9087
1435.63	55.5608
1437.2	57.0737
1438.78	59.0251
1440.35	61.31
1441.92	63.6253
1443.49	64.8246
1445.06	66.4351
1446.63	68.1857
1448.2	68.9198
1449.77	69.9795
1451.34	70.9308
1452.91	71.2402
1454.48	70.5255
1456.05	70.4707
1457.62	69.3877
1459.18	67.4031
1460.75	65.2167
1462.32	63.1713
1463.89	61.155
1465.45	58.4145
1467.02	57.0511
1468.59	54.453
1470.15	51.7355
1471.72	50.524
1473.28	47.4604
1474.85	44.9068
1476.41	42.5296
1477.98	40.5054
1479.54	36.7303
1481.11	33.7259
1482.67	30.6498
1484.23	28.3485
1485.8	25.5319
1487.36	23.0104
1488.92	19.8422
1490.48	18.4997
1492.05	16.8279
1493.61	15.6982
1495.17	13.8424
1496.73	12.216
1498.29	11.3584
1499.85	11.0406
1501.41	10.2743
1502.97	10.5895
1504.53	10.6912
1506.09	11.0149
1507.65	11.1487
1509.2	11.1537
1510.76	10.9678
1512.32	10.9727
1513.88	12.8592
1515.44	13.5623
1516.99	14.8901
1518.55	16.4203
1520.1	16.9005
1521.66	17.7728
1523.22	19.0843
1524.77	19.374
1526.33	19.389
1527.88	19.7429
1529.44	20.0901
1530.99	20.874
1532.55	21.4019
1534.1	22.9992
1535.65	23.8201
1537.21	24.9833
1538.76	26.4583
1540.31	29.0115
1541.86	30.5295
1543.42	31.4081
1544.97	33.6223
1546.52	34.4772
1548.07	36.5484
1549.62	38.6135
1551.17	39.5848
1552.72	41.2051
1554.27	41.8608
1555.82	43.1112
1557.37	44.8246
1558.92	46.8615
1560.47	48.696
1562.02	49.9572
1563.57	52.0075
1565.11	53.9253
1566.66	55.2993
1568.21	57.0577
1569.75	57.696
1571.3	58.8186
1572.85	59.4892
1574.39	60.4424
1575.94	62.0649
1577.49	63.6337
1579.03	64.247
1580.58	65.1809
1582.12	66.0836
1583.67	67.3437
1585.21	67.73
1586.75	68.5733
1588.3	68.6802
1589.84	68.9538
1591.38	69.0882
1592.93	68.8164
1594.47	68.4275
1596.01	67.6364
1597.55	66.3384
1599.09	65.629
1600.63	64.5786
1602.18	63.059
1603.72	62.4611
1605.26	62.3423
1606.8	62.1122
1608.34	61.3901
1609.87	60.5266
1611.41	60.0984
1612.95	59.4509
1614.49	60.221
1616.03	60.4417
1617.57	60.5261
1619.11	60.2142
1620.64	60.2918
1622.18	60.9055
1623.72	61.1975
1625.25	61.7917
1626.79	62.569
1628.32	62.7132
1629.86	63.2386
1631.4	63.7957
1632.93	65.41
1634.47	67.0633
1636	67.0335
1637.53	67.5339
1639.07	68.5731
1640.6	69.3279
1642.14	70.1248
1643.67	70.7133
1645.2	71.184
1646.73	71.093
1648.27	71.6262
1649.8	72.3624
1651.33	72.9789
1652.86	73.7648
1654.39	73.909
1655.92	73.7494
1657.45	73.9799
1658.98	74.42
1660.51	74.4829
1662.04	73.2977
1663.57	73.2395
1665.1	71.7848
1666.63	70.5069
1668.16	70.056
1669.69	69.5775
1671.21	67.7138
1672.74	65.5798
1674.27	63.8176
1675.79	61.6855
1677.32	59.716
1678.85	57.4877
1680.37	54.983
1681.9	52.3877
1683.42	50.5566
1684.95	48.1221
1686.47	46.3352
1688	44.8479
1689.52	42.8891
1691.05	41.1135
1692.57	38.3518
1694.1	35.5005
1695.62	32.6838
1697.14	30.3639
1698.66	28.8977
1700.19	26.736
1701.71	24.9673
1703.23	23.3851
1704.75	21.156
1706.27	19.6715
1707.79	18.1656
1709.32	16.6817
1710.83	15.5271
1712.35	14.1973
1713.88	12.9995
1715.39	12.2265
1716.91	10.9602
1718.43	10.2905
1719.95	8.77282
1721.47	7.93192
1722.99	7.30284
1724.5	8.13282
1726.02	8.14594
1727.54	7.06968
1729.06	7.13842
1730.57	7.35913
1732.09	7.54553
1733.61	7.80083
1735.12	7.90624
1736.64	7.28945
1738.15	7.28709
1739.67	7.76932
1741.18	7.68204
1742.7	7.61991
1744.21	7.87732
1745.72	7.04454
1747.24	6.65507
1748.75	6.42432
1750.26	5.88738
1751.78	6.0378
1753.29	6.07118
1754.8	5.63731
1756.31	5.91959
1757.82	6.05508
1759.34	6.73911
1760.85	5.8257
1762.36	5.67801
1763.87	5.48011
1765.38	4.58093
1766.89	4.38589
1768.4	3.94256
1769.91	3.19598
1771.41	2.72409
1772.92	3.11865
1774.43	3.37266
1775.94	2.95354
1777.45	2.76127
1778.96	2.46416
1780.46	2.00024
1781.97	1.76902
1783.48	1.75202
1784.98	1.76692
1786.49	1.75695
1788	1.53858
1789.5	0.524209
1791.01	0.226962
1792.51	-0.34704
1794.01	-0.136585
1795.52	-0.0349158
1797.02	0.357874
1798.53	0.147806
1800.03	0.308481
1801.54	-0.38763
1803.04	-0.990824
1804.54	-0.660843
1806.04	-0.161674
1807.54	-0.104362
1809.05	0.0667325
1810.55	-0.300122
1812.05	-0.413497
1813.55	0.276022
1815.05	0.508748
1816.55	0.724799
1818.05	0.812709
1819.55	1.1046
1821.05	0.809732
1822.55	1.33882
1824.05	1.00341
1825.55	0.773938
1827.05	0.990179
1828.55	0.695912
1830.04	0.683912
1831.54	0.781992
1833.04	0.679017
1834.54	1.25928
1836.03	1.28174
1837.53	1.39187
1839.03	1.29829
1840.52	1.78299
1842.02	1.79901
1843.51	1.73253
1845.01	1.60217
1846.5	1.84664
1848	1.56759
1849.49	1.65714
1850.99	1.61163
1852.48	1.54874
1853.97	1.27913
1855.47	0.983741
1856.96	1.32806
1858.45	1.41949
1859.94	1.32963
1861.44	0.781868
1862.93	0.264422
1864.42	0.143239
1865.91	0.328614
1867.4	1.12972
1868.89	1.30669
1870.38	0.86367
1871.87	1.10081
1873.36	1.31331
1874.85	1.99798
1876.34	2.14378
1877.83	2.20644
1879.32	2.32569
1880.81	2.8915
1882.3	2.87444
1882.56	2.97573
1884.06	3.03498
1885.55	3.96133
1887.04	3.97062
1888.54	4.30003
1890.03	4.6611
1891.52	4.73589
1893.02	5.13248
1894.51	5.58572
1896	5.08532
1897.49	4.5472
1898.99	4.25557
1900.48	4.49
1901.97	5.09716
1903.46	5.36515
1904.95	5.38246
1906.44	5.7038
1907.93	5.61547
1909.42	5.42708
1910.91	5.09701
1912.4	5.2279
1913.89	5.72871
1915.38	5.16156
1916.86	5.25029
1918.35	4.88488
1919.84	4.19647
1921.33	3.6086
1922.82	3.3992
1924.3	3.3023
1925.79	3.40804
1927.28	2.84966
1928.76	2.96415
1930.25	3.26021
1931.74	2.39804
1933.22	1.49093
1934.71	0.826624
1936.19	0.289079
1937.67	0.75803
1939.16	0.878209
1940.64	0.862064
1942.13	0.579239
1943.61	0.679558
1945.09	1.10791
1946.58	1.37813
1948.06	1.63129
1949.54	1.32722
1951.03	0.803139
1952.51	1.17748
1953.99	1.56516
1955.47	1.50022
1956.95	2.26346
1958.43	2.23945
1959.91	2.95454
1961.39	2.90582
1962.87	3.21663
1964.35	2.98166
1965.83	2.65786
1967.31	2.60787
1968.79	2.15154
1970.27	1.43156
1971.75	2.05805
1973.22	2.57219
1974.7	3.89323
1976.18	3.63592
1977.66	3.57598
1979.13	3.84043
1980.61	4.37094
1982.09	4.57745
1983.56	4.51329
1985.04	4.82656
1986.52	5.67089
1987.99	5.51663
1989.47	5.4656
1990.94	5.34014
1992.41	4.65248
1993.89	4.19134
1995.36	4.7361
1996.84	4.58745
1998.31	4.44914
1999.78	4.50354
2001.26	3.83617
2002.73	3.94368
2004.2	3.44249
2005.67	2.83579
2007.15	3.01846
2008.62	3.02314
2010.09	3.12136
2011.56	3.95067
2013.03	3.91822
2014.5	3.97583
2015.97	4.17937
2017.44	4.14497
2018.91	4.47443
2020.38	4.80465
2021.85	4.53743
2023.32	4.51885
2024.79	4.34595
2026.25	5.08327
2027.72	5.91839
2029.19	6.02326
2030.66	6.34785
2032.13	6.43096
2033.59	6.55679
2035.06	6.15348
2036.53	6.23807
2037.99	7.01625
2039.46	7.25841
2040.92	8.25392
2042.39	9.02956
2043.85	9.19179
2045.32	9.91557
2046.78	10.3854
2048.25	11.6096
2049.71	11.3798
2051.18	11.7358
2052.64	11.7934
2054.1	12.1859
2055.56	12.4217
2057.03	12.7043
2058.49	13.4088
2059.95	13.4312
2061.42	12.6277
2062.88	12.8645
2064.34	12.8367
2065.8	12.9694
2067.26	13.3373
2068.72	14.1989
2070.18	13.8116
2071.64	14.1878
2073.1	14.9281
2074.56	14.7796
2076.02	15.3938
2077.48	15.6911
2078.94	15.8972
2080.39	16.2487
2081.85	16.1868
2083.31	16.5279
2084.77	17.1441
2086.22	17.7423
2087.68	18.2056
2089.14	18.9333
2090.6	19.8909
2092.05	20.3407
2093.51	21.6937
2094.96	22.6551
2096.42	23.9865
2097.87	25.1044
2099.33	26.8587
2100.78	28.1345
2102.24	28.7745
2103.69	30.2745
2105.15	31.7273
2106.6	33.3711
2108.05	35.2232
2109.51	37.4715
2110.96	39.0811
2112.41	40.4129
2113.86	42.5121
2115.32	44.037
2116.77	45.9007
2118.22	47.6632
2119.67	49.7305
2121.12	51.791
2122.57	53.3106
2124.02	54.9849
2125.47	57.0912
2126.92	59.1009
2128.37	60.7482
2129.82	62.127
2131.27	63.4448
