#Acq. time (s)=	45
#Accumulations=	2
#Range (cm-¹)=	200...3150
#Windows=	2
#Auto scanning=	Off
#Autofocus=	Off
#Macrospot=	Off
#AutoExposure=	Off
#Spike filter=	Multiple accum.
#Delay time (s)=	0
#Binning=	1
#Readout mode=	Signal
#DeNoise=	Off
#ICS correction=	On
#Dark correction=	Off
#Inst. Process=	Off
#Detector Gain=	Best Dynamic Range
#Detector ADC=	20 kHz       
#Detector temperature (°C)=	-69.85
#Instrument=	LabRAM HR Evol
#Detector=	Synapse
#Objective=	x100
#Grating=	600 gr/mm
#ND Filter=	100%
#Laser (nm)=	532 
#Hole=	100.021
#Range=	Auto
#Laser Pol.=	No
#Raman. Pol.=	No
#Laser Pol. (°)=	-0.0007625
#Raman Pol. (°)=	89.9995
#Collection=	Microscope
#StageXY=	Marzhauser
#StageZ=	Marzhauser
#X (µm)=	-5139.9
#Y (µm)=	1481.1
#Z (µm)=	63.15
#Full time(mm:ss)=	3:18
#Project=	
#Sample=	
#Site=	
#Title=	Thy_50_12_19_2x_45s_532 nm_x100_100%_600 gr_mm
#Remark=	
#Date=	07.07.2022 10:37
#Acquired=	07.07.2022 10:37:40
#Base:Fit=	10.08.2022 10:04:29
#Base:Sub=	10.08.2022 10:04:45
#Filter:Polynom=	16.08.2022 10:20:24
#AxisType[0]=Intens
#AxisUnit[0]=Cnt
#AxisType[1]=Spectr
#AxisUnit[1]=1/cm
200.43	17.0388
202.246	16.1406
204.061	15.6914
205.875	15.6286
207.688	15.8794
209.501	15.7724
211.316	15.543
213.129	15.1377
214.941	14.6157
216.753	14.8141
218.566	13.5461
220.377	13.0043
222.188	11.3255
223.999	9.99911
225.809	9.89415
227.618	9.06856
229.43	8.40282
231.239	8.41881
233.047	8.10658
234.855	7.81902
236.663	7.29245
238.471	7.06746
240.278	6.82479
242.087	5.99199
243.894	5.4778
245.7	5.38086
247.506	5.10216
249.311	4.84817
251.116	4.12882
252.921	3.3904
254.725	3.59285
256.529	3.20481
258.333	4.48965
260.136	4.45557
261.939	4.52806
263.744	4.17023
265.546	3.27775
267.348	3.14659
269.15	3.47556
270.951	4.11606
272.752	5.15405
274.552	5.32463
276.353	5.33184
278.152	5.46929
279.952	5.81985
281.751	5.21625
283.55	4.49956
285.348	4.51835
287.146	4.24579
288.942	6.07864
290.739	6.55553
292.536	7.81145
294.333	8.91625
296.129	9.40687
297.925	8.48408
299.721	8.87583
301.516	9.40692
303.311	9.90883
305.106	9.56098
306.9	9.96606
308.694	8.84194
310.486	9.14246
312.279	8.87991
314.072	9.69738
315.864	10.9437
317.656	10.5102
319.448	10.3923
321.24	11.0676
323.029	11.6024
324.819	11.9112
326.61	11.842
328.4	11.9724
330.19	12.0163
331.977	11.8856
333.766	12.5684
335.555	13.0097
337.343	13.7429
339.131	12.8946
340.917	12.5107
342.704	12.0818
344.491	12.1812
346.277	12.5336
348.062	12.2594
349.848	11.3976
351.633	10.3793
353.416	10.0434
355.201	9.50613
356.986	8.96715
358.77	8.94966
360.552	7.96715
362.335	7.00748
364.118	6.27451
365.899	5.92462
367.682	5.62414
369.464	4.74294
371.243	3.53504
373.025	3.71992
374.806	3.28324
376.585	3.46405
378.365	4.55206
380.143	4.12863
381.923	4.00651
383.702	3.52577
385.479	2.66511
387.258	1.95666
389.034	2.44762
390.812	2.00276
392.59	1.3949
394.365	1.07512
396.142	0.610546
397.916	0.315884
399.693	0.639893
401.467	0.505254
403.242	0.292206
405.015	0.368042
406.79	0.323102
408.565	1.09117
410.337	1.63741
412.111	1.99325
413.882	1.07486
415.656	1.53803
417.426	1.67214
419.197	2.14002
420.969	2.29024
422.739	2.45613
424.51	2.65586
426.279	2.15977
428.05	1.64793
429.819	2.63152
431.589	3.32174
433.356	4.14373
435.124	5.58058
436.893	5.08029
438.66	5.58504
440.428	5.5334
442.194	5.60146
443.96	5.45693
445.727	5.851
447.492	6.34267
449.259	6.20317
451.023	6.40947
452.787	7.64564
454.553	8.40988
456.316	8.30254
458.079	7.79463
459.844	9.24587
461.606	9.64167
463.368	10.4148
465.132	11.2474
466.893	11.6372
468.654	11.1283
470.415	11.7419
472.177	11.963
473.937	12.51
475.696	12.9411
477.456	13.4503
479.217	13.7053
480.975	14.1936
482.733	14.0362
484.491	13.2133
486.251	14.0708
488.008	14.1718
489.765	15.0807
491.522	16.0376
493.278	17.117
495.036	17.7032
496.791	17.4723
498.546	16.8536
500.301	17.1284
502.056	17.3922
503.81	17.6504
505.566	17.457
507.319	17.224
509.073	16.71
510.825	16.9364
512.578	17.337
514.33	17.4693
516.082	17.9303
517.833	18.9143
519.587	19.3093
521.337	19.1107
523.088	19.0118
524.838	18.5168
526.588	18.5128
528.337	18.0941
530.087	17.1858
531.835	17.8
533.584	17.1556
535.332	16.7372
537.08	16.9614
538.827	16.9773
540.574	17.9363
542.321	17.1379
544.068	15.8951
545.814	15.114
547.56	14.8635
549.305	14.0511
551.05	14.4053
552.795	13.0224
554.54	12.5888
556.284	11.7989
558.027	11.8482
559.771	11.8377
561.514	11.9429
563.257	12.3889
564.999	12.1221
566.742	12.1427
568.481	12.1864
570.223	11.3475
571.964	11.9412
573.705	12.9419
575.445	13.03
577.185	13.2005
578.925	12.2293
580.665	11.5068
582.402	10.5356
584.141	9.5076
585.879	8.43827
587.617	8.17155
589.355	7.73004
591.092	6.67423
592.828	6.40443
594.564	6.34144
596.301	6.36144
598.037	6.59592
599.773	5.5836
601.506	5.71494
603.242	5.89942
604.976	6.54686
606.711	6.84593
608.443	6.53163
610.177	6.72292
611.91	7.38055
613.644	7.89124
615.374	8.39337
617.107	7.41522
618.839	8.79549
620.569	8.84519
622.3	9.71698
624.032	10.2788
625.761	10.4535
627.491	11.4508
629.221	11.4309
630.949	11.8184
632.679	12.7203
634.408	12.9173
636.135	14.0026
637.863	15.4446
639.592	16.8713
641.318	18.5288
643.045	19.6774
644.77	20.796
646.497	22.1429
648.224	22.8845
649.948	23.9205
651.674	24.4395
653.398	25.0271
655.123	25.7873
656.846	26.3108
658.57	26.287
660.293	25.7858
662.017	26.4169
663.738	25.6556
665.462	26.5418
667.185	26.7893
668.905	26.8611
670.628	26.9987
672.348	27.3738
674.067	27.8823
675.789	27.7338
677.508	27.6778
679.228	27.7721
680.947	27.8309
682.667	27.4738
684.385	27.2479
686.104	27.2999
687.821	29.175
689.538	30.5648
691.256	30.9855
692.972	31.6867
694.69	32.0346
696.406	33.184
698.121	33.9828
699.837	34.8568
701.552	35.1606
703.268	35.4923
704.982	36.8429
706.695	37.498
708.41	37.5734
710.123	38.3251
711.836	39.5015
713.55	40.2552
715.262	41.1561
716.973	40.956
718.685	41.582
720.398	42.6363
722.108	44.9161
723.818	47.2311
725.53	48.3615
727.24	48.8179
728.949	49.0919
730.658	49.4045
732.369	50.2435
734.077	50.6554
735.785	51.6417
737.493	52.6885
739.2	53.7211
740.909	55.0005
742.616	55.2358
744.322	55.4337
746.028	56.8638
747.734	59.102
749.441	59.2321
751.146	61.4865
752.851	61.4007
754.555	63.2225
756.26	64.678
757.963	65.5636
759.667	66.7181
761.372	67.2701
763.075	68.1779
764.777	69.1835
766.479	69.8555
768.181	70.7074
769.883	72.0003
771.584	73.8709
773.285	75.3412
774.986	76.455
776.686	76.7416
778.386	77.9291
780.085	79.3744
781.785	81.1035
783.484	82.0839
785.182	82.1932
786.881	82.6934
788.579	83.5986
790.276	84.5893
791.974	85.7515
793.671	85.7915
795.367	87.541
797.064	87.8558
798.76	88.0579
800.456	88.4635
802.151	88.7216
803.846	89.8129
805.541	90.426
807.236	90.8501
808.93	90.4799
810.624	90.3794
812.317	89.6077
814.01	89.4693
815.703	88.7588
817.394	88.1481
819.086	88.0479
820.778	88.1709
822.47	87.8549
824.161	87.0481
825.852	86.1296
827.543	85.2532
829.231	84.8492
830.921	84.4773
832.611	83.1761
834.3	81.7149
835.989	80.9572
837.676	80.31
839.364	80.0633
841.053	77.7599
842.74	75.2225
844.426	72.9119
846.113	69.6808
847.8	68.3717
849.486	66.8615
851.171	64.5985
852.857	63.3659
854.542	63.7268
856.227	62.8797
857.911	62.5416
859.595	61.7522
861.279	60.1036
862.961	58.6489
864.645	57.3416
866.329	57.2149
868.01	56.1435
869.692	55.6699
871.375	56.1763
873.055	56.1708
874.737	54.9584
876.418	54.0511
878.097	53.3452
879.778	53.4527
881.457	52.2904
883.137	52.4313
884.817	52.2805
886.495	52.6324
888.174	52.5493
889.851	52.0485
891.53	52.1682
893.206	51.8563
894.884	52.8547
896.562	52.2849
898.237	53.139
899.914	52.4375
901.589	53.0589
903.265	53.386
904.94	53.218
906.615	53.4459
908.289	53.2593
909.964	53.1114
911.637	52.3339
913.31	52.3114
914.984	51.8326
916.656	50.8381
918.33	51.1961
920.001	50.7719
921.674	49.9106
923.345	47.9649
925.015	45.7411
926.687	44.0995
928.357	42.6746
930.028	41.5847
931.698	41.5652
933.366	40.315
935.037	39.8303
936.705	40.5809
938.373	40.496
940.043	38.7793
941.71	38.1294
943.379	36.2719
945.046	35.2385
946.712	35.3071
948.378	35.3895
950.046	36.3151
951.711	36.9707
953.376	36.8046
955.043	36.0047
956.708	34.556
958.372	33.7008
960.036	34.1068
961.701	33.8293
963.364	33.9305
965.027	33.6509
966.69	33.6032
968.354	33.5482
970.016	34.5301
971.678	34.4475
973.339	34.0607
975	34.5587
976.661	34.526
978.324	34.421
979.984	34.1208
981.644	34.1198
983.303	33.6266
984.962	33.6689
986.621	33.4245
988.282	33.4895
989.94	33.3103
991.598	33.6659
993.256	33.8245
994.913	33.9309
996.57	34.499
998.227	34.1877
999.884	33.8369
1001.54	33.1541
1003.2	31.9393
1004.85	30.4235
1006.51	29.6843
1008.16	29.2734
1009.82	29.5284
1011.47	28.9773
1013.12	29.0158
1014.78	28.9657
1016.43	29.3432
1018.08	29.7027
1019.74	29.0343
1021.39	28.6845
1023.04	28.4399
1024.69	29.9027
1026.34	29.4369
1028	30.001
1029.65	29.9297
1031.3	30.4672
1032.95	31.0783
1034.6	30.7182
1036.25	29.8313
1037.9	28.6605
1039.55	28.8186
1041.19	28.8556
1042.84	28.6994
1044.49	27.2856
1046.14	27.2656
1047.79	27.1103
1049.43	27.3387
1051.08	28.1379
1052.73	28.1606
1054.37	26.6116
1056.02	26.2435
1057.66	25.9019
1059.31	24.5319
1060.95	22.8236
1062.6	22.5945
1064.24	21.8882
1065.88	21.2395
1067.53	20.0623
1069.17	19.6735
1070.81	19.1464
1072.46	19.26
1074.1	18.6521
1075.74	17.7957
1077.38	16.5111
1079.02	16.184
1080.66	15.3399
1082.3	13.901
1083.94	12.5489
1085.58	12.0763
1087.22	11.799
1088.86	12.4371
1090.5	12.0489
1092.14	12.3384
1093.78	11.835
1095.42	11.9978
1097.05	11.2524
1098.69	12.2023
1100.33	12.473
1101.97	12.5559
1103.6	13.5383
1105.24	13.8687
1106.87	14.1685
1108.51	13.9384
1110.15	13.649
1111.78	13.2154
1113.41	13.8982
1115.05	13.7752
1116.68	13.1212
1118.31	13.9357
1119.95	13.4832
1121.58	13.6476
1123.21	12.3554
1124.85	12.6073
1126.48	12.2281
1128.11	13.0836
1129.74	13.5592
1131.37	14.0468
1133	14.1808
1134.63	13.0599
1136.26	11.8414
1137.89	11.0188
1139.52	10.1464
1141.15	8.72447
1142.78	8.34031
1144.41	8.43845
1146.04	7.23736
1147.66	6.7388
1149.29	6.11745
1150.92	6.06151
1152.55	5.6942
1154.17	5.24862
1155.8	4.08161
1157.43	4.35667
1159.05	3.98342
1160.68	3.29793
1162.3	1.92547
1163.93	1.59649
1165.55	2.37283
1167.17	2.44322
1168.8	2.83426
1170.42	3.06389
1172.05	2.60521
1173.67	2.77221
1175.29	1.8366
1176.91	2.05874
1178.54	1.67304
1180.16	2.24058
1181.78	1.99492
1183.4	1.76959
1185.02	1.47313
1186.64	1.31451
1188.26	0.548898
1189.88	0.696114
1191.5	0.670562
1193.12	0.866486
1194.74	0.738192
1196.36	1.05715
1197.97	0.847782
1199.59	1.77061
1201.21	2.12023
1202.83	1.89657
1204.44	2.26986
1206.06	3.85195
1207.68	5.23827
1209.29	6.24831
1210.91	8.04313
1212.52	8.5443
1214.14	8.95287
1215.75	9.15761
1217.37	9.84087
1218.98	10.5298
1220.6	12.2044
1222.21	13.2443
1223.82	14.838
1225.44	16.1061
1227.05	17.7464
1228.66	19.0607
1230.27	19.635
1231.88	20.7868
1233.49	22.5911
1235.1	23.8695
1236.72	24.4697
1238.33	25.8549
1239.94	26.9901
1241.55	28.1411
1243.16	29.9052
1244.76	30.7599
1246.37	31.8743
1247.98	32.7085
1249.59	34.5744
1251.2	35.2167
1252.8	35.8361
1254.41	37.2371
1256.02	37.67
1257.63	39.3842
1259.23	40.2231
1260.84	41.2696
1262.44	42.1541
1264.05	43.1544
1265.66	43.3897
1267.26	44.1497
1268.87	44.2919
1270.47	45.0154
1272.07	45.6791
1273.68	45.5503
1275.28	46.5264
1276.88	47.6661
1278.48	47.9038
1280.09	49.0174
1281.69	49.5863
1283.29	50.0419
1284.89	51.3613
1286.49	52.4605
1288.09	52.9178
1289.69	52.1012
1291.3	52.8423
1292.9	51.6079
1294.49	51.2367
1296.09	51.1256
1297.69	50.847
1299.29	51.3366
1300.89	51.8972
1302.49	51.8376
1304.09	52.0824
1305.68	51.8787
1307.28	51.7295
1308.88	50.8975
1310.47	51.2194
1312.07	51.4604
1313.66	51.6286
1315.26	50.9818
1316.86	50.2402
1318.45	50.5762
1320.05	50.049
1321.64	49.086
1323.23	47.999
1324.83	47.0438
1326.42	47.8343
1328.01	46.9623
1329.61	46.4698
1331.2	45.8458
1332.79	45.3571
1334.38	45.7131
1335.98	45.3306
1337.57	45.3822
1339.16	44.1543
1340.75	42.8167
1342.34	42.4932
1343.93	41.745
1345.52	40.2496
1347.11	39.046
1348.7	38.4147
1350.29	37.9814
1351.87	37.599
1353.46	37.3686
1355.05	37.0654
1356.64	36.7944
1358.23	36.359
1359.81	35.9851
1361.4	34.436
1362.99	33.6121
1364.57	32.3399
1366.16	31.2228
1367.74	30.0398
1369.33	29.3558
1370.91	29.4089
1372.5	27.7982
1374.08	27.1707
1375.67	27.2878
1377.25	27.2432
1378.83	27.541
1380.42	26.8629
1382	26.9072
1383.58	26.5862
1385.16	26.6582
1386.75	25.7969
1388.33	25.1569
1389.91	24.9141
1391.49	24.8759
1393.07	24.097
1394.65	23.5038
1396.23	22.9177
1397.81	22.9154
1399.39	23.3981
1400.97	24.3611
1402.55	24.8752
1404.13	25.9058
1405.7	27.3088
1407.28	27.0831
1408.86	28.1877
1410.44	29.1694
1412.01	30.7597
1413.59	32.7421
1415.17	32.3417
1416.74	32.9643
1418.32	34.8943
1419.89	37.3125
1421.47	39.5177
1423.05	41.3387
1424.62	43.5937
1426.19	46.0203
1427.77	48.3584
1429.34	49.9042
1430.92	51.388
1432.49	53.366
1434.06	54.8572
1435.63	56.1136
1437.2	56.8453
1438.78	57.6692
1440.35	58.5568
1441.92	59.2267
1443.49	59.4088
1445.06	59.3554
1446.63	59.2823
1448.2	59.4931
1449.77	59.4163
1451.34	58.4236
1452.91	58.2353
1454.48	58.2542
1456.05	57.1881
1457.62	55.5508
1459.18	53.9274
1460.75	52.2064
1462.32	49.3141
1463.89	47.3875
1465.45	44.8423
1467.02	43.3013
1468.59	41.512
1470.15	39.4419
1471.72	37.0905
1473.28	35.9981
1474.85	34.4278
1476.41	32.5037
1477.98	30.6109
1479.54	28.7908
1481.11	26.761
1482.67	24.6882
1484.23	22.2818
1485.8	20.2036
1487.36	19.1469
1488.92	18.3178
1490.48	17.5509
1492.05	15.8646
1493.61	15.1602
1495.17	15.5491
1496.73	15.5999
1498.29	14.8494
1499.85	15.2619
1501.41	14.5088
1502.97	13.9417
1504.53	13.1409
1506.09	12.8047
1507.65	12.799
1509.2	12.5388
1510.76	12.9816
1512.32	12.714
1513.88	12.4865
1515.44	12.894
1516.99	13.3393
1518.55	13.6007
1520.1	13.4745
1521.66	13.6993
1523.22	14.3839
1524.77	15.5348
1526.33	16.3863
1527.88	17.2139
1529.44	17.5115
1530.99	17.7375
1532.55	18.8047
1534.1	19.518
1535.65	20.0658
1537.21	21.2668
1538.76	22.7379
1540.31	23.7858
1541.86	25.2453
1543.42	26.7542
1544.97	27.6614
1546.52	28.9012
1548.07	29.7957
1549.62	31.341
1551.17	32.4684
1552.72	33.1776
1554.27	33.5115
1555.82	34.548
1557.37	35.2175
1558.92	35.5357
1560.47	35.8131
1562.02	36.5769
1563.57	37.2997
1565.11	38.1593
1566.66	38.4288
1568.21	39.5526
1569.75	40.5927
1571.3	41.8147
1572.85	42.2239
1574.39	43.3582
1575.94	44.4157
1577.49	45.1891
1579.03	45.0851
1580.58	45.7958
1582.12	46.4194
1583.67	46.7207
1585.21	46.2783
1586.75	46.287
1588.3	46.3351
1589.84	46.9464
1591.38	47.6065
1592.93	47.579
1594.47	47.4508
1596.01	46.966
1597.55	46.5815
1599.09	46.3531
1600.63	46.3446
1602.18	45.8274
1603.72	45.1028
1605.26	45.4011
1606.8	45.103
1608.34	43.8164
1609.87	43.7811
1611.41	43.9677
1612.95	44.0177
1614.49	44.5148
1616.03	44.6801
1617.57	44.5801
1619.11	44.4779
1620.64	45.0201
1622.18	44.8693
1623.72	45.2075
1625.25	45.4771
1626.79	46.4735
1628.32	46.4473
1629.86	47.1628
1631.4	47.5602
1632.93	47.9955
1634.47	48.4118
1636	49.0766
1637.53	50.4437
1639.07	51.4529
1640.6	52.8989
1642.14	54.8379
1643.67	54.9045
1645.2	55.9804
1646.73	56.3644
1648.27	57.2759
1649.8	57.8367
1651.33	58.7296
1652.86	58.6252
1654.39	58.5883
1655.92	59.4213
1657.45	58.6135
1658.98	58.57
1660.51	56.9057
1662.04	56.3056
1663.57	56.4342
1665.1	55.469
1666.63	54.7111
1668.16	53.0189
1669.69	51.6227
1671.21	50.8578
1672.74	48.9188
1674.27	47.4012
1675.79	45.6771
1677.32	44.0962
1678.85	42.496
1680.37	40.4299
1681.9	38.5068
1683.42	36.1554
1684.95	35.1088
1686.47	34.1037
1688	33.2207
1689.52	31.5381
1691.05	29.692
1692.57	28.1771
1694.1	27.0869
1695.62	25.2891
1697.14	24.0468
1698.66	21.8353
1700.19	21.1049
1701.71	20.2547
1703.23	19.2164
1704.75	17.6743
1706.27	16.9898
1707.79	16.2313
1709.32	15.715
1710.83	14.8287
1712.35	14.7312
1713.88	14.6674
1715.39	13.0248
1716.91	12.0729
1718.43	11.1435
1719.95	10.408
1721.47	10.4875
1722.99	10.5758
1724.5	10.828
1726.02	10.3535
1727.54	9.9366
1729.06	9.62813
1730.57	9.35203
1732.09	9.1725
1733.61	8.25684
1735.12	7.7916
1736.64	7.21014
1738.15	8.05758
1739.67	7.79768
1741.18	7.24513
1742.7	6.99959
1744.21	7.08111
1745.72	6.95815
1747.24	6.40279
1748.75	5.57839
1750.26	5.37757
1751.78	5.30148
1753.29	4.98645
1754.8	3.93738
1756.31	3.16941
1757.82	3.42796
1759.34	3.35626
1760.85	3.38342
1762.36	2.0983
1763.87	2.2389
1765.38	1.94561
1766.89	1.55613
1768.4	1.68085
1769.91	1.24661
1771.41	1.10237
1772.92	0.815663
1774.43	0.57304
1775.94	1.31319
1777.45	1.18871
1778.96	1.1356
1780.46	1.19008
1781.97	2.0701
1783.48	2.32801
1784.98	1.73907
1786.49	1.38415
1788	1.74998
1789.5	1.54933
1791.01	1.33284
1792.51	1.80446
1794.01	2.99902
1795.52	3.74329
1797.02	3.30105
1798.53	3.1983
1800.03	2.7441
1801.54	3.00569
1803.04	3.20548
1804.54	3.28042
1806.04	3.00039
1807.54	3.11181
1809.05	2.94785
1810.55	2.927
1812.05	3.36619
1813.55	3.53982
1815.05	3.2674
1816.55	3.29591
1818.05	3.09007
1819.55	2.96144
1821.05	3.02945
1822.55	2.59902
1824.05	2.49138
1825.55	2.5594
1827.05	2.5112
1828.55	2.25983
1830.04	2.04931
1831.54	2.25134
1833.04	2.15507
1834.54	2.22089
1836.03	2.56504
1837.53	2.50898
1839.03	2.64723
1840.52	1.69979
1842.02	1.47192
1843.51	1.7732
1845.01	1.59138
1846.5	1.73503
1848	2.21122
1849.49	2.24255
1850.99	1.76565
1852.48	1.45463
1853.97	1.34778
1855.47	1.80102
1856.96	2.40977
1858.45	2.36357
1859.94	1.92775
1861.44	2.90355
1862.93	3.33243
1864.42	3.50266
1865.91	3.75929
1867.4	3.93875
1868.89	4.95738
1870.38	4.56626
1871.87	4.20728
1873.36	4.55381
1874.85	4.72292
1876.34	5.47262
1877.83	4.82374
1879.32	4.99996
1880.81	5.14792
1882.3	4.68856
1882.56	4.57831
1884.06	5.26621
1885.55	5.79999
1887.04	6.4292
1888.54	6.46471
1890.03	6.3993
1891.52	7.04062
1893.02	7.27856
1894.51	7.37502
1896	7.49416
1897.49	7.73354
1898.99	7.7372
1900.48	7.50331
1901.97	7.56805
1903.46	7.36933
1904.95	7.47926
1906.44	7.40022
1907.93	7.41933
1909.42	6.97066
1910.91	6.85816
1912.4	6.15269
1913.89	6.14998
1915.38	6.54642
1916.86	6.71044
1918.35	6.90806
1919.84	6.78203
1921.33	7.21418
1922.82	6.39568
1924.3	5.91217
1925.79	6.46696
1927.28	6.42119
1928.76	7.1657
1930.25	6.9331
1931.74	5.63004
1933.22	5.12709
1934.71	5.83517
1936.19	5.8288
1937.67	5.73746
1939.16	5.58087
1940.64	5.27491
1942.13	5.38255
1943.61	5.07423
1945.09	4.65583
1946.58	4.69367
1948.06	4.32186
1949.54	4.38272
1951.03	4.13323
1952.51	4.13001
1953.99	3.83115
1955.47	3.97307
1956.95	4.58212
1958.43	4.58248
1959.91	4.7786
1961.39	4.59824
1962.87	4.77439
1964.35	4.94831
1965.83	5.65233
1967.31	5.35403
1968.79	5.80159
1970.27	5.9387
1971.75	5.26702
1973.22	4.34783
1974.7	3.94012
1976.18	4.01321
1977.66	3.98274
1979.13	4.00649
1980.61	3.55184
1982.09	3.10938
1983.56	3.22224
1985.04	3.47267
1986.52	2.88341
1987.99	3.31547
1989.47	2.99417
1990.94	3.04472
1992.41	2.94751
1993.89	2.2983
1995.36	2.32175
1996.84	1.24905
1998.31	0.997732
1999.78	0.993773
2001.26	0.274255
2002.73	0.353781
2004.2	-0.777982
2005.67	-1.1146
2007.15	0.0433789
2008.62	0.156353
2010.09	0.0298157
2011.56	-0.0255532
2013.03	-0.221416
2014.5	0.0487138
2015.97	0.284207
2017.44	0.583943
2018.91	0.70248
2020.38	1.99102
2021.85	2.44157
2023.32	3.08643
2024.79	3.25237
2026.25	3.23223
2027.72	3.71305
2029.19	4.34001
2030.66	4.74639
2032.13	5.23688
2033.59	6.78527
2035.06	7.11264
2036.53	7.19719
2037.99	6.92313
2039.46	7.48571
2040.92	7.44697
2042.39	7.6635
2043.85	7.19175
2045.32	7.30913
2046.78	7.68802
2048.25	8.9188
2049.71	9.61922
2051.18	9.64872
2052.64	9.81855
2054.1	9.84899
2055.56	9.8971
2057.03	10.6971
2058.49	11.2986
2059.95	11.8773
2061.42	12.6467
2062.88	12.6885
2064.34	12.6737
2065.8	13.1176
2067.26	13.0722
2068.72	13.4764
2070.18	14.0207
2071.64	15.0954
2073.1	16.0194
2074.56	16.5822
2076.02	17.2391
2077.48	17.61
2078.94	18.5954
2080.39	19.3275
2081.85	19.3023
2083.31	20.1145
2084.77	20.7096
2086.22	21.2745
2087.68	22.4061
2089.14	23.2455
2090.6	24.3301
2092.05	25.4262
2093.51	26.5033
2094.96	27.2293
2096.42	28.0797
2097.87	28.467
2099.33	29.176
2100.78	30.3322
2102.24	31.2587
2103.69	31.9997
2105.15	32.4381
2106.6	33.6455
2108.05	34.2326
2109.51	35.348
2110.96	36.9558
2112.41	38.6046
2113.86	39.2837
2115.32	40.7735
2116.77	42.6532
2118.22	44.2884
2119.67	45.5985
2121.12	46.4377
2122.57	47.2569
2124.02	48.4984
2125.47	50.5773
2126.92	52.0182
2128.37	53.3804
2129.82	55.7433
2131.27	57.1161
2132.72	58.2854
2134.17	59.4234
