#Acq. time (s)=	45
#Accumulations=	2
#Range (cm-¹)=	200...3150
#Windows=	2
#Auto scanning=	Off
#Autofocus=	Off
#Macrospot=	Off
#AutoExposure=	Off
#Spike filter=	Multiple accum.
#Delay time (s)=	0
#Binning=	1
#Readout mode=	Signal
#DeNoise=	Off
#ICS correction=	On
#Dark correction=	Off
#Inst. Process=	Off
#Detector Gain=	Best Dynamic Range
#Detector ADC=	20 kHz       
#Detector temperature (°C)=	-69.85
#Instrument=	LabRAM HR Evol
#Detector=	Synapse
#Objective=	x100
#Grating=	600 gr/mm
#ND Filter=	100%
#Laser (nm)=	532 
#Hole=	100.021
#Range=	Auto
#Laser Pol.=	No
#Raman. Pol.=	No
#Laser Pol. (°)=	-0.0007625
#Raman Pol. (°)=	89.9995
#Collection=	Microscope
#StageXY=	Marzhauser
#StageZ=	Marzhauser
#X (µm)=	9000.2
#Y (µm)=	-3097.9
#Z (µm)=	-55.3
#Full time(mm:ss)=	3:05
#Project=	
#Sample=	
#Site=	
#Title=	Thy_00_07_5_2x_45s_532 nm_x100_100%_600 gr_mm
#Remark=	
#Date=	28.06.2022 10:21
#Acquired=	28.06.2022 10:21:10
#Base:Fit=	10.08.2022 10:07:56
#Base:Sub=	10.08.2022 10:08:40
#Filter:Polynom=	16.08.2022 10:26:06
#AxisType[0]=Intens
#AxisUnit[0]=Cnt
#AxisType[1]=Spectr
#AxisUnit[1]=1/cm
200.407	28.5552
202.221	28.6689
204.035	27.1667
205.849	24.9485
207.665	23.219
209.478	21.3219
211.291	19.4212
213.104	18.2687
214.916	16.91
216.73	15.2377
218.541	12.5516
220.352	10.823
222.163	10.3958
223.973	9.58198
225.785	8.29996
227.595	7.22189
229.404	7.01211
231.213	7.02366
233.022	6.90821
234.83	6.22193
236.638	5.27777
238.448	4.35854
240.255	3.77161
242.062	2.64984
243.868	2.94835
245.675	3.11249
247.48	3.6209
249.286	3.68291
251.091	4.12396
252.896	3.68501
254.702	3.89163
256.506	4.67116
258.31	5.30106
260.113	4.96258
261.916	4.65585
263.719	4.80266
265.521	5.1381
267.323	5.85498
269.125	5.39511
270.926	5.83936
272.727	6.77395
274.527	8.15396
276.328	8.52334
278.127	8.89437
279.927	9.61043
281.726	10.8189
283.525	11.6525
285.323	12.3657
287.121	12.652
288.919	12.4463
290.716	12.2955
292.513	12.5005
294.31	13.1044
296.104	13.7098
297.9	14.2838
299.696	15.5302
301.491	16.6688
303.286	17.0096
305.081	16.7681
306.875	16.5077
308.669	16.9315
310.463	19.237
312.256	20.7738
314.047	21.1883
315.839	21.3044
317.631	21.8324
319.423	22.272
321.215	22.071
323.006	21.7522
324.794	21.8565
326.585	21.8825
328.375	21.4697
330.165	21.9932
331.954	22.1193
333.741	23.4865
335.53	22.6634
337.318	21.6759
339.106	20.0597
340.894	19.7519
342.679	19.4564
344.466	19.6309
346.253	19.6099
348.039	19.745
349.823	19.8843
351.608	20.1284
353.393	21.3537
355.176	22.3919
356.961	23.2434
358.745	23.8876
360.529	25.3122
362.31	26.2585
364.093	26.7588
365.876	28.0125
367.657	28.5972
369.439	28.8014
371.221	28.8948
373	29.8089
374.781	30.5902
376.56	30.5713
378.34	30.4382
380.12	30.5289
381.898	30.6388
383.677	29.9681
385.456	29.8319
387.233	30.2249
389.011	29.5332
390.787	28.7163
392.565	28.1515
394.34	27.6174
396.117	27.1824
397.894	26.5694
399.668	25.3145
401.444	23.6516
403.217	21.6033
404.993	20.4778
406.766	19.3667
408.54	18.1229
410.312	16.8673
412.086	15.9429
413.858	14.6306
415.631	12.9064
417.402	11.3407
419.174	10.6275
420.944	9.17871
422.716	7.6718
424.486	5.37672
426.257	3.80297
428.025	3.2106
429.794	3.40064
431.564	2.4263
433.332	1.70775
435.101	0.98896
436.868	0.967197
438.637	1.74542
440.403	2.91044
442.169	3.76569
443.937	4.5776
445.703	6.12555
447.468	7.13252
449.234	8.55256
450.999	9.36025
452.765	10.5937
454.528	11.8051
456.292	13.1669
458.057	14.8166
459.819	16.1685
461.582	17.199
463.344	16.3962
465.107	16.6138
466.868	17.4552
468.629	18.6745
470.392	19.425
472.152	20.9959
473.912	22.6472
475.672	23.5541
477.433	24.0503
479.192	25.0842
480.951	25.8121
482.709	26.5159
484.469	27.3013
486.226	27.5936
487.984	28.7643
489.74	31.0064
491.499	32.5352
493.255	34.4
495.011	35.2492
496.767	36.941
498.522	38.0357
500.277	39.7475
502.033	40.4917
503.788	41.4529
505.541	41.8072
507.295	41.7513
509.048	41.7662
510.801	41.4144
512.553	40.9665
514.308	40.0896
516.06	39.8413
517.811	39.3281
519.562	37.4911
521.313	37.3585
523.063	36.6818
524.814	36.2471
526.563	35.1357
528.313	33.4654
530.062	31.5469
531.811	30.5835
533.559	29.624
535.308	27.5061
537.055	25.6039
538.803	24.3078
540.55	24.0641
542.297	22.6047
544.043	20.8843
545.789	18.1663
547.535	15.9687
549.281	12.978
551.026	11.1423
552.771	10.1334
554.515	9.47659
556.259	7.97133
558.003	6.19545
559.747	5.74269
561.49	3.80709
563.233	2.51411
564.975	2.75061
566.717	2.51034
568.459	1.57221
570.2	1.43509
571.942	1.30228
573.68	2.55244
575.421	2.77525
577.161	3.71864
578.901	3.90056
580.64	4.40043
582.379	4.79773
584.118	5.94868
585.855	5.94626
587.593	6.42203
589.331	6.28469
591.068	6.72581
592.805	7.11485
594.54	8.17682
596.277	8.38992
598.013	8.60928
599.749	8.81692
601.484	8.60741
603.217	9.40523
604.952	9.49969
606.687	8.15489
608.421	8.25391
610.153	8.38997
611.886	8.03347
613.619	6.69484
615.35	6.58833
617.083	6.93256
618.815	7.21691
620.547	6.58577
622.276	5.92309
624.008	6.29896
625.738	6.94903
627.467	7.34877
629.197	6.04429
630.927	4.58947
632.655	4.37607
634.384	4.13166
636.113	3.55042
637.839	3.80452
639.568	4.37379
641.293	4.23806
643.021	4.23469
644.748	4.92742
646.473	5.52343
648.2	5.31635
649.924	6.3727
651.65	6.49699
653.376	5.8682
655.099	5.54315
656.824	6.44018
658.546	6.50476
660.271	5.93983
661.993	5.00573
663.716	5.07973
665.438	5.02279
667.161	4.48195
668.881	4.33665
670.604	4.63378
672.324	4.73677
674.045	5.37529
675.765	6.10641
677.486	7.34982
679.204	8.17912
680.925	8.74197
682.643	8.16859
684.361	9.89536
686.08	11.0229
687.797	12.5908
689.516	13.6922
691.232	14.2263
692.95	14.1446
694.666	15.6197
696.382	16.0395
698.099	15.4975
699.813	15.3236
701.528	16.4488
703.244	17.1376
704.958	17.0265
706.673	16.7023
708.387	18.0372
710.099	19.1714
711.814	19.5838
713.526	19.5229
715.238	19.7092
716.949	20.8993
718.663	22.208
720.374	22.8795
722.084	23.6011
723.796	25.5583
725.506	27.2085
727.216	27.6958
728.925	28.8489
730.636	29.8341
732.345	31.4234
734.053	33.2592
735.761	34.9424
737.471	36.3775
739.178	38.3737
740.885	41.0633
742.592	43.0538
744.298	45.6153
746.006	48.4491
747.712	52.4849
749.417	55.4146
751.122	59.2503
752.827	63.0273
754.532	67.4126
756.236	70.0822
757.942	73.3583
759.645	75.3748
761.348	77.8621
763.051	80.5751
764.753	82.6287
766.456	84.7738
768.158	87.5326
769.859	90.4613
771.56	90.995
773.261	92.2784
774.964	92.3007
776.664	92.5623
778.364	91.52
780.064	91.7462
781.763	89.8154
783.462	89.0266
785.16	88.5909
786.859	88.0209
788.557	87.0894
790.255	85.0216
791.952	83.7983
793.649	82.9241
795.346	80.8944
797.042	79.4055
798.738	77.2528
800.434	75.5206
802.127	74.3658
803.823	72.5641
805.517	70.4584
807.212	68.3664
808.906	66.8978
810.6	64.4053
812.293	61.6726
813.987	61.014
815.68	60.3896
817.372	59.5321
819.064	58.7815
820.754	58.3541
822.446	58.0016
824.137	58.6182
825.828	59.1474
827.519	58.3797
829.209	59.2696
830.897	59.4258
832.587	59.3059
834.276	59.0632
835.966	58.8687
837.654	58.273
839.341	56.7671
841.029	55.1728
842.717	55.4987
844.404	54.6803
846.091	55.343
847.776	54.2892
849.463	54.1758
851.149	54.3238
852.833	53.7364
854.519	52.1832
856.204	51.2259
857.889	51.1828
859.572	49.5804
861.256	48.3605
862.94	47.6259
864.622	46.6461
866.305	44.8712
867.988	45.3789
869.669	45.5021
871.351	44.7283
873.033	44.0491
874.713	43.1295
876.395	43.1347
878.074	42.1547
879.755	41.0101
881.435	40.3568
883.114	38.8647
884.794	37.6078
886.471	37.625
888.15	36.8476
889.829	35.6709
891.506	34.7441
893.184	34.2595
894.861	33.7783
896.538	33.5466
898.214	34.4179
899.891	34.3795
901.566	34.1862
903.242	34.901
904.916	35.3232
906.592	35.7384
908.266	37.0627
909.941	37.3721
911.614	37.8204
913.288	38.7145
914.961	38.7399
916.635	38.7983
918.306	39.608
919.979	39.4841
921.651	39.4593
923.321	40.494
924.994	40.9381
926.664	41.2613
928.336	40.4555
930.005	40.0852
931.674	38.9984
933.345	39.5382
935.014	39.1161
936.682	37.4084
938.352	36.4451
940.019	35.8282
941.687	35.0103
943.356	34.2847
945.022	33.6333
946.689	32.9813
948.357	31.476
950.022	30.8616
951.688	30.627
953.355	29.3591
955.02	27.6766
956.684	25.5992
958.348	24.0404
960.014	21.9229
961.678	19.4212
963.341	18.8105
965.004	18.4533
966.669	18.5855
968.331	19.1122
969.993	20.3657
971.655	19.9492
973.316	20.0137
974.979	19.8757
976.64	20.022
978.3	20.3809
979.961	20.7124
981.62	21.4519
983.28	21.7034
984.941	21.4825
986.6	21.7915
988.259	22.5819
989.917	22.6712
991.575	23.8602
993.233	24.899
994.89	25.5975
996.547	26.5234
998.204	28.0626
999.86	29.858
1001.52	31.5177
1003.17	33.7008
1004.83	35.3538
1006.49	37.4632
1008.14	39.0684
1009.79	40.4447
1011.45	41.8195
1013.1	43.5211
1014.76	44.8549
1016.41	45.999
1018.06	46.5375
1019.72	47.2536
1021.37	48.5672
1023.02	48.8734
1024.67	49.3438
1026.32	48.8675
1027.97	47.8111
1029.62	47.0042
1031.27	46.622
1032.92	45.6065
1034.57	44.9982
1036.22	42.9356
1037.87	40.434
1039.52	38.6785
1041.17	37.7527
1042.82	36.0124
1044.47	35.3984
1046.11	35.5415
1047.76	34.5646
1049.41	33.3232
1051.06	31.347
1052.7	29.6693
1054.35	27.0772
1055.99	25.5854
1057.64	24.0871
1059.28	22.9377
1060.93	21.8596
1062.57	21.3474
1064.22	20.2895
1065.86	19.9212
1067.5	19.4436
1069.15	19.0037
1070.79	19.0777
1072.43	19.3841
1074.08	20.9886
1075.72	21.437
1077.36	21.4729
1079	22.1265
1080.64	23.5757
1082.28	24.1384
1083.92	24.9636
1085.56	25.2344
1087.2	25.4667
1088.84	26.0935
1090.48	27.1104
1092.12	27.1437
1093.76	28.2349
1095.39	28.5366
1097.03	28.7816
1098.67	29.0969
1100.31	30.5424
1101.94	30.795
1103.58	30.505
1105.22	29.4552
1106.85	28.99
1108.49	28.1339
1110.12	27.2876
1111.76	26.2031
1113.39	25.6332
1115.03	23.7828
1116.66	22.8977
1118.29	20.8048
1119.93	19.4083
1121.56	18.3226
1123.19	17.4768
1124.82	16.532
1126.46	15.6195
1128.09	14.727
1129.72	13.5373
1131.35	12.4325
1132.98	12.3347
1134.61	11.7972
1136.24	11.4607
1137.87	12.1412
1139.5	13.0445
1141.13	13.5575
1142.76	14.1974
1144.39	14.309
1146.01	12.8389
1147.64	13.1517
1149.27	13.6145
1150.9	12.1838
1152.53	11.9017
1154.15	11.9204
1155.78	10.6076
1157.4	10.0258
1159.03	9.43269
1160.65	8.16361
1162.28	8.58105
1163.9	7.36273
1165.53	7.52576
1167.15	6.78748
1168.78	7.9276
1170.4	7.82762
1172.02	8.74165
1173.65	8.88574
1175.27	9.57736
1176.89	9.443
1178.51	10.0623
1180.14	9.82406
1181.76	10.4355
1183.38	9.18207
1185	8.88702
1186.62	8.77294
1188.24	8.65599
1189.86	8.4888
1191.48	7.86128
1193.1	7.96975
1194.71	9.28173
1196.33	8.86451
1197.95	8.82997
1199.57	8.6493
1201.19	8.93319
1202.8	9.02609
1204.42	10.2684
1206.04	10.8384
1207.65	12.3146
1209.27	14.5702
1210.88	15.6083
1212.5	17.0727
1214.12	19.1829
1215.73	20.625
1217.35	22.9689
1218.96	25.1034
1220.57	26.8612
1222.19	28.2017
1223.8	29.8904
1225.41	31.5341
1227.03	33.2299
1228.64	35.5301
1230.25	36.1793
1231.86	36.088
1233.47	38.2279
1235.08	39.7533
1236.69	40.4604
1238.31	42.2203
1239.92	42.2676
1241.52	43.4007
1243.13	45.1509
1244.74	45.6981
1246.35	46.4447
1247.96	46.6458
1249.57	47.8338
1251.18	47.5869
1252.78	47.5008
1254.39	47.5827
1256	47.4648
1257.6	47.3109
1259.21	46.7903
1260.82	45.4986
1262.42	45.5635
1264.03	44.7235
1265.63	44.1467
1267.24	42.8729
1268.84	42.1369
1270.45	41.1483
1272.05	40.7329
1273.65	40.3505
1275.26	39.656
1276.86	38.5292
1278.46	38.7903
1280.06	40.0302
1281.67	40.4467
1283.27	39.9601
1284.87	40.6995
1286.47	41.3845
1288.07	41.723
1289.67	42.0711
1291.27	41.9353
1292.87	43.4115
1294.47	44.8297
1296.07	46.2644
1297.67	47.9621
1299.27	49.5012
1300.87	50.631
1302.47	52.7662
1304.06	55.476
1305.66	57.3818
1307.26	58.3581
1308.85	60.3775
1310.45	61.7689
1312.05	64.0359
1313.64	66.8743
1315.24	68.1487
1316.83	69.5101
1318.43	71.832
1320.02	72.427
1321.62	74.709
1323.21	74.8987
1324.8	75.7715
1326.4	77.0618
1327.99	77.6423
1329.59	78.0323
1331.18	77.1422
1332.77	76.8422
1334.36	76.7392
1335.95	76.6483
1337.54	76.8735
1339.14	76.3377
1340.73	75.4243
1342.32	74.317
1343.91	73.1835
1345.5	71.8717
1347.09	70.4496
1348.67	69.6594
1350.26	68.761
1351.85	67.9697
1353.44	66.6413
1355.03	65.6508
1356.62	64.9382
1358.2	63.8185
1359.79	62.8289
1361.38	60.5181
1362.96	58.7911
1364.55	57.5342
1366.14	56.5548
1367.72	55.0432
1369.31	55.4504
1370.89	54.9851
1372.48	54.8066
1374.06	54.2947
1375.64	54.1946
1377.23	53.8361
1378.81	53.9606
1380.39	53.7958
1381.98	54.4647
1383.56	54.3251
1385.14	53.8602
1386.72	53.4754
1388.3	53.3889
1389.89	52.8556
1391.47	53.1078
1393.05	52.8593
1394.63	51.6984
1396.21	51.1306
1397.79	50.2138
1399.37	49.0467
1400.95	48.9944
1402.52	47.7436
1404.1	48.5938
1405.68	48.8469
1407.26	47.9472
1408.84	48.2111
1410.42	47.4887
1411.99	48.5979
1413.57	49.986
1415.15	52.249
1416.72	53.2144
1418.3	53.9112
1419.87	54.4621
1421.45	55.8738
1423.02	58.0715
1424.6	59.9256
1426.17	62.2555
1427.75	64.605
1429.32	67.9745
1430.89	69.7281
1432.47	71.2352
1434.04	72.768
1435.61	74.8164
1437.18	75.9955
1438.76	77.1304
1440.33	78.4579
1441.9	79.5709
1443.47	80.2669
1445.04	81.9197
1446.61	82.9156
1448.18	84.5034
1449.75	84.1554
1451.32	84.1788
1452.89	83.0897
1454.46	82.5207
1456.03	81.0139
1457.6	80.2692
1459.16	79.1932
1460.73	77.1032
1462.3	74.5753
1463.87	72.4554
1465.43	70.0969
1467	66.9376
1468.56	64.2388
1470.13	61.0131
1471.7	57.8346
1473.26	54.5241
1474.83	51.2911
1476.39	48.4715
1477.96	46.4243
1479.52	44.1146
1481.08	40.5412
1482.65	38.6461
1484.21	35.7381
1485.77	33.258
1487.34	30.7711
1488.9	28.4462
1490.46	27.4679
1492.02	26.5095
1493.58	25.4194
1495.15	23.1618
1496.71	21.5953
1498.27	20.7391
1499.83	20.6375
1501.39	20.2144
1502.95	19.6014
1504.51	19.5443
1506.07	18.806
1507.63	18.2138
1509.18	17.319
1510.74	16.7114
1512.3	16.517
1513.86	16.6083
1515.41	16.0029
1516.97	16.5546
1518.53	17.4646
1520.08	18.1845
1521.64	19.327
1523.2	20.8958
1524.75	21.4956
1526.31	22.8181
1527.86	23.0531
1529.42	24.0403
1530.97	24.2669
1532.52	25.7383
1534.08	27.2113
1535.63	28.7198
1537.19	29.2863
1538.74	29.9948
1540.29	31.6437
1541.84	33.1925
1543.4	34.2745
1544.95	34.4501
1546.5	35.7533
1548.05	37.0974
1549.6	38.4543
1551.15	39.5506
1552.7	41.2011
1554.25	42.938
1555.8	44.1967
1557.35	45.5108
1558.9	46.1483
1560.45	48.3365
1562	49.7893
1563.54	50.8989
1565.09	51.555
1566.64	53.1025
1568.19	54.4144
1569.73	55.9702
1571.28	56.9647
1572.83	56.714
1574.37	57.9206
1575.92	59.2979
1577.47	60.4016
1579.01	59.9666
1580.56	60.6244
1582.1	61.3423
1583.64	61.6139
1585.19	61.9709
1586.73	63.1285
1588.28	63.2113
1589.82	63.686
1591.36	64.1537
1592.9	64.0101
1594.45	64.9337
1595.99	65.2447
1597.53	66.091
1599.07	66.0568
1600.61	65.6694
1602.15	65.8004
1603.69	65.7392
1605.23	64.4134
1606.77	63.9929
1608.31	63.4196
1609.85	63.1795
1611.39	62.8869
1612.93	61.791
1614.47	61.2591
1616.01	61.2327
1617.55	59.9609
1619.08	59.0761
1620.62	58.3688
1622.16	57.5328
1623.7	58.1412
1625.23	58.7971
1626.77	59.2795
1628.3	59.3891
1629.84	59.4406
1631.37	60.4068
1632.91	60.7402
1634.44	61.1632
1635.98	60.9164
1637.51	61.8391
1639.05	62.5377
1640.58	63.0574
1642.11	64.1694
1643.65	65.6795
1645.18	66.3362
1646.71	66.9176
1648.24	67.1932
1649.78	67.1442
1651.31	67.2116
1652.84	68.1695
1654.37	67.5586
1655.9	66.6925
1657.43	66.5796
1658.96	65.697
1660.49	65.1237
1662.02	64.0314
1663.55	63.5025
1665.08	61.7425
1666.61	61.2784
1668.14	59.5501
1669.66	58.4714
1671.19	57.2149
1672.72	55.2493
1674.25	54.5419
1675.77	53.1122
1677.3	51.4858
1678.83	49.8481
1680.35	47.5002
1681.88	45.9078
1683.4	44.1602
1684.93	43.1021
1686.45	40.6493
1687.98	38.5286
1689.5	36.3572
1691.03	34.1831
1692.55	31.9716
1694.07	28.9608
1695.6	27.9003
1697.12	25.9579
1698.64	24.6518
1700.17	24.0908
1701.69	22.8062
1703.21	21.3147
1704.73	19.8328
1706.25	18.796
1707.77	18.0585
1709.29	16.3563
1710.81	15.1284
1712.33	15.2743
1713.85	15.5542
1715.37	14.9851
1716.89	14.018
1718.41	13.1463
1719.93	12.3498
1721.45	11.5382
1722.97	10.9621
1724.49	10.3241
1726	9.59181
1727.52	8.75028
1729.04	8.85779
1730.55	7.6191
1732.07	7.49735
1733.59	7.12928
1735.1	6.87936
1736.62	6.85261
1738.13	6.72775
1739.65	7.03381
1741.16	6.84342
1742.68	7.36758
1744.19	6.91804
1745.7	7.22664
1747.22	7.22467
1748.73	7.85793
1750.24	9.12516
1751.76	9.43128
1753.27	8.59905
1754.78	8.64553
1756.29	8.79496
1757.8	8.55465
1759.31	8.24025
1760.83	8.28528
1762.34	6.9527
1763.85	6.85273
1765.36	6.59738
1766.87	6.56439
1768.38	6.24095
1769.89	5.83633
1771.39	6.67161
1772.9	6.06978
1774.41	6.14454
1775.92	5.89368
1777.43	5.08583
1778.94	4.82598
1780.44	4.64383
1781.95	3.56966
1783.46	3.1202
1784.96	2.75107
1786.47	3.03888
1787.97	3.0535
1789.48	1.91595
1790.99	1.40992
1792.49	1.21697
1794	1.62148
1795.5	2.20037
1797	1.95158
1798.51	1.85557
1800.01	1.88984
1801.51	1.89909
1803.02	1.99215
1804.52	2.38064
1806.02	2.81852
1807.53	2.82747
1809.03	2.80114
1810.53	3.02705
1812.03	3.18994
1813.53	3.23328
1815.03	3.46526
1816.53	3.90501
1818.03	4.12222
1819.53	4.39951
1821.03	4.51882
1822.53	4.70597
1824.03	4.50087
1825.53	4.84415
1827.03	4.1057
1828.53	3.63293
1830.02	3.75508
1831.52	4.2384
1833.02	4.14509
1834.52	4.41249
1836.01	4.19702
1837.51	4.22513
1839.01	3.97147
1840.5	4.29294
1842	4.08283
1843.49	3.19572
1844.99	2.83934
1846.48	2.49167
1847.98	1.8639
1849.47	1.73171
1850.97	1.85311
1852.46	1.35086
1853.95	1.40425
1855.45	1.47477
1856.94	0.847639
1858.43	0.928234
1859.93	0.994194
1861.42	0.817994
1862.91	0.826276
1864.4	0.816477
1865.89	1.05307
1867.38	1.66349
1868.87	1.17494
1870.36	0.994575
1871.85	0.709487
1873.34	1.24197
1874.83	1.07655
1876.32	1.01843
1877.81	1.02096
1879.3	1.21994
1880.79	0.885793
1882.28	0.295591
1882.52	0.285157
1884.02	0.00480899
1885.51	-0.424321
1887.01	-0.282378
1888.5	-0.149637
1889.99	1.04335
1891.49	1.35187
1892.98	1.47989
1894.47	1.29574
1895.97	1.5033
1897.46	1.76996
1898.95	2.04915
1900.44	1.7629
1901.93	2.4014
1903.42	2.52628
1904.91	3.3804
1906.4	2.95132
1907.89	3.37326
1909.38	3.46684
1910.87	3.25635
1912.36	2.97184
1913.85	3.39704
1915.34	3.28319
1916.83	3.82063
1918.32	4.41172
1919.8	4.8164
1921.29	5.18008
1922.78	4.83014
1924.27	4.90607
1925.75	4.65707
1927.24	4.65736
1928.73	4.28912
1930.21	4.19564
1931.7	4.52605
1933.18	4.93058
1934.67	4.6584
1936.15	4.80895
1937.64	4.66274
1939.12	4.74337
1940.61	4.51994
1942.09	3.99698
1943.57	3.5102
1945.06	3.60509
1946.54	3.23486
1948.02	2.50516
1949.51	2.34428
1950.99	1.88624
1952.47	1.39539
1953.95	0.964837
1955.43	0.520048
1956.91	0.541447
1958.4	0.682271
1959.88	0.642318
1961.36	0.991198
1962.84	1.25884
1964.32	1.73043
1965.8	0.677616
1967.27	-0.413618
1968.75	-0.156203
1970.23	0.083308
1971.71	-0.34234
1973.19	-0.525363
1974.67	-0.610467
1976.14	-0.485894
1977.62	-0.636718
1979.1	-0.503297
1980.58	-0.830884
1982.05	-0.515431
1983.53	-0.126437
1985	-0.112185
1986.48	0.435605
1987.95	1.21267
1989.43	1.60851
1990.9	1.98112
1992.38	2.01165
1993.85	1.64199
1995.33	1.67667
1996.8	1.83257
1998.27	2.46089
1999.75	2.84811
2001.22	2.92499
2002.69	3.66075
2004.16	4.27492
2005.64	4.33672
2007.11	4.47437
2008.58	3.95439
2010.05	4.17141
2011.52	4.14857
2012.99	4.01074
2014.46	3.8438
2015.93	3.95553
2017.4	4.02503
2018.87	4.73041
2020.34	4.77733
2021.81	4.24753
2023.28	4.70449
2024.75	4.63066
2026.22	4.19844
2027.69	4.44733
2029.15	4.01281
2030.62	4.29797
2032.09	4.06097
2033.56	3.74121
2035.02	3.63295
2036.49	3.78293
2037.96	3.70554
2039.42	3.07519
2040.89	2.71728
2042.35	3.6354
2043.82	3.35307
2045.28	3.02835
2046.75	3.36337
2048.21	3.37911
2049.67	3.02734
2051.14	3.05818
2052.6	3.84828
2054.07	4.38363
2055.53	4.75147
2056.99	4.69262
2058.45	4.58358
2059.92	5.02999
2061.38	4.85058
2062.84	5.10674
2064.3	5.16724
2065.76	5.05855
2067.22	4.77952
2068.68	4.54591
2070.14	4.92012
2071.6	5.16699
2073.06	5.02507
2074.52	5.13468
2075.98	5.23647
2077.44	4.47363
2078.9	4.09189
2080.36	3.42783
2081.82	3.1054
2083.27	3.25291
2084.73	3.29001
2086.19	3.13694
2087.65	3.60721
2089.1	3.02025
2090.56	3.25341
2092.02	2.74689
2093.47	2.62822
2094.93	2.26214
2096.38	3.10893
2097.84	2.21991
2099.29	1.83427
2100.75	1.76218
2102.2	1.97246
2103.66	2.18002
2105.11	2.41632
2106.56	2.92053
2108.02	2.55718
2109.47	2.46393
2110.92	2.39516
2112.38	2.80676
2113.83	3.09267
2115.28	3.70535
2116.73	2.81466
2118.18	2.96367
2119.63	3.43603
2121.09	3.11238
2122.54	3.08361
2123.99	3.88469
2125.44	4.12844
2126.89	4.24638
2128.34	4.07963
2129.79	4.03678
