#Acq. time (s)=	45
#Accumulations=	2
#Range (cm-¹)=	200...3150
#Windows=	2
#Auto scanning=	Off
#Autofocus=	Off
#Macrospot=	Off
#AutoExposure=	Off
#Spike filter=	Multiple accum.
#Delay time (s)=	0
#Binning=	1
#Readout mode=	Signal
#DeNoise=	Off
#ICS correction=	On
#Dark correction=	Off
#Inst. Process=	Off
#Detector Gain=	Best Dynamic Range
#Detector ADC=	20 kHz       
#Detector temperature (°C)=	-69.85
#Instrument=	LabRAM HR Evol
#Detector=	Synapse
#Objective=	x100
#Grating=	600 gr/mm
#ND Filter=	100%
#Laser (nm)=	532 
#Hole=	100.021
#Range=	Auto
#Laser Pol.=	No
#Raman. Pol.=	No
#Laser Pol. (°)=	-0.0007625
#Raman Pol. (°)=	89.9995
#Collection=	Microscope
#StageXY=	Marzhauser
#StageZ=	Marzhauser
#X (µm)=	4738.2
#Y (µm)=	-7730.7
#Z (µm)=	584.45
#Full time(mm:ss)=	3:18
#Project=	
#Sample=	
#Site=	
#Title=	Thy_30_10_12_2x_45s_532 nm_x100_100%_600 gr_mm
#Remark=	
#Date=	30.06.2022 12:11
#Acquired=	30.06.2022 12:11:36
#Base:Fit=	10.08.2022 09:58:11
#Base:Sub=	10.08.2022 09:58:44
#Filter:Polynom=	16.08.2022 10:22:53
#AxisType[0]=Intens
#AxisUnit[0]=Cnt
#AxisType[1]=Spectr
#AxisUnit[1]=1/cm
200.533	8.21424
202.348	6.42622
204.162	6.50038
205.976	6.68388
207.792	6.42077
209.605	6.08633
211.418	5.77776
213.23	5.50033
215.044	5.60913
216.856	5.31111
218.667	5.89204
220.478	6.18744
222.289	6.26047
224.102	6.29627
225.912	5.33874
227.721	5.62224
229.531	5.07232
231.34	4.71411
233.148	4.19911
234.956	3.89971
236.766	2.96164
238.574	2.46108
240.381	2.11307
242.188	2.29399
243.994	3.0677
245.801	4.19342
247.606	3.52309
249.412	3.29228
251.217	4.29116
253.024	3.51194
254.828	3.4931
256.632	3.61441
258.436	5.24539
260.239	5.40896
262.042	4.9785
263.845	5.25474
265.647	6.07505
267.449	5.54091
269.25	5.85983
271.052	5.73155
272.852	6.31724
274.653	7.28186
276.453	7.77843
278.253	7.61033
280.052	9.15028
281.852	8.81322
283.65	8.83713
285.449	8.95623
287.247	9.65291
289.044	10.4893
290.842	10.4758
292.639	11.0229
294.436	10.6566
296.232	10.6271
298.028	11.5759
299.821	12.5352
301.617	12.9684
303.412	14.445
305.206	14.9316
307	15.4232
308.794	15.9153
310.588	16.1063
312.381	16.0776
314.172	17.0433
315.964	17.5814
317.756	18.1104
319.548	18.6215
321.34	19.7589
323.131	19.4854
324.921	19.8051
326.71	20.6941
328.5	22.114
330.29	23.4486
332.079	24.5701
333.868	24.3373
335.654	24.396
337.443	23.2699
339.231	23.501
341.018	23.5176
342.804	23.2045
344.591	23.0733
346.377	22.4944
348.163	22.8487
349.947	20.8113
351.733	20.6879
353.518	21.2953
355.303	21.0769
357.085	19.3339
358.869	18.6982
360.653	17.8105
362.435	16.9578
364.218	17.5304
366.001	16.6654
367.781	16.2996
369.563	16.745
371.345	14.5586
373.124	13.9923
374.905	14.0741
376.686	14.1577
378.464	14.0696
380.244	14.3497
382.022	14.2854
383.801	14.5211
385.58	14.7042
387.357	16.0253
389.135	16.1966
390.911	17.5482
392.689	18.2587
394.466	18.4746
396.241	19.3815
398.018	20.831
399.792	22.2605
401.568	23.3561
403.341	24.9231
405.117	24.8975
406.889	25.4711
408.664	27.0061
410.436	26.5834
412.21	26.815
413.981	27.5582
415.755	28.1622
417.525	28.7093
419.298	28.1335
421.068	27.0655
422.84	26.9046
424.609	27.3191
426.38	26.0836
428.149	24.9152
429.919	24.372
431.688	24.3652
433.455	22.6191
435.225	21.6589
436.992	21.2009
438.76	20.9895
440.527	21.3329
442.293	19.4668
444.06	18.0196
445.826	16.5602
447.593	16.6055
449.357	15.9849
451.122	16.7763
452.888	17.7444
454.651	16.5232
456.415	16.3567
458.18	16.4199
459.942	15.6973
461.705	16.4416
463.469	17.1436
465.23	16.9766
466.991	17.0275
468.752	17.1229
470.515	17.0849
472.275	16.886
474.035	16.5613
475.797	18.4399
477.556	18.4897
479.315	20.5735
481.073	20.115
482.834	20.8636
484.592	21.8416
486.349	23.6357
488.106	24.1379
489.863	24.0871
491.622	24.4021
493.378	24.7574
495.134	25.9286
496.889	26.7386
498.645	27.1764
500.401	28.6619
502.156	29.4534
503.91	29.9951
505.664	30.9729
507.417	30.4698
509.171	30.11
510.923	30.0174
512.678	29.293
514.43	28.8326
516.182	28.8603
517.933	28.4911
519.684	27.6548
521.435	26.6953
523.186	26.2993
524.936	26.3583
526.686	26.0642
528.435	24.007
530.184	23.0902
531.933	22.7482
533.682	22.18
535.43	21.3911
537.18	20.5336
538.927	20.2536
540.674	19.1049
542.421	18.4271
544.167	18.2692
545.913	17.348
547.659	15.7552
549.403	13.5629
551.148	12.6487
552.893	10.9227
554.637	10.8826
556.381	10.262
558.125	9.345
559.868	8.92753
561.611	10.1882
563.354	10.1246
565.097	9.57661
566.839	9.73082
568.581	8.61519
570.322	9.27072
572.063	9.53856
573.802	9.48291
575.542	8.24257
577.283	7.74363
579.022	7.75519
580.762	8.47959
582.501	8.35188
584.24	8.69408
585.976	8.67566
587.714	8.55651
589.452	7.98696
591.19	6.15819
592.927	5.49371
594.663	4.91392
596.398	4.63159
598.134	4.52361
599.87	4.87835
601.605	4.84441
603.338	4.61559
605.073	4.27074
606.808	4.15694
608.542	4.2034
610.274	3.8901
612.007	4.09345
613.74	4.37279
615.473	3.47048
617.204	3.8381
618.936	3.25779
620.668	3.62138
622.397	3.46435
624.128	4.52188
625.859	5.11275
627.588	6.13617
629.318	6.66546
631.048	6.91505
632.775	7.51812
634.505	7.82085
636.233	7.87603
637.96	8.72052
639.688	9.26953
641.416	9.8503
643.142	10.3211
644.869	11.2729
646.594	11.7545
648.32	12.5421
650.045	12.2262
651.771	13.477
653.496	14.1075
655.219	14.3563
656.944	14.7018
658.667	14.2052
660.391	15.5599
662.113	16.0612
663.837	16.4827
665.558	16.3259
667.281	17.4332
669.002	18.1177
670.724	19.7352
672.444	19.8152
674.166	20.7624
675.885	22.5464
677.606	24.0746
679.325	26.0636
681.045	27.6622
682.763	28.7558
684.483	30.1619
686.2	31.8084
687.917	32.5492
689.636	33.8994
691.352	33.7967
693.07	34.4193
694.786	36.2013
696.501	37.4503
698.219	39.1152
699.933	40.0978
701.65	40.7397
703.364	42.8214
705.078	43.7323
706.793	44.5205
708.506	45.4564
710.219	46.8733
711.934	47.0299
713.646	47.3249
715.358	48.2281
717.071	48.6126
718.782	48.7306
720.493	48.717
722.204	48.5072
723.916	48.715
725.626	49.3484
727.336	49.5587
729.045	49.9718
730.756	50.0314
732.464	49.656
734.173	49.7728
735.881	49.7393
737.59	50.2389
739.297	50.3923
741.004	50.6164
742.711	51.2041
744.417	51.2247
746.125	52.9534
747.831	52.3068
749.537	52.5952
751.242	54.5503
752.946	55.841
754.651	56.882
756.357	57.3525
758.061	57.4391
759.764	58.138
761.467	59.1429
763.17	58.9987
764.872	59.7749
766.575	60.413
768.276	60.711
769.978	60.9923
771.679	61.1007
773.382	62.297
775.083	63.1824
776.783	62.9126
778.483	64.6439
780.182	65.4305
781.882	65.3552
783.581	65.563
785.279	65.938
786.978	66.6487
788.676	67.0335
790.373	66.4765
792.071	67.5775
793.768	69.297
795.464	70.1336
797.161	70.5019
798.857	70.9462
800.552	72.69
802.248	72.3827
803.941	72.7725
805.636	72.9473
807.33	73.6308
809.024	74.1156
810.718	74.2344
812.412	74.611
814.105	73.9809
815.798	74.0548
817.49	75.1618
819.183	75.9581
820.873	76.9041
822.564	77.6321
824.256	77.0557
825.947	76.4986
827.637	75.7785
829.328	74.4814
831.016	74.3087
832.705	72.9792
834.395	72.5264
836.084	71.4556
837.772	69.9417
839.459	68.6345
841.147	67.6848
842.835	66.4912
844.522	65.0605
846.209	64.9617
847.894	63.8536
849.581	62.5585
851.267	60.9515
852.953	58.9995
854.637	58.6793
856.322	57.9081
858.007	57.6277
859.689	55.9431
861.374	54.7606
863.058	53.7353
864.739	52.6988
866.423	52.0724
868.106	51.527
869.787	51.1914
871.469	50.7238
873.151	49.526
874.831	49.2145
876.512	48.6752
878.193	48.8214
879.872	47.913
881.553	47.4408
883.231	47.5985
884.911	47.8332
886.591	46.5403
888.268	46.3678
889.947	45.7832
891.623	46.1498
893.302	46.1962
894.978	45.5271
896.656	45.2175
898.331	44.0422
900.008	44.768
901.683	44.6095
903.359	43.6321
905.033	43.4313
906.709	42.4681
908.383	40.2534
910.058	39.8184
911.731	39.2084
913.405	37.4706
915.078	37.6358
916.752	37.166
918.423	37.0914
920.096	37.2918
921.768	37.2988
923.438	37.487
925.111	36.7577
926.781	36.4861
928.452	36.4373
930.122	36.6135
931.791	35.8043
933.462	35.3932
935.13	35.8422
936.799	35.9651
938.468	36.7596
940.136	36.6525
941.803	35.7422
943.472	34.1456
945.139	32.78
946.805	32.495
948.473	32.2696
950.139	32.1619
951.804	32.2601
953.471	32.3751
955.136	31.6387
956.801	29.8753
958.465	30.48
960.131	29.5284
961.794	29.1008
963.458	28.5453
965.12	28.3803
966.785	28.7338
968.447	28.7785
970.109	29.1016
971.771	28.0298
973.432	28.2463
975.095	28.8986
976.756	28.6269
978.417	28.0352
980.077	28.201
981.737	27.24
983.396	27.648
985.057	26.5057
986.716	26.426
988.375	27.056
990.033	25.8386
991.691	24.4581
993.349	25.2024
995.006	23.664
996.663	24.076
998.32	25.8105
999.976	25.9251
1001.63	26.1744
1003.29	26.8695
1004.95	27.1206
1006.6	27.7199
1008.26	26.7014
1009.91	27.6603
1011.56	27.5306
1013.22	27.9333
1014.87	27.4033
1016.53	27.7412
1018.18	27.0622
1019.83	26.6022
1021.48	26.8743
1023.14	25.5906
1024.79	24.5858
1026.44	24.0637
1028.09	24.2838
1029.74	24.4986
1031.39	23.137
1033.04	22.7043
1034.69	22.0881
1036.34	19.8714
1037.99	17.5974
1039.64	16.5112
1041.29	16.5955
1042.94	15.4538
1044.58	15.1235
1046.23	15.5728
1047.88	15.137
1049.52	14.8684
1051.17	14.0367
1052.82	12.7647
1054.46	10.3455
1056.11	10.5021
1057.75	10.3904
1059.4	8.7801
1061.04	8.40622
1062.69	7.16689
1064.33	5.82589
1065.98	6.20913
1067.62	5.34234
1069.26	5.84794
1070.9	5.86636
1072.55	4.6883
1074.19	4.61686
1075.83	5.94055
1077.47	6.16789
1079.11	8.11907
1080.76	8.58706
1082.4	8.53722
1084.04	9.06398
1085.68	9.17091
1087.32	9.07388
1088.95	8.98926
1090.59	9.41925
1092.23	10.1174
1093.87	10.7165
1095.51	10.5837
1097.15	9.58902
1098.78	10.7521
1100.42	10.0948
1102.06	10.9789
1103.69	11.3362
1105.33	10.4323
1106.97	9.50375
1108.6	8.14918
1110.24	7.74187
1111.87	7.08513
1113.51	6.30812
1115.14	7.19349
1116.77	7.24795
1118.41	6.18864
1120.04	6.79447
1121.67	6.25947
1123.31	6.32391
1124.94	6.35039
1126.57	5.3153
1128.2	5.36887
1129.83	5.73641
1131.47	5.30876
1133.1	4.81684
1134.72	3.97486
1136.36	3.69348
1137.98	4.22657
1139.62	5.00391
1141.24	3.93401
1142.87	4.57086
1144.5	4.05009
1146.13	4.74393
1147.76	5.20124
1149.38	4.93394
1151.01	5.74641
1152.64	5.91955
1154.27	5.55182
1155.89	5.65038
1157.52	5.93398
1159.14	5.98646
1160.77	5.07837
1162.39	4.62792
1164.02	4.2749
1165.64	4.09143
1167.27	3.09571
1168.89	3.01238
1170.51	2.95856
1172.14	3.14621
1173.76	3.12137
1175.38	3.18196
1177	2.37633
1178.63	2.26114
1180.25	2.20115
1181.87	1.29781
1183.49	1.78792
1185.11	2.16352
1186.73	1.00661
1188.35	0.648664
1189.97	1.10291
1191.59	2.63515
1193.21	3.13685
1194.83	4.61762
1196.45	5.37357
1198.07	5.35212
1199.68	5.92922
1201.3	7.59499
1202.92	8.42718
1204.53	10.4767
1206.15	12.4739
1207.77	12.7968
1209.38	14.6342
1211	17.0189
1212.62	18.0812
1214.23	18.9737
1215.84	21.5064
1217.46	24.2121
1219.07	26.314
1220.69	28.8912
1222.3	30.3157
1223.91	32.4774
1225.53	34.6882
1227.14	36.9707
1228.75	38.2154
1230.36	40.6068
1231.97	42.5659
1233.59	44.414
1235.2	45.4841
1236.81	47.5106
1238.42	49.6912
1240.03	50.4622
1241.64	51.0355
1243.25	52.3902
1244.85	53.6302
1246.46	55.3887
1248.07	57.0346
1249.68	59.0127
1251.29	61.4291
1252.9	63.2762
1254.5	64.451
1256.11	65.5691
1257.72	67.2949
1259.32	68.3425
1260.93	69.0393
1262.54	70.7411
1264.14	72.8823
1265.75	74.2847
1267.35	74.7488
1268.96	76.8736
1270.56	77.8942
1272.16	79.353
1273.77	80.057
1275.37	81.274
1276.97	81.0939
1278.57	82.2869
1280.18	83.0151
1281.78	84.0422
1283.38	84.2673
1284.98	84.3021
1286.58	84.3646
1288.18	84.105
1289.78	85.3089
1291.38	85.9208
1292.99	84.0825
1294.58	83.7425
1296.18	84.9224
1297.78	84.2051
1299.38	84.6043
1300.98	85.2852
1302.58	84.9074
1304.17	84.995
1305.77	84.4718
1307.37	84.0859
1308.97	84.1486
1310.56	84.6
1312.16	83.5121
1313.76	83.1673
1315.35	81.6933
1316.95	81.4611
1318.54	80.2083
1320.14	78.7666
1321.73	78.8622
1323.32	79.4647
1324.92	79.7567
1326.51	80.1114
1328.1	79.7634
1329.7	79.051
1331.29	78.7356
1332.88	78.473
1334.47	78.6136
1336.07	79.2884
1337.66	78.6889
1339.25	77.9285
1340.84	77.2083
1342.43	77.5809
1344.02	77.0815
1345.61	74.6303
1347.2	73.573
1348.79	72.9182
1350.37	71.4335
1351.96	70.8915
1353.55	69.8175
1355.14	68.8549
1356.73	66.7065
1358.31	65.4342
1359.9	63.6676
1361.49	62.3082
1363.07	60.7357
1364.66	59.0784
1366.25	58.401
1367.83	58.0007
1369.42	57.0271
1371	55.633
1372.59	54.3837
1374.17	54.6107
1375.75	54.3561
1377.34	54.0278
1378.92	53.9461
1380.5	52.5594
1382.09	50.5179
1383.67	50.0981
1385.25	48.189
1386.83	47.8263
1388.42	46.9322
1390	45.2498
1391.58	42.9703
1393.16	42.0072
1394.74	40.9928
1396.32	40.4068
1397.9	39.5033
1399.48	38.0381
1401.06	37.4673
1402.64	36.6443
1404.21	35.4755
1405.79	36.2952
1407.37	36.0988
1408.95	36.2426
1410.53	37.1678
1412.1	38.6271
1413.68	39.0763
1415.26	39.7719
1416.83	40.175
1418.41	42.0198
1419.98	43.2082
1421.56	45.2507
1423.13	46.5507
1424.71	48.8721
1426.28	52.3637
1427.86	54.3614
1429.43	57.6385
1431	60.3776
1432.58	62.0229
1434.15	64.9096
1435.72	66.7979
1437.29	69.6893
1438.87	72.4803
1440.44	74.2871
1442.01	76.0271
1443.58	77.7679
1445.15	80.2145
1446.72	81.8716
1448.29	81.9038
1449.86	82.1209
1451.43	82.1948
1453	82.5371
1454.57	82.0959
1456.14	81.612
1457.71	79.161
1459.27	77.0341
1460.84	75.8404
1462.41	74.2789
1463.98	71.2753
1465.54	69.3711
1467.11	65.8185
1468.67	62.6391
1470.24	59.8095
1471.81	57.5909
1473.37	55.409
1474.94	52.5951
1476.5	48.8037
1478.07	45.1539
1479.63	43.0053
1481.19	41.0503
1482.76	38.781
1484.32	36.3599
1485.88	33.142
1487.45	31.0999
1489.01	29.3758
1490.57	27.5179
1492.13	25.5809
1493.69	23.4072
1495.26	21.4914
1496.82	20.5694
1498.38	19.5621
1499.94	19.2916
1501.5	19.4475
1503.06	20.1773
1504.62	20.1431
1506.17	20.1852
1507.73	20.6703
1509.29	20.2173
1510.85	20.4937
1512.41	21.7551
1513.97	21.7267
1515.52	21.3852
1517.08	22.3655
1518.64	22.7792
1520.19	23.9235
1521.75	25.5519
1523.31	27.2563
1524.86	28.1469
1526.42	29.2519
1527.97	30.8986
1529.52	31.7353
1531.08	33.9088
1532.63	34.8626
1534.19	35.8641
1535.74	37.2169
1537.29	39.2516
1538.85	41.7284
1540.4	42.1697
1541.95	44.4262
1543.5	45.9866
1545.06	48.2007
1546.61	51.8861
1548.16	53.9179
1549.71	56.8372
1551.26	59.6598
1552.81	61.9655
1554.36	63.9825
1555.91	66.447
1557.46	68.1663
1559.01	70.1483
1560.56	71.2401
1562.11	73.189
1563.65	75.249
1565.2	77.4206
1566.75	79.4418
1568.29	80.8624
1569.84	82.9238
1571.39	84.2036
1572.94	86.2725
1574.48	88.9089
1576.03	90.6111
1577.57	92.3902
1579.12	93.5121
1580.66	94.6988
1582.21	95.4355
1583.75	95.7945
1585.3	95.5309
1586.84	95.3985
1588.38	95.3007
1589.93	95.5635
1591.47	94.8507
1593.01	95.1281
1594.55	95.8872
1596.1	94.9328
1597.64	94.5667
1599.18	94.7482
1600.72	94.2165
1602.26	93.2625
1603.8	92.8916
1605.34	90.8568
1606.88	90.3284
1608.42	90.4109
1609.96	89.0573
1611.5	88.755
1613.04	89.3324
1614.58	88.5238
1616.12	88.6689
1617.65	88.1347
1619.19	89.0193
1620.73	89.3851
1622.27	90.5784
1623.8	91.1778
1625.34	91.7394
1626.87	93.3266
1628.41	94.5113
1629.95	95.6611
1631.48	96.2929
1633.02	96.7678
1634.55	97.4456
1636.09	98.2372
1637.62	99.3049
1639.15	100.341
1640.69	101.436
1642.22	103.18
1643.76	104.539
1645.29	105.822
1646.82	107.461
1648.35	108.021
1649.88	108.04
1651.42	108.212
1652.95	108.253
1654.48	108.263
1656.01	107.962
1657.54	107.674
1659.07	106.788
1660.6	105.674
1662.13	104.18
1663.66	103.139
1665.19	102.223
1666.72	100.68
1668.24	99.1164
1669.77	96.9471
1671.3	94.0237
1672.83	90.9399
1674.35	88.9956
1675.88	86.3078
1677.41	82.9021
1678.93	80.6281
1680.46	77.6966
1681.99	74.2576
1683.51	71.7407
1685.04	68.2137
1686.56	64.7962
1688.09	62.0806
1689.61	59.0369
1691.13	55.086
1692.66	52.4877
1694.18	49.2463
1695.71	46.7061
1697.23	44.2498
1698.75	40.6342
1700.27	38.4518
1701.8	35.9928
1703.32	33.2064
1704.84	31.7681
1706.36	29.6828
1707.88	27.2648
1709.4	25.0228
1710.92	23.5026
1712.44	21.7584
1713.96	20.4534
1715.48	19.4656
1717	19.1134
1718.52	18.8829
1720.04	18.3576
1721.56	17.7058
1723.07	16.6254
1724.59	16.0161
1726.11	14.4996
1727.63	14.2505
1729.14	14.4286
1730.66	14.2444
1732.18	14.4701
1733.69	14.1
1735.21	13.8806
1736.72	13.3642
1738.24	12.4059
1739.75	12.0383
1741.27	11.7035
1742.78	10.487
1744.3	10.0825
1745.81	9.22881
1747.32	8.82869
1748.84	8.55742
1750.35	8.45721
1751.86	7.61066
1753.37	7.0971
1754.89	6.84914
1756.4	5.77536
1757.91	5.03867
1759.42	3.7394
1760.93	3.39755
1762.44	3.21254
1763.95	2.91369
1765.46	2.68961
1766.97	2.36522
1768.48	2.56383
1769.99	2.67761
1771.5	2.48389
1773.01	1.89339
1774.52	1.16932
1776.03	1.94476
1777.53	2.01443
1779.04	2.69681
1780.55	2.91481
1782.06	2.35611
1783.56	1.89475
1785.07	2.25074
1786.57	2.1912
1788.08	1.97366
1789.59	2.66566
1791.09	3.1245
1792.6	3.46644
1794.1	3.29333
1795.6	2.47796
1797.11	1.92044
1798.61	1.41563
1800.12	1.0015
1801.62	0.389681
1803.12	1.0585
1804.63	1.52909
1806.13	1.94009
1807.63	1.7328
1809.13	0.826296
1810.63	1.0405
1812.14	1.16141
1813.64	1.02454
1815.14	1.04303
1816.64	0.946171
1818.14	0.742649
1819.64	1.52876
1821.14	1.50863
1822.64	0.727173
1824.14	0.256921
1825.63	0.49171
1827.13	-0.217924
1828.63	-0.264875
1830.13	0.140845
1831.63	0.466732
1833.12	0.583803
1834.62	0.485867
1836.12	0.404632
1837.62	0.755226
1839.11	0.715626
1840.61	1.00309
1842.1	0.543044
1843.6	0.695531
1845.09	0.744963
1846.59	0.346012
1848.08	0.765097
1849.58	0.916203
1851.07	1.37971
1852.57	1.80998
1854.06	1.3761
1855.55	1.39394
1857.04	2.25507
1858.54	2.68546
1860.03	3.02301
1861.52	2.67206
1863.01	3.09046
1864.5	3.3972
1866	2.49341
1867.49	2.64683
1868.98	2.05213
1870.47	1.96106
1871.96	2.19752
1873.45	2.4177
1874.94	2.64585
1876.43	3.11296
1877.92	4.24855
1879.41	4.32877
1880.89	4.4023
1882.38	3.90573
1882.48	3.81065
1883.97	4.96526
1885.47	5.35923
1886.96	5.27027
1888.46	5.32378
1889.95	5.61491
1891.44	5.56337
1892.94	5.12981
1894.43	4.26665
1895.92	4.27886
1897.41	4.32828
1898.9	4.87491
1900.4	4.92197
1901.89	5.5561
1903.38	6.12761
1904.87	5.51834
1906.36	4.90448
1907.85	4.2293
1909.34	4.21192
1910.83	4.58438
1912.32	4.26702
1913.81	4.76915
1915.29	4.37613
1916.78	4.43512
1918.27	4.49727
1919.76	4.72026
1921.25	4.68056
1922.74	4.41876
1924.22	5.01675
1925.71	5.48055
1927.2	5.45534
1928.68	6.30948
1930.17	6.81531
1931.65	5.78436
1933.14	5.40804
1934.63	5.50133
1936.11	6.34605
1937.59	6.36509
1939.08	6.45416
1940.56	6.65748
1942.05	6.54467
1943.53	6.79953
1945.01	6.65873
1946.5	6.71953
1947.98	7.45975
1949.46	7.0611
1950.94	7.21952
1952.43	6.98351
1953.91	6.56092
1955.39	6.2632
1956.87	6.83546
1958.35	7.01298
1959.83	7.08106
1961.31	6.97814
1962.79	6.9879
1964.27	6.31935
1965.75	6.05099
1967.23	5.80226
1968.71	5.73462
1970.19	7.25132
1971.67	7.04595
1973.14	7.80063
1974.62	8.07755
1976.1	7.45958
1977.58	7.53032
1979.05	7.60275
1980.53	7.80294
1982.01	7.42105
1983.48	7.5733
1984.96	7.60688
1986.43	7.36369
1987.91	7.40526
1989.38	7.54889
1990.86	7.92576
1992.33	8.60101
1993.81	9.14066
1995.28	9.81192
1996.76	10.5302
1998.23	11.0168
1999.7	11.3184
2001.18	11.2413
2002.65	11.7828
2004.12	12.0996
2005.59	12.0401
2007.06	13.1286
2008.54	13.5609
2010.01	13.7451
2011.48	13.9372
2012.95	13.6634
2014.42	13.9437
2015.89	14.1272
2017.36	14.4996
2018.83	14.7303
2020.3	14.571
2021.77	15.3899
2023.24	14.488
2024.71	15.7364
2026.17	16.0277
2027.64	15.9145
2029.11	16.1432
2030.58	16.828
2032.04	16.446
2033.51	16.4002
2034.98	15.886
2036.45	15.3821
2037.91	15.2452
2039.38	15.7405
2040.84	16.1033
2042.31	16.1362
2043.77	16.7458
2045.24	15.7227
2046.7	15.3932
2048.17	15.0155
2049.63	15.341
2051.1	15.6062
2052.56	15.8371
2054.02	15.4541
2055.48	15.2607
2056.95	16.1805
2058.41	16.149
2059.87	16.5242
2061.33	17.1081
2062.8	18.2761
2064.26	19.109
2065.72	19.4224
2067.18	20.1259
2068.64	20.4793
2070.1	20.8415
2071.56	21.1286
2073.02	21.8446
2074.48	22.3209
2075.94	22.9068
2077.4	23.5131
2078.86	23.9778
2080.31	24.4892
2081.77	24.8385
2083.23	25.7899
2084.69	26.5505
2086.14	27.1062
2087.6	28.9152
2089.06	29.0715
2090.52	30.1792
2091.97	30.8896
2093.43	31.5464
2094.88	33.0721
2096.34	33.7635
2097.79	35.0888
2099.25	35.1774
2100.7	36.3205
2102.16	37.1923
2103.61	38.2431
2105.07	38.4785
2106.52	38.85
2107.97	39.7958
2109.43	41.0412
2110.88	42.7806
2112.33	43.6385
2113.78	43.7626
2115.24	44.0002
2116.69	45.1579
2118.14	46.3482
2119.59	47.6892
2121.04	49.4026
2122.49	51.2067
2123.94	53.138
2125.39	54.791
2126.84	56.344
2128.29	58.1041
2129.74	60.0089
2131.19	61.2389
2132.64	63.4079
