#Acq. time (s)=	45
#Accumulations=	2
#Range (cm-¹)=	200...3150
#Windows=	2
#Auto scanning=	Off
#Autofocus=	Off
#Macrospot=	Off
#AutoExposure=	Off
#Spike filter=	Multiple accum.
#Delay time (s)=	0
#Binning=	1
#Readout mode=	Signal
#DeNoise=	Off
#ICS correction=	On
#Dark correction=	Off
#Inst. Process=	Off
#Detector Gain=	Best Dynamic Range
#Detector ADC=	20 kHz       
#Detector temperature (°C)=	-69.85
#Instrument=	LabRAM HR Evol
#Detector=	Synapse
#Objective=	x100
#Grating=	600 gr/mm
#ND Filter=	100%
#Laser (nm)=	532 
#Hole=	100.021
#Range=	Auto
#Laser Pol.=	No
#Raman. Pol.=	No
#Laser Pol. (°)=	-0.0007625
#Raman Pol. (°)=	89.9995
#Collection=	Microscope
#StageXY=	Marzhauser
#StageZ=	Marzhauser
#X (µm)=	2181.6
#Y (µm)=	1242.6
#Z (µm)=	443.05
#Full time(mm:ss)=	3:18
#Project=	
#Sample=	
#Site=	
#Title=	Thy_10_08_16_2x_45s_532 nm_x100_100%_600 gr_mm
#Remark=	
#Date=	05.07.2022 15:20
#Acquired=	05.07.2022 15:20:16
#Base:Fit=	10.08.2022 09:46:25
#Base:Sub=	10.08.2022 09:46:49
#Filter:Polynom=	16.08.2022 10:24:56
#AxisType[0]=Intens
#AxisUnit[0]=Cnt
#AxisType[1]=Spectr
#AxisUnit[1]=1/cm
200.43	8.52548
202.244	9.90646
204.059	8.82236
205.873	7.80471
207.688	6.93585
209.501	6.38825
211.314	6.2217
213.127	6.10518
214.941	5.38039
216.753	5.09717
218.564	6.18572
220.375	6.98286
222.186	7.25538
223.999	7.86025
225.809	7.37152
227.618	6.94423
229.428	6.33347
231.236	7.46434
233.045	7.32046
234.855	6.36729
236.663	6.15547
238.471	6.35751
240.278	6.4412
242.085	6.65549
243.891	5.97091
245.698	5.09366
247.503	4.64652
249.309	4.7668
251.116	4.74638
252.921	4.8495
254.725	3.84715
256.529	3.36141
258.333	3.32833
260.136	4.01178
261.939	4.74287
263.742	5.43948
265.544	6.84449
267.346	6.8817
269.148	6.25081
270.949	6.77723
272.75	6.71568
274.55	8.1155
276.351	7.6201
278.15	7.46846
279.95	8.06286
281.749	7.66735
283.548	7.94237
285.346	7.26441
287.144	7.39991
288.942	7.53259
290.739	6.33217
292.536	7.63542
294.333	8.38239
296.129	8.77502
297.925	8.25171
299.721	8.76017
301.514	8.73628
303.309	9.08842
305.104	9.75844
306.898	10.3924
308.692	10.828
310.486	10.7405
312.279	10.4521
314.072	10.3869
315.862	10.5932
317.654	10.7812
319.446	11.1717
321.238	11.7406
323.029	11.1958
324.819	11.5516
326.608	12.5913
328.398	12.908
330.188	12.0833
331.977	11.7132
333.766	11.4085
335.553	11.3644
337.341	11.7466
339.129	11.935
340.917	11.7011
342.704	11.1095
344.489	10.4005
346.275	10.8754
348.062	10.0355
349.845	10.3873
351.631	10.6016
353.416	10.6614
355.201	10.4782
356.984	9.16456
358.768	9.09781
360.552	8.38199
362.333	8.25516
364.116	8.01234
365.899	7.31422
367.68	7.41502
369.462	7.34514
371.243	6.42267
373.023	5.67172
374.804	5.52772
376.585	5.20243
378.363	3.45422
380.143	2.31668
381.923	1.93918
383.7	1.6772
385.479	1.41678
387.256	0.394018
389.034	0.456673
390.812	0.655968
392.588	0.674149
394.365	0.266408
396.14	-0.208869
397.916	-0.0106849
399.691	1.10921
401.467	1.54367
403.24	2.18043
405.015	2.78627
406.788	2.62054
408.563	3.02874
410.335	3.52639
412.109	3.72465
413.88	3.97815
415.654	4.20237
417.424	3.86613
419.197	3.85181
420.967	4.30377
422.739	4.02463
424.508	3.44761
426.279	3.97796
428.048	4.11716
429.819	4.34159
431.587	4.19738
433.356	4.48189
435.124	4.79156
436.891	4.96631
438.66	5.37201
440.426	5.94063
442.194	5.76488
443.96	4.50784
445.725	4.72725
447.492	4.96787
449.257	4.72874
451.021	4.78788
452.787	4.91634
454.551	4.93682
456.314	4.6381
458.079	4.55079
459.842	4.88767
461.604	4.75019
463.368	5.07074
465.13	5.33039
466.891	5.21576
468.654	6.56249
470.415	7.33742
472.175	7.74338
473.935	7.8723
475.696	7.74888
477.456	8.60597
479.215	9.78129
480.973	10.4403
482.733	11.0695
484.491	11.4948
486.249	12.2744
488.006	13.591
489.765	13.7026
491.522	13.7985
493.278	14.07
495.034	14.3072
496.789	14.4597
498.544	14.7667
500.301	15.3334
502.056	15.8029
503.81	15.4265
505.564	15.0573
507.317	15.0011
509.071	14.542
510.825	15.5708
512.578	15.6589
514.33	15.9774
516.082	16.2243
517.833	16.2398
519.585	16.0431
521.335	16.4425
523.086	15.8944
524.836	15.6651
526.586	15.8064
528.335	15.9487
530.085	15.4371
531.835	14.336
533.584	14.5813
535.332	14.7043
537.08	14.46
538.827	13.8901
540.574	14.1117
542.321	14.0023
544.068	13.9755
545.814	12.9802
547.56	12.1939
549.305	11.2394
551.05	11.5825
552.795	11.6133
554.54	11.0884
556.282	11.5649
558.025	11.4198
559.769	10.7347
561.512	10.3288
563.255	10.2125
564.997	10.1584
566.739	9.51495
568.481	9.30629
570.223	8.07199
571.964	7.41456
573.705	6.902
575.443	6.18055
577.183	4.95333
578.923	4.35949
580.663	3.95599
582.402	3.88469
584.141	3.85652
585.879	3.87906
587.615	3.16577
589.353	3.34501
591.09	2.87897
592.828	3.07167
594.564	3.0429
596.299	3.68451
598.035	4.30362
599.771	3.86175
601.506	4.48893
603.242	4.77367
604.974	4.81025
606.709	5.57123
608.443	6.15092
610.177	6.44455
611.908	6.91201
613.642	7.60733
615.374	7.47842
617.105	7.72453
618.837	7.73432
620.569	8.80546
622.3	9.51219
624.03	9.45791
625.761	9.98566
627.491	10.5127
629.219	10.7726
630.949	10.1325
632.677	10.3867
634.406	11.4806
636.135	13.0739
637.861	13.8218
639.59	14.5767
641.318	15.5595
643.043	15.9998
644.77	15.6866
646.495	15.4214
648.222	15.2722
649.948	15.4368
651.672	16.1527
653.398	16.9287
655.121	17.6104
656.846	17.5329
658.569	18.9475
660.293	19.5499
662.015	20.6834
663.738	21.2884
665.46	21.7533
667.183	22.4309
668.903	23.8642
670.626	24.5855
672.346	24.8493
674.067	25.2778
675.787	26.4239
677.508	25.9673
679.226	27.462
680.947	28.5204
682.665	29.7395
684.385	30.4372
686.102	30.9516
687.821	31.3849
689.538	31.8162
691.254	32.5461
692.972	33.4843
694.688	33.8349
696.406	34.3338
698.121	34.4281
699.835	34.7537
701.552	34.9572
703.266	34.3891
704.98	35.7647
706.695	36.9848
708.409	37.8248
710.121	38.1532
711.836	39.3955
713.548	39.6767
715.26	39.8058
716.973	40.8415
718.685	41.5462
720.396	42.2778
722.108	43.3017
723.818	42.9638
725.528	43.3438
727.238	44.9608
728.949	45.603
730.658	46.4033
732.367	46.9574
734.075	47.6609
735.785	48.888
737.493	50.8106
739.2	51.2799
740.907	52.0511
742.614	53.1914
744.322	54.304
746.028	55.2371
747.734	55.4354
749.439	55.7428
751.144	56.8452
752.849	59.1999
754.555	61.8595
756.26	63.4297
757.963	65.1598
759.667	66.7003
761.37	67.9704
763.073	69.9607
764.775	71.6823
766.477	72.3471
768.179	73.4171
769.883	74.1958
771.584	75.0325
773.285	76.2104
774.986	77.3294
776.686	78.7822
778.386	79.9209
780.085	79.4691
781.785	79.8405
783.484	80.9701
785.182	81.3367
786.881	82.6469
788.579	84.9263
790.276	87.3919
791.974	88.3844
793.671	88.7962
795.367	89.0755
797.064	90.0922
798.76	90.8676
800.456	91.6122
802.151	92.129
803.846	91.5548
805.541	92.0129
807.234	91.6152
808.928	92.2142
810.622	93.1523
812.315	92.5774
814.008	91.0454
815.701	91.1777
817.394	91.0712
819.086	90.4931
820.778	91.5742
822.468	91.4027
824.159	91.3471
825.85	91.4799
827.541	91.0679
829.231	90.6551
830.921	89.6687
832.609	88.1962
834.298	87.6382
835.987	88.0977
837.676	87.9607
839.364	87.3773
841.051	86.0419
842.738	84.2845
844.426	82.6594
846.113	81.3876
847.798	79.8671
849.484	77.9001
851.171	76.5373
852.857	74.5409
854.54	73.8042
856.226	72.7252
857.911	71.6154
859.593	70.6027
861.278	69.0101
862.961	67.7829
864.645	66.6368
866.327	66.4731
868.01	66.5816
869.692	65.9889
871.373	65.9748
873.055	65.967
874.735	64.3194
876.416	63.381
878.097	62.5387
879.776	61.9297
881.457	62.2071
883.135	61.7299
884.815	60.6762
886.495	60.7304
888.172	60.6895
889.851	61.0352
891.528	60.7507
893.206	60.4753
894.882	60.1752
896.56	59.975
898.237	61.7537
899.912	62.3396
901.589	62.2963
903.263	61.8579
904.94	62.8577
906.614	63.0085
908.289	63.6166
909.962	63.1878
911.635	62.2269
913.31	62.2894
914.982	61.5689
916.656	62.4401
918.328	62.407
920.001	63.594
921.672	63.482
923.345	63.4751
925.015	62.8319
926.685	62.5459
928.357	62.4311
930.026	61.8473
931.698	61.8923
933.366	61.5093
935.035	61.1984
936.705	60.9262
938.373	61.5372
940.041	61.0669
941.71	59.644
943.377	58.9443
945.044	57.3953
946.712	57.4918
948.378	57.1726
950.044	56.8245
951.709	57.1006
953.376	56.192
955.041	55.4689
956.706	54.7816
958.372	53.415
960.036	52.1455
961.699	50.9827
963.362	49.9508
965.027	50.6105
966.69	50.6447
968.352	50.5777
970.014	50.4267
971.676	50.0028
973.339	49.3895
975	49.5042
976.661	48.7444
978.322	49.2992
979.982	49.6856
981.642	49.8973
983.303	49.7817
984.962	50.449
986.621	51.1063
988.28	51.7398
989.938	51.1569
991.596	50.1858
993.254	50.0136
994.911	50.1996
996.57	51.3628
998.227	50.606
999.884	50.8306
1001.54	49.2724
1003.2	49.4911
1004.85	49.3256
1006.51	49.2912
1008.16	48.5272
1009.82	47.7222
1011.47	46.8755
1013.12	45.9342
1014.78	45.769
1016.43	44.6237
1018.08	44.4206
1019.74	44.618
1021.39	44.3325
1023.04	43.8024
1024.69	42.4527
1026.34	42.9259
1028	42.0805
1029.65	42.1076
1031.3	42.0246
1032.95	41.7744
1034.6	40.9301
1036.25	39.8889
1037.9	38.9176
1039.54	37.3381
1041.19	37.1682
1042.84	36.7318
1044.49	36.7516
1046.14	36.7214
1047.78	37.7031
1049.43	37.8913
1051.08	37.5851
1052.72	37.8985
1054.37	38.6417
1056.02	38.6869
1057.66	38.9602
1059.31	37.615
1060.95	38.7048
1062.6	38.5337
1064.24	38.6652
1065.88	38.2446
1067.53	38.5025
1069.17	37.9528
1070.81	37.2017
1072.45	36.6273
1074.1	36.713
1075.74	36.9139
1077.38	36.4222
1079.02	35.3909
1080.66	32.8734
1082.3	32.8021
1083.94	31.4978
1085.58	31.7526
1087.22	30.8727
1088.86	30.1288
1090.5	29.2943
1092.14	29.018
1093.78	29.3768
1095.42	29.7413
1097.05	30.5013
1098.69	30.5967
1100.33	30.8228
1101.96	31.1853
1103.6	30.8918
1105.24	30.4064
1106.87	29.3509
1108.51	29.3483
1110.14	28.2253
1111.78	28.0456
1113.41	27.8808
1115.05	27.0489
1116.68	26.4768
1118.31	25.5856
1119.95	24.651
1121.58	24.7269
1123.21	24.7497
1124.85	23.8951
1126.48	23.886
1128.11	23.727
1129.74	24.3391
1131.37	24.0576
1133	23.6977
1134.63	22.4774
1136.26	21.9447
1137.89	20.9742
1139.52	20.3821
1141.15	19.7917
1142.78	20.4759
1144.41	20.3731
1146.04	20.5391
1147.66	20.5826
1149.29	20.9767
1150.92	20.2226
1152.55	20.2232
1154.17	19.8169
1155.8	19.5103
1157.43	19.1552
1159.05	18.2798
1160.68	17.8211
1162.3	17.5325
1163.93	18.9285
1165.55	18.538
1167.17	19.2286
1168.8	19.6198
1170.42	21.0235
1172.05	21.724
1173.67	22.1087
1175.29	23.0598
1176.91	23.478
1178.54	24.1506
1180.16	24.5215
1181.78	24.9624
1183.4	25.7262
1185.02	26.751
1186.64	27.4225
1188.26	27.8905
1189.88	28.6635
1191.5	29.3429
1193.12	29.6948
1194.74	30.1401
1196.36	31.3917
1197.97	32.6849
1199.59	33.2762
1201.21	34.8286
1202.83	35.7129
1204.44	35.7892
1206.06	36.6921
1207.68	37.7932
1209.29	37.6373
1210.91	38.5169
1212.52	39.3185
1214.14	39.5037
1215.75	39.8107
1217.37	42.1387
1218.98	43.2869
1220.59	44.0306
1222.21	45.4392
1223.82	47.1099
1225.43	48.5352
1227.05	48.649
1228.66	49.3514
1230.27	49.552
1231.88	50.255
1233.49	51.9987
1235.1	52.1802
1236.72	52.7386
1238.33	52.8022
1239.94	53.6402
1241.55	54.2858
1243.16	53.9904
1244.76	54.6005
1246.37	54.718
1247.98	54.9872
1249.59	55.1779
1251.2	55.8846
1252.8	55.2624
1254.41	55.3545
1256.02	54.9121
1257.62	53.9859
1259.23	54.1062
1260.84	54.0124
1262.44	54.4422
1264.05	55.2724
1265.66	55.2558
1267.26	55.6258
1268.86	56.0818
1270.47	56.2571
1272.07	57.3956
1273.67	57.5262
1275.28	58.7834
1276.88	60.498
1278.48	61.5779
1280.09	62.0544
1281.69	62.5394
1283.29	63.1125
1284.89	63.4927
1286.49	64.3911
1288.09	64.9961
1289.69	65.3882
1291.29	67.0709
1292.89	67.6404
1294.49	69.023
1296.09	70.2294
1297.69	71.1003
1299.29	71.7303
1300.89	71.6025
1302.49	73.5926
1304.08	74.4593
1305.68	75.0223
1307.28	75.8145
1308.88	77.129
1310.47	77.8628
1312.07	79.8119
1313.66	79.5625
1315.26	78.6762
1316.85	78.744
1318.45	78.5904
1320.04	79.7284
1321.64	79.6735
1323.23	79.6672
1324.83	79.9645
1326.42	79.3929
1328.01	78.7114
1329.61	77.8896
1331.2	76.2124
1332.79	74.299
1334.38	73.6069
1335.97	72.6209
1337.56	71.7916
1339.16	71.9869
1340.75	71.5733
1342.34	71.2328
1343.93	70.7542
1345.52	70.1755
1347.11	70.8436
1348.7	69.7982
1350.29	68.4434
1351.87	68.9663
1353.46	67.7149
1355.05	66.884
1356.64	65.7224
1358.22	64.0808
1359.81	62.8105
1361.4	61.6143
1362.98	60.8412
1364.57	59.6867
1366.16	59.162
1367.74	58.5192
1369.33	57.9019
1370.91	58.2043
1372.5	56.9578
1374.08	56.701
1375.67	55.7727
1377.25	55.5116
1378.83	55.0968
1380.41	54.9388
1382	55.515
1383.58	55.2056
1385.16	55.2657
1386.74	54.8055
1388.33	54.1298
1389.91	53.8834
1391.49	53.3215
1393.07	51.1116
1394.65	51.3781
1396.23	51.1482
1397.81	51.6437
1399.39	51.2291
1400.97	50.302
1402.55	49.4215
1404.13	48.4586
1405.7	48.0423
1407.28	48.0397
1408.86	47.6344
1410.44	47.7696
1412.01	49.3154
1413.59	51.0646
1415.17	52.2509
1416.74	53.1654
1418.32	54.6357
1419.89	55.2347
1421.47	56.383
1423.04	57.4446
1424.62	58.7138
1426.19	60.2433
1427.77	61.2335
1429.34	62.0328
1430.91	63.9154
1432.49	64.6182
1434.06	66.1434
1435.63	67.0872
1437.2	68.5518
1438.78	69.8733
1440.35	71.2087
1441.92	72.9878
1443.49	74.2332
1445.06	75.397
1446.63	75.6198
1448.2	75.5937
1449.77	75.766
1451.34	74.7549
1452.91	74.7978
1454.48	73.7752
1456.05	72.5999
1457.62	70.9211
1459.18	70.2335
1460.75	68.1527
1462.32	67.1593
1463.89	64.8677
1465.45	62.9147
1467.02	61.1906
1468.59	58.7899
1470.15	55.2174
1471.72	52.5995
1473.28	49.6419
1474.85	47.0282
1476.41	44.2901
1477.98	41.4655
1479.54	39.3703
1481.1	37.527
1482.67	35.6852
1484.23	34.4404
1485.79	32.9208
1487.36	31.2
1488.92	29.6318
1490.48	28.5855
1492.04	27.3106
1493.61	25.5719
1495.17	23.8649
1496.73	23.1595
1498.29	23.0049
1499.85	22.4566
1501.41	22.3322
1502.97	21.6054
1504.53	21.5215
1506.09	20.9778
1507.65	20.721
1509.2	21.0169
1510.76	20.3605
1512.32	19.5908
1513.88	18.3153
1515.43	18.3106
1516.99	19.0061
1518.55	19.3042
1520.1	19.7233
1521.66	19.3962
1523.22	18.8319
1524.77	18.8363
1526.33	19.202
1527.88	20.2925
1529.44	20.5878
1530.99	20.3232
1532.54	20.6097
1534.1	21.7549
1535.65	22.8154
1537.21	24.3249
1538.76	24.3539
1540.31	24.9024
1541.86	24.6882
1543.42	25.666
1544.97	26.701
1546.52	26.904
1548.07	28.0984
1549.62	29.4505
1551.17	31.0757
1552.72	32.9512
1554.27	34.6355
1555.82	36.6609
1557.37	37.5317
1558.92	38.8161
1560.47	39.394
1562.02	40.0421
1563.56	40.7603
1565.11	42.3773
1566.66	44.3435
1568.21	47.1523
1569.75	49.6404
1571.3	51.0624
1572.85	52.5459
1574.39	54.5943
1575.94	55.7678
1577.49	56.543
1579.03	57.3717
1580.57	57.8792
1582.12	59.015
1583.66	59.7674
1585.21	60.8469
1586.75	60.5935
1588.3	61.15
1589.84	62.0212
1591.38	61.8083
1592.92	63.0061
1594.47	63.7191
1596.01	63.4048
1597.55	63.9062
1599.09	63.6526
1600.63	63.3588
1602.17	63.1627
1603.71	62.1155
1605.25	61.4104
1606.79	59.5877
1608.33	59.1854
1609.87	58.8523
1611.41	58.5093
1612.95	57.3365
1614.49	55.7213
1616.03	53.658
1617.57	53.1916
1619.1	52.9235
1620.64	52.7062
1622.18	52.265
1623.72	50.9836
1625.25	50.9636
1626.79	49.8489
1628.32	49.1917
1629.86	48.573
1631.39	49.5314
1632.93	49.2818
1634.46	48.6147
1636	48.9094
1637.53	49.2494
1639.07	50.3613
1640.6	51.9498
1642.13	53.7948
1643.67	54.8547
1645.2	56.353
1646.73	56.2826
1648.26	55.964
1649.8	56.7505
1651.33	57.9373
1652.86	58.3877
1654.39	59.1193
1655.92	59.062
1657.45	59.5178
1658.98	59.3543
1660.51	59.0789
1662.04	59.3386
1663.57	58.863
1665.1	58.2766
1666.63	57.3628
1668.16	55.909
1669.68	55.433
1671.21	54.1439
1672.74	52.4298
1674.27	51.2226
1675.79	48.9063
1677.32	47.3712
1678.85	46.0271
1680.37	43.8267
1681.9	42.5353
1683.42	41.0852
1684.95	39.1018
1686.47	36.8429
1688	34.6999
1689.52	31.7621
1691.05	30.1988
1692.57	28.2289
1694.09	26.7879
1695.62	25.2202
1697.14	24.1606
1698.66	22.7761
1700.18	21.6254
1701.71	21.3289
1703.23	20.4138
1704.75	19.9112
1706.27	19.5465
1707.79	19.2718
1709.31	18.2696
1710.83	17.0705
1712.35	16.9008
1713.87	16.3624
1715.39	16.3942
1716.91	15.6703
1718.43	15.0978
1719.95	14.3462
1721.47	14.3823
1722.99	13.156
1724.5	12.7159
1726.02	12.8153
1727.54	12.2032
1729.06	11.1453
1730.57	10.1423
1732.09	8.59051
1733.61	7.81524
1735.12	7.30934
1736.64	6.90915
1738.15	6.88201
1739.67	6.51228
1741.18	5.53262
1742.7	4.79877
1744.21	3.95406
1745.72	3.55567
1747.24	3.08727
1748.75	3.07173
1750.26	2.76906
1751.77	2.53323
1753.29	2.87036
1754.8	2.6375
1756.31	2.03084
1757.82	2.00705
1759.33	1.43482
1760.84	0.729315
1762.36	0.476942
1763.87	0.203113
1765.38	0.350621
1766.89	0.682277
1768.4	0.625372
1769.91	0.74298
1771.41	0.849433
1772.92	1.18921
1774.43	1.1539
1775.94	1.17259
1777.45	0.850768
1778.95	0.786498
1780.46	1.04451
1781.97	1.16432
1783.48	1.133
1784.98	1.21798
1786.49	1.02283
1787.99	1.53788
1789.5	1.63168
1791.01	1.56981
1792.51	1.51188
1794.01	1.69363
1795.52	1.90428
1797.02	1.72574
1798.53	1.10877
1800.03	0.978927
1801.53	1.08818
1803.04	0.632438
1804.54	0.319871
1806.04	0.286186
1807.54	0.813304
1809.05	1.11231
1810.55	1.11711
1812.05	1.06313
1813.55	1.72561
1815.05	2.38832
1816.55	2.03169
1818.05	1.74416
1819.55	2.15613
1821.05	2.40044
1822.55	2.90347
1824.05	3.51037
1825.55	3.29155
1827.05	3.81879
1828.55	4.08897
1830.04	4.67399
1831.54	4.93593
1833.04	5.067
1834.54	5.81016
1836.03	5.63977
1837.53	5.13859
1839.03	5.6771
1840.52	6.10981
1842.02	6.38369
1843.51	6.43659
1845.01	6.54721
1846.5	6.96696
1848	7.79405
1849.49	7.68061
1850.99	7.36979
1852.48	7.277
1853.97	8.50157
1855.47	9.22272
1856.96	8.6788
1858.45	8.56403
1859.94	8.36536
1861.44	7.8046
1862.93	8.09718
1864.42	7.96609
1865.91	8.01768
1867.4	7.77257
1868.89	6.89012
1870.38	6.61445
1871.87	6.50346
1873.36	6.83422
1874.85	7.08521
1876.34	7.53936
1877.83	7.75582
1879.32	8.01219
1880.81	8.2972
1882.3	7.85516
1882.57	7.62861
1884.07	7.98508
1885.56	8.3924
1887.06	8.35739
1888.55	8.3122
1890.04	7.43481
1891.54	6.86111
1893.03	7.29892
1894.52	7.58607
1896.02	7.41361
1897.51	7.50319
1899	7.43239
1900.49	7.6953
1901.98	7.68255
1903.47	7.99665
1904.96	7.84506
1906.45	7.6505
1907.94	7.69416
1909.43	7.69727
1910.92	7.70598
1912.41	7.69682
1913.9	7.7343
1915.39	7.74279
1916.88	7.78788
1918.37	8.13428
1919.85	7.86934
1921.34	7.77238
1922.83	7.365
1924.32	7.51377
1925.8	7.90382
1927.29	8.36586
1928.78	8.0916
1930.26	7.47349
1931.75	7.48208
1933.23	7.26993
1934.72	7.15524
1936.2	7.92736
1937.69	7.61404
1939.17	7.64017
1940.66	7.5188
1942.14	7.77732
1943.63	8.26426
1945.11	8.80647
1946.59	8.80637
1948.07	9.31271
1949.56	9.37958
1951.04	8.96893
1952.52	9.14229
1954	8.74791
1955.48	8.24322
1956.96	8.24417
1958.45	7.92106
1959.93	7.7969
1961.41	7.57401
1962.89	7.58762
1964.37	7.47289
1965.85	7.42843
1967.32	7.73871
1968.8	7.68736
1970.28	7.22638
1971.76	7.06685
1973.24	6.75071
1974.72	6.90503
1976.19	7.33284
1977.67	7.26032
1979.15	7.06111
1980.63	7.04976
1982.1	7.25934
1983.58	6.94029
1985.05	6.33533
1986.53	6.55162
1988	6.93765
1989.48	7.34357
1990.95	7.44154
1992.43	7.47324
1993.9	7.28396
1995.38	7.44734
1996.85	8.11022
1998.32	8.51678
1999.8	9.27646
2001.27	9.52592
2002.74	9.43403
2004.22	9.0849
2005.69	8.76302
2007.16	8.42148
2008.63	8.60818
2010.1	8.80016
2011.57	9.19325
2013.04	9.08035
2014.51	9.11205
2015.98	9.04862
2017.45	9.16938
2018.92	8.98262
2020.39	9.33629
2021.86	9.70523
2023.33	9.17278
2024.8	9.17144
2026.27	9.61919
2027.74	9.73632
2029.2	10.0985
2030.67	10.1515
2032.14	10.4113
2033.61	11.1754
2035.07	11.0198
2036.54	10.9181
2038.01	10.8312
2039.47	10.8032
2040.94	11.4713
2042.4	11.3088
2043.87	11.3084
2045.33	11.5037
2046.8	12.7728
2048.26	13.3574
2049.72	13.0297
2051.19	12.3931
2052.65	12.5429
2054.12	12.4171
2055.58	12.8886
2057.04	12.5712
2058.5	12.9683
2059.97	13.0012
2061.43	13.0565
2062.89	13.1106
2064.35	13.2144
2065.81	13.1101
2067.27	12.7587
2068.73	12.8067
2070.19	13.5813
2071.65	13.3492
2073.11	12.555
2074.57	11.7849
2076.03	11.3446
2077.49	11.3428
2078.95	11.1958
2080.41	11.0896
2081.87	11.3032
2083.32	11.3039
2084.78	11.6485
2086.24	11.2632
2087.7	11.7285
2089.15	12.0058
2090.61	11.8585
2092.07	12.4068
2093.52	12.1494
2094.98	11.7594
2096.43	11.832
2097.89	12.1156
2099.34	11.8887
2100.8	12.0535
2102.25	11.4839
2103.71	10.9939
2105.16	11.2075
2106.61	11.0122
2108.07	11.2315
2109.52	11.7619
2110.97	11.6478
2112.43	12.0982
2113.88	12.2913
2115.33	12.7876
2116.78	13.6272
2118.23	13.8397
2119.68	14.3828
2121.13	14.3129
2122.59	14.2067
2124.04	14.871
2125.49	15.7215
2126.94	16.3366
2128.39	16.7208
2129.83	17.189
2131.28	17.5297
2132.73	18.2018
