#Acq. time (s)=	45
#Accumulations=	2
#Range (cm-¹)=	200...3150
#Windows=	2
#Auto scanning=	Off
#Autofocus=	Off
#Macrospot=	Off
#AutoExposure=	Off
#Spike filter=	Multiple accum.
#Delay time (s)=	0
#Binning=	1
#Readout mode=	Signal
#DeNoise=	Off
#ICS correction=	On
#Dark correction=	Off
#Inst. Process=	Off
#Detector Gain=	Best Dynamic Range
#Detector ADC=	20 kHz       
#Detector temperature (°C)=	-69.85
#Instrument=	LabRAM HR Evol
#Detector=	Synapse
#Objective=	x100
#Grating=	600 gr/mm
#ND Filter=	100%
#Laser (nm)=	532 
#Hole=	100.021
#Range=	Auto
#Laser Pol.=	No
#Raman. Pol.=	No
#Laser Pol. (°)=	-0.0007625
#Raman Pol. (°)=	89.9995
#Collection=	Microscope
#StageXY=	Marzhauser
#StageZ=	Marzhauser
#X (µm)=	1981.4
#Y (µm)=	-79
#Z (µm)=	425.9
#Full time(mm:ss)=	3:18
#Project=	
#Sample=	
#Site=	
#Title=	Thy_40_11_06_2x_45s_532 nm_x100_100%_600 gr_mm
#Remark=	
#Date=	05.07.2022 10:17
#Acquired=	05.07.2022 10:17:33
#Base:Fit=	10.08.2022 10:00:48
#Base:Fit=	10.08.2022 10:01:07
#Base:Fit=	10.08.2022 10:01:15
#Base:Fit=	10.08.2022 10:01:35
#Base:Sub=	10.08.2022 10:01:52
#Filter:Polynom=	16.08.2022 10:21:53
#AxisType[0]=Intens
#AxisUnit[0]=Cnt
#AxisType[1]=Spectr
#AxisUnit[1]=1/cm
200.43	39.0788
202.244	34.7495
204.059	32.2949
205.873	30.0337
207.688	27.2615
209.501	24.7722
211.314	22.3688
213.127	20.4125
214.941	19.2628
216.753	17.2504
218.564	15.0513
220.375	14.7157
222.186	13.2467
223.999	11.4994
225.809	9.68198
227.618	7.594
229.428	6.49673
231.236	5.29987
233.045	5.54643
234.855	5.15753
236.663	4.67054
238.471	4.65274
240.278	3.5724
242.085	2.8026
243.891	1.92156
245.698	2.18122
247.503	2.40671
249.309	2.79116
251.116	2.59507
252.921	1.51094
254.725	1.07842
256.529	2.02885
258.333	2.13436
260.136	3.44298
261.939	3.41964
263.742	3.47396
265.544	4.84739
267.346	4.89537
269.148	4.63322
270.949	4.99849
272.75	5.33202
274.55	4.29914
276.351	3.77214
278.15	3.52844
279.95	4.02332
281.749	3.24891
283.548	4.04122
285.346	5.29341
287.144	4.42807
288.942	5.3667
290.739	6.36832
292.536	6.25543
294.333	6.95732
296.129	6.81303
297.925	7.61746
299.721	8.47486
301.514	8.51755
303.309	9.33012
305.104	8.97392
306.898	8.79716
308.692	8.75455
310.486	8.65115
312.279	8.20636
314.072	8.50629
315.862	9.09513
317.654	9.42351
319.446	10.9027
321.238	11.0931
323.029	11.8795
324.819	12.0117
326.608	12.0818
328.398	12.8649
330.188	12.6841
331.977	12.4666
333.766	12.5387
335.553	13.634
337.341	13.4985
339.129	13.1397
340.917	12.3296
342.704	13.0698
344.489	13.5928
346.275	12.6192
348.062	11.6078
349.845	11.5888
351.631	10.1098
353.416	8.86376
355.201	8.39337
356.984	7.35975
358.768	7.73069
360.552	7.39803
362.333	6.70268
364.116	6.53878
365.899	6.52602
367.68	5.76379
369.462	5.76005
371.243	4.52565
373.023	5.29443
374.804	5.37144
376.585	5.63928
378.363	5.99716
380.143	7.19937
381.923	6.44264
383.7	6.52861
385.479	5.17053
387.256	5.03566
389.034	5.05517
390.812	4.51428
392.588	4.66093
394.365	3.86065
396.14	4.79078
397.916	4.60297
399.691	5.88704
401.467	7.10428
403.24	7.37549
405.015	8.00769
406.788	8.33588
408.563	9.13292
410.335	8.18483
412.109	8.89501
413.88	8.63167
415.654	8.14556
417.424	8.71
419.197	7.92163
420.967	7.43454
422.739	8.48316
424.508	8.86413
426.279	8.91555
428.048	8.65475
429.819	8.42756
431.587	8.82999
433.356	8.46248
435.124	7.78834
436.891	8.18528
438.66	9.14025
440.426	8.84413
442.194	8.14751
443.96	9.52586
445.725	10.5049
447.492	11.481
449.257	11.1203
451.021	11.7692
452.787	12.8988
454.551	12.8111
456.314	12.3567
458.079	14.3142
459.842	15.0772
461.604	16.7622
463.368	17.9358
465.13	18.387
466.891	18.4009
468.654	19.439
470.415	19.089
472.175	20.4487
473.935	20.8659
475.696	22.0144
477.456	22.2986
479.215	22.9132
480.973	23.9721
482.733	25.1301
484.491	27.0176
486.249	27.3479
488.006	27.4921
489.765	27.2391
491.522	27.6649
493.278	28.521
495.034	27.8396
496.789	27.8701
498.544	27.8014
500.301	28.8532
502.056	29.0802
503.81	29.5338
505.564	30.0068
507.317	29.2103
509.071	29.3603
510.825	30.7604
512.578	30.9369
514.33	31.0286
516.082	30.6615
517.833	29.524
519.585	29.4292
521.335	29.0852
523.086	28.3743
524.836	28.3656
526.586	27.9333
528.335	26.5641
530.085	27.1182
531.835	28.0947
533.584	27.2977
535.332	26.9118
537.08	26.1993
538.827	25.7742
540.574	24.51
542.321	23.2354
544.068	23.5396
545.814	24.7818
547.56	24.445
549.305	24.1339
551.05	24.0962
552.795	23.2738
554.54	22.6331
556.282	22.103
558.025	21.6432
559.769	21.4392
561.512	21.0477
563.255	20.0253
564.997	18.8989
566.739	18.7157
568.481	17.8831
570.223	17.5989
571.964	16.2464
573.705	14.3393
575.443	13.3507
577.183	12.8466
578.923	12.7326
580.663	11.7896
582.402	10.7979
584.141	11.1421
585.879	9.96991
587.615	9.11933
589.353	7.75131
591.09	6.32523
592.828	6.36728
594.564	5.75861
596.299	5.91971
598.035	5.98777
599.771	4.92213
601.506	3.9774
603.242	3.8877
604.974	3.74818
606.709	4.67007
608.443	4.34238
610.177	4.22517
611.908	5.25409
613.642	5.38176
615.374	6.13096
617.105	7.22458
618.837	7.50228
620.569	7.37338
622.3	8.0498
624.03	8.18159
625.761	9.21884
627.491	10.3999
629.219	12.0093
630.949	12.9995
632.677	13.7498
634.406	14.3958
636.135	14.3857
637.861	15.6905
639.59	16.2593
641.318	17.0949
643.043	17.9897
644.77	18.8924
646.495	19.1216
648.222	20.652
649.948	20.0453
651.672	20.3721
653.398	21.5768
655.121	21.7266
656.846	22.1133
658.569	22.7633
660.293	22.9377
662.015	23.5802
663.738	23.9826
665.46	23.9624
667.183	23.8785
668.903	24.3476
670.626	24.5424
672.346	23.4657
674.067	23.7437
675.787	23.8175
677.508	24.228
679.226	24.9537
680.947	25.4018
682.665	25.6687
684.385	27.3257
686.102	27.9648
687.821	29.4528
689.538	31.2491
691.254	32.3413
692.972	33.1968
694.688	33.8935
696.406	35.3034
698.121	36.9172
699.835	37.2977
701.552	39.5891
703.266	40.9785
704.98	42.1368
706.695	43.9018
708.409	45.3277
710.121	47.1744
711.836	49.4682
713.548	50.333
715.26	51.3386
716.973	52.341
718.685	54.1727
720.396	55.6498
722.108	57.2426
723.818	59.5143
725.528	61.1933
727.238	62.0854
728.949	63.3518
730.658	64.403
732.367	65.6674
734.075	65.6255
735.785	64.8931
737.493	65.4594
739.2	66.5865
740.907	66.2778
742.614	66.8661
744.322	68.2962
746.028	68.9475
747.734	70.4234
749.439	71.2656
751.144	71.7674
752.849	74.306
754.555	74.7543
756.26	76.0072
757.963	76.9572
759.667	77.767
761.37	78.6739
763.073	79.6895
764.775	81.8201
766.477	82.8399
768.179	82.8376
769.883	84.2184
771.584	84.4222
773.285	86.0427
774.986	86.8746
776.686	87.6013
778.386	89.208
780.085	90.5857
781.785	91.0943
783.484	91.4838
785.182	92.1071
786.881	93.4493
788.579	94.0436
790.276	94.8806
791.974	97.1196
793.671	98.3352
795.367	99.4714
797.064	100.358
798.76	101.03
800.456	101.973
802.151	102.13
803.846	102.518
805.541	102.255
807.234	102.324
808.928	102.816
810.622	102.097
812.315	100.702
814.008	100.856
815.701	99.3067
817.394	99.2582
819.086	97.7653
820.778	98.8758
822.468	99.3122
824.159	100.003
825.85	100.521
827.541	101.614
829.231	102.765
830.921	104.459
832.609	103.01
834.298	102.619
835.987	102.75
837.676	103.338
839.364	101
841.051	101.558
842.738	100.345
844.426	99.0811
846.113	98.3216
847.798	98.0646
849.484	97.2093
851.171	95.4078
852.857	93.8764
854.54	92.7834
856.226	91.3409
857.911	89.9928
859.593	88.9076
861.278	87.2915
862.961	85.5575
864.645	83.8671
866.327	82.4477
868.01	81.6326
869.692	80.7337
871.373	80.1683
873.055	79.73
874.735	79.9202
876.416	79.7084
878.097	78.4109
879.776	76.9483
881.457	76.7861
883.135	75.8607
884.815	74.0789
886.495	72.1764
888.172	71.9005
889.851	70.7371
891.528	70.5589
893.206	70.1013
894.882	69.2335
896.56	69.5719
898.237	69.9296
899.912	69.7691
901.589	70.3767
903.263	68.8093
904.94	69.375
906.614	68.6614
908.289	68.0836
909.962	67.2727
911.635	66.455
913.31	65.785
914.982	65.4051
916.656	63.4386
918.328	62.8144
920.001	61.5905
921.672	60.802
923.345	58.6161
925.015	58.3967
926.685	57.8922
928.357	57.7374
930.026	56.926
931.698	56.964
933.366	55.7749
935.035	55.1924
936.705	53.5822
938.373	52.6565
940.041	51.9594
941.71	50.6338
943.377	49.5448
945.044	47.6859
946.712	46.7129
948.378	46.8593
950.044	46.7997
951.709	46.929
953.376	47.5105
955.041	48.982
956.706	49.4177
958.372	49.3178
960.036	48.9064
961.699	48.828
963.362	49.6541
965.027	51.5044
966.69	51.9542
968.352	52.6567
970.014	53.0246
971.676	54.0491
973.339	54.8972
975	56.1626
976.661	57.4182
978.322	58.247
979.982	58.2902
981.642	58.1968
983.303	58.3624
984.962	58.362
986.621	57.5956
988.28	58.2295
989.938	57.7182
991.596	57.5972
993.254	57.3458
994.911	57.5509
996.57	58.1068
998.227	57.7774
999.884	56.6308
1001.54	56.2799
1003.2	56.6504
1004.85	56.8525
1006.51	56.2567
1008.16	57.4985
1009.82	58.1495
1011.47	56.6929
1013.12	56.3229
1014.78	56.1853
1016.43	55.305
1018.08	54.5423
1019.74	53.1079
1021.39	51.8695
1023.04	51.4834
1024.69	50.6719
1026.34	50.5516
1028	50.7512
1029.65	50.969
1031.3	51.5943
1032.95	51.9737
1034.6	51.0025
1036.25	50.0588
1037.9	49.4642
1039.54	48.3685
1041.19	48.2389
1042.84	48.5296
1044.49	48.5569
1046.14	48.945
1047.78	47.6315
1049.43	46.2327
1051.08	45.2967
1052.72	44.412
1054.37	44.5677
1056.02	44.1226
1057.66	42.0594
1059.31	41.0499
1060.95	40.394
1062.6	39.8751
1064.24	39.3206
1065.88	37.7999
1067.53	36.8142
1069.17	35.677
1070.81	35.4536
1072.45	35.5559
1074.1	34.3453
1075.74	34.1337
1077.38	33.3466
1079.02	33.2666
1080.66	32.8603
1082.3	32.436
1083.94	32.3441
1085.58	31.4384
1087.22	30.0897
1088.86	30.6387
1090.5	30.5856
1092.14	30.6903
1093.78	29.9924
1095.42	31.0942
1097.05	30.1911
1098.69	29.9233
1100.33	29.9156
1101.96	29.8779
1103.6	30.3367
1105.24	31.4017
1106.87	30.9085
1108.51	30.7875
1110.14	31.3075
1111.78	30.2934
1113.41	29.5182
1115.05	28.8521
1116.68	28.3838
1118.31	28.9314
1119.95	28.7378
1121.58	27.8672
1123.21	27.0294
1124.85	25.6155
1126.48	24.8131
1128.11	22.7432
1129.74	20.9776
1131.37	20.5954
1133	19.8454
1134.63	19.33
1136.26	19.045
1137.89	18.0149
1139.52	17.9202
1141.15	19.118
1142.78	19.0165
1144.41	18.1075
1146.04	16.9365
1147.66	16.1688
1149.29	17.0186
1150.92	16.5462
1152.55	15.709
1154.17	15.2062
1155.8	13.9929
1157.43	12.9454
1159.05	12.2272
1160.68	12.7072
1162.3	12.5966
1163.93	11.5245
1165.55	10.6413
1167.17	10.4408
1168.8	10.4964
1170.42	11.8247
1172.05	11.498
1173.67	11.1203
1175.29	9.80319
1176.91	9.82049
1178.54	8.96747
1180.16	9.30129
1181.78	8.45493
1183.4	8.06807
1185.02	7.4477
1186.64	6.97167
1188.26	5.83421
1189.88	5.61004
1191.5	4.96723
1193.12	3.85451
1194.74	4.36605
1196.36	5.20179
1197.97	5.72423
1199.59	6.21172
1201.21	5.03568
1202.83	5.80119
1204.44	6.0145
1206.06	6.52016
1207.68	7.78214
1209.29	9.66464
1210.91	12.1278
1212.52	14.4608
1214.14	17.1724
1215.75	20.5467
1217.37	23.4809
1218.98	25.6796
1220.59	28.5348
1222.21	31.0706
1223.82	33.0157
1225.43	36.1421
1227.05	38.989
1228.66	40.6757
1230.27	44.1304
1231.88	46.8535
1233.49	49.6568
1235.1	52.1603
1236.72	54.5208
1238.33	56.9162
1239.94	60.2392
1241.55	62.7008
1243.16	64.564
1244.76	66.9676
1246.37	68.8269
1247.98	70.6159
1249.59	72.4248
1251.2	73.5257
1252.8	74.057
1254.41	74.2694
1256.02	75.657
1257.62	76.4402
1259.23	77.4379
1260.84	78.0546
1262.44	78.4695
1264.05	78.7197
1265.66	79.6473
1267.26	80.3653
1268.86	80.6509
1270.47	82.1541
1272.07	83.3788
1273.67	85.0589
1275.28	86.8447
1276.88	87.6482
1278.48	87.1845
1280.09	87.7161
1281.69	88.4216
1283.29	90.4149
1284.89	90.389
1286.49	91.3732
1288.09	92.7561
1289.69	93.8621
1291.29	93.7341
1292.89	94.36
1294.49	95.141
1296.09	96.2566
1297.69	96.4944
1299.29	97.429
1300.89	98.4538
1302.49	99.3261
1304.08	99.359
1305.68	99.6046
1307.28	98.3652
1308.88	97.6739
1310.47	98.4719
1312.07	99.0539
1313.66	97.7252
1315.26	96.8535
1316.85	96.4563
1318.45	96.4623
1320.04	96.1935
1321.64	96.0311
1323.23	94.8737
1324.83	94.2271
1326.42	91.2859
1328.01	90.2391
1329.61	89.6101
1331.2	88.8278
1332.79	87.2297
1334.38	87.083
1335.97	85.753
1337.56	83.8377
1339.16	82.7763
1340.75	81.541
1342.34	79.6335
1343.93	78.8095
1345.52	78.1249
1347.11	75.991
1348.7	75.025
1350.29	74.8014
1351.87	73.6915
1353.46	72.7047
1355.05	70.8913
1356.64	68.6607
1358.22	66.6265
1359.81	66.3012
1361.4	65.4
1362.98	63.6899
1364.57	61.9383
1366.16	60.8753
1367.74	60.4628
1369.33	59.3744
1370.91	58.223
1372.5	57.2757
1374.08	55.8292
1375.67	54.8539
1377.25	53.8062
1378.83	53.0609
1380.41	51.8408
1382	50.5876
1383.58	49.511
1385.16	48.4245
1386.74	47.5309
1388.33	46.981
1389.91	46.326
1391.49	46.4289
1393.07	45.5228
1394.65	45.2251
1396.23	45.196
1397.81	44.5167
1399.39	43.8142
1400.97	42.8744
1402.55	41.9744
1404.13	41.5931
1405.7	41.1743
1407.28	42.3034
1408.86	43.6317
1410.44	43.5303
1412.01	43.4289
1413.59	44.7884
1415.17	45.4437
1416.74	46.6913
1418.32	47.1813
1419.89	48.3335
1421.47	50.335
1423.04	52.8213
1424.62	53.9659
1426.19	56.9037
1427.77	60.1125
1429.34	62.9731
1430.91	65.9024
1432.49	68.8237
1434.06	71.2737
1435.63	73.3985
1437.2	75.91
1438.78	78.6727
1440.35	81.4492
1441.92	83.623
1443.49	85.2076
1445.06	86.675
1446.63	87.4673
1448.2	87.4387
1449.77	87.7994
1451.34	88.7158
1452.91	88.3777
1454.48	88.5193
1456.05	87.2683
1457.62	86.1053
1459.18	85.1941
1460.75	83.3281
1462.32	81.8865
1463.89	79.2773
1465.45	77.3553
1467.02	74.5143
1468.59	72.0283
1470.15	69.6032
1471.72	66.1649
1473.28	62.3652
1474.85	58.6789
1476.41	54.2067
1477.98	50.6277
1479.54	47.0437
1481.1	43.4822
1482.67	39.6122
1484.23	36.7728
1485.79	32.7077
1487.36	29.7851
1488.92	26.3396
1490.48	23.6896
1492.04	21.4744
1493.61	19.6196
1495.17	16.7504
1496.73	14.7502
1498.29	14.8168
1499.85	14.3226
1501.41	12.856
1502.97	12.3232
1504.53	11.7675
1506.09	10.9298
1507.65	10.781
1509.2	10.7072
1510.76	10.5176
1512.32	9.95147
1513.88	9.07243
1515.43	9.65187
1516.99	10.5773
1518.55	10.7163
1520.1	10.9119
1521.66	11.2282
1523.22	11.4469
1524.77	12.4763
1526.33	14.6046
1527.88	15.9056
1529.44	17.5853
1530.99	18.1934
1532.54	19.671
1534.1	20.08
1535.65	22.7083
1537.21	24.9554
1538.76	26.6686
1540.31	28.8837
1541.86	30.7348
1543.42	32.6603
1544.97	34.4407
1546.52	36.5411
1548.07	37.9665
1549.62	40.1793
1551.17	42.8157
1552.72	44.9652
1554.27	47.0632
1555.82	50.2423
1557.37	52.4
1558.92	54.6334
1560.47	56.5002
1562.02	58.5871
1563.56	60.8062
1565.11	63.9381
1566.66	66.6847
1568.21	68.7595
1569.75	70.8052
1571.3	72.3566
1572.85	73.7878
1574.39	75.6708
1575.94	77.1254
1577.49	77.743
1579.03	79.4387
1580.57	80.6467
1582.12	80.5592
1583.66	81.94
1585.21	81.8776
1586.75	82.2964
1588.3	83.0293
1589.84	82.3762
1591.38	82.1011
1592.92	82.8261
1594.47	82.6225
1596.01	82.3211
1597.55	82.1898
1599.09	81.415
1600.63	80.7266
1602.17	80.8574
1603.71	80.4101
1605.25	79.2466
1606.79	78.513
1608.33	78.2409
1609.87	77.5477
1611.41	77.8254
1612.95	77.7352
1614.49	77.9466
1616.03	78.016
1617.57	77.8269
1619.1	78.0776
1620.64	79.7353
1622.18	80.5169
1623.72	81.6579
1625.25	82.9472
1626.79	85.7767
1628.32	87.2248
1629.86	89.0402
1631.39	90.3651
1632.93	92.7673
1634.46	94.3986
1636	96.4235
1637.53	98.291
1639.07	101.596
1640.6	103.856
1642.13	105.744
1643.67	108.148
1645.2	110.231
1646.73	112.017
1648.26	113.587
1649.8	115.142
1651.33	116.266
1652.86	117.07
1654.39	118.361
1655.92	119.013
1657.45	118.354
1658.98	118.208
1660.51	118.075
1662.04	116.445
1663.57	115.695
1665.1	113.548
1666.63	111.413
1668.16	109.349
1669.68	106.831
1671.21	103.712
1672.74	101.306
1674.27	98.2743
1675.79	94.5786
1677.32	91.6475
1678.85	88.2772
1680.37	84.6109
1681.9	80.6768
1683.42	76.3309
1684.95	72.7514
1686.47	68.4138
1688	65.0475
1689.52	60.7619
1691.05	57.6143
1692.57	53.0457
1694.09	49.413
1695.62	46.7567
1697.14	44.0608
1698.66	39.9174
1700.18	37.2475
1701.71	34.8799
1703.23	32.3172
1704.75	29.1971
1706.27	27.1747
1707.79	25.0559
1709.31	22.9382
1710.83	21.2094
1712.35	19.614
1713.87	18.2754
1715.39	17.3442
1716.91	15.7291
1718.43	15.2257
1719.95	14.4983
1721.47	13.6598
1722.99	11.8706
1724.5	11.0316
1726.02	10.7751
1727.54	10.3096
1729.06	9.49351
1730.57	8.72029
1732.09	7.98131
1733.61	6.98187
1735.12	6.84575
1736.64	5.60073
1738.15	5.28756
1739.67	4.71837
1741.18	4.38029
1742.7	4.45418
1744.21	3.63176
1745.72	3.81493
1747.24	3.79411
1748.75	3.86603
1750.26	3.75728
1751.77	3.52499
1753.29	3.85216
1754.8	3.23414
1756.31	2.6507
1757.82	2.08877
1759.33	1.74074
1760.84	1.70389
1762.36	1.65866
1763.87	1.88119
1765.38	1.00846
1766.89	0.776172
1768.4	0.348101
1769.91	0.546745
1771.41	0.560043
1772.92	0.356863
1774.43	0.0548272
1775.94	0.76606
1777.45	0.903071
1778.95	0.959571
1780.46	1.50369
1781.97	1.5832
1783.48	1.81807
1784.98	1.21092
1786.49	1.72025
1787.99	1.43646
1789.5	1.52164
1791.01	1.76801
1792.51	1.52244
1794.01	1.67267
1795.52	1.50671
1797.02	1.53972
1798.53	1.3738
1800.03	1.82212
1801.53	1.22304
1803.04	0.402924
1804.54	-0.382487
1806.04	0.123848
1807.54	0.289212
1809.05	0.380605
1810.55	1.01441
1812.05	0.372048
1813.55	0.652282
1815.05	0.340714
1816.55	0.486932
1818.05	0.382858
1819.55	0.749434
1821.05	1.24838
1822.55	1.34723
1824.05	1.55104
1825.55	1.91724
1827.05	1.79225
1828.55	1.62885
1830.04	1.49263
1831.54	1.58926
1833.04	1.71486
1834.54	1.86164
1836.03	2.15633
1837.53	2.52885
1839.03	2.42311
1840.52	1.8026
1842.02	2.11884
1843.51	1.8811
1845.01	2.1892
1846.5	2.75551
1848	3.32266
1849.49	4.24509
1850.99	4.79394
1852.48	4.66269
1853.97	4.71185
1855.47	4.41414
1856.96	4.9873
1858.45	4.73532
1859.94	3.9171
1861.44	3.80688
1862.93	3.95283
1864.42	4.46329
1865.91	4.61461
1867.4	4.59755
1868.89	5.38264
1870.38	4.65997
1871.87	4.62971
1873.36	4.30596
1874.85	3.70772
1876.34	3.1747
1877.83	2.99577
1879.32	3.56247
1880.81	4.40341
1882.3	3.78311
1882.57	4.01541
1884.07	4.06362
1885.56	3.4251
1887.06	3.56415
1888.55	3.44737
1890.04	3.73524
1891.54	4.01216
1893.03	3.51745
1894.52	2.99523
1896.02	2.56988
1897.51	2.26977
1899	2.82473
1900.49	2.38933
1901.98	2.34783
1903.47	2.53485
1904.96	2.58322
1906.45	2.22774
1907.94	2.53276
1909.43	2.7892
1910.92	3.09753
1912.41	2.94921
1913.9	3.48158
1915.39	4.2609
1916.88	4.37977
1918.37	4.51563
1919.85	4.8877
1921.34	5.29674
1922.83	5.14293
1924.32	5.03695
1925.8	4.58062
1927.29	4.13452
1928.78	4.94341
1930.26	4.71479
1931.75	3.43239
1933.23	3.27691
1934.72	3.83502
1936.2	4.06076
1937.69	4.31899
1939.17	3.63842
1940.66	2.48973
1942.14	2.12235
1943.63	1.46392
1945.11	1.67931
1946.59	2.15492
1948.07	2.19913
1949.56	2.63749
1951.04	2.82851
1952.52	2.93894
1954	2.98377
1955.48	2.85499
1956.96	4.08038
1958.45	4.1404
1959.93	3.61992
1961.41	4.13196
1962.89	4.68829
1964.37	3.85295
1965.85	3.23229
1967.32	2.70097
1968.8	2.89798
1970.28	3.47728
1971.76	4.5054
1973.24	4.11974
1974.72	3.13106
1976.19	3.46795
1977.67	4.48416
1979.15	5.24443
1980.63	5.44142
1982.1	6.59595
1983.58	6.83688
1985.05	6.98823
1986.53	7.30179
1988	7.60385
1989.48	7.86857
1990.95	8.1317
1992.43	8.66481
1993.9	9.21133
1995.38	8.78151
1996.85	8.64904
1998.32	8.53897
1999.8	7.78604
2001.27	8.14666
2002.74	7.87018
2004.22	7.14968
2005.69	7.31121
2007.16	7.24519
2008.63	7.50684
2010.1	7.21062
2011.57	7.11904
2013.04	6.82566
2014.51	7.40249
2015.98	8.28577
2017.45	9.6316
2018.92	9.63919
2020.39	9.86216
2021.86	9.71148
2023.33	9.74769
2024.8	10.5915
2026.27	11.9417
2027.74	13.094
2029.2	13.6038
2030.67	13.7684
2032.14	13.6212
2033.61	13.6576
2035.07	13.6912
2036.54	13.0812
2038.01	13.021
2039.47	14.3424
2040.94	15.2958
2042.4	15.4914
2043.87	16.1501
2045.33	16.1848
2046.8	15.7511
2048.26	16.4723
2049.72	17.137
2051.19	17.8847
2052.65	19.0671
2054.12	19.2001
2055.58	20.2914
2057.04	20.4771
2058.5	21.0241
2059.97	21.4299
2061.43	21.3904
2062.89	21.4627
2064.35	21.7693
2065.81	21.537
2067.27	21.1377
2068.73	20.5067
2070.19	21.2206
2071.65	21.3163
2073.11	22.1967
2074.57	22.5967
2076.03	23.1897
2077.49	24.1916
2078.95	24.6107
2080.41	25.1896
2081.87	26.6441
2083.32	27.3475
2084.78	27.816
2086.24	28.7561
2087.7	30.3856
2089.15	31.0926
2090.61	32.2883
2092.07	32.8799
2093.52	33.7485
2094.98	35.7484
2096.43	37.4844
2097.89	39.6199
2099.34	41.0064
2100.8	41.6489
2102.25	42.605
2103.71	43.9304
2105.16	46.1013
2106.61	47.8088
2108.07	49.4002
2109.52	51.3559
2110.97	53.3662
2112.43	54.6917
2113.88	55.5368
2115.33	56.7662
2116.78	58.175
2118.23	60.3257
2119.68	62.2956
2121.13	65.1105
2122.59	67.5491
2124.04	70.747
2125.49	73.924
2126.94	76.0072
