#Acq. time (s)=	45
#Accumulations=	2
#Range (cm-¹)=	200...3150
#Windows=	2
#Auto scanning=	Off
#Autofocus=	Off
#Macrospot=	Off
#AutoExposure=	Off
#Spike filter=	Multiple accum.
#Delay time (s)=	0
#Binning=	1
#Readout mode=	Signal
#DeNoise=	Off
#ICS correction=	On
#Dark correction=	Off
#Inst. Process=	Off
#Detector Gain=	Best Dynamic Range
#Detector ADC=	20 kHz       
#Detector temperature (°C)=	-69.85
#Instrument=	LabRAM HR Evol
#Detector=	Synapse
#Objective=	x100
#Grating=	600 gr/mm
#ND Filter=	100%
#Laser (nm)=	532 
#Hole=	100.021
#Range=	Auto
#Laser Pol.=	No
#Raman. Pol.=	No
#Laser Pol. (°)=	-0.0007625
#Raman Pol. (°)=	89.9995
#Collection=	Microscope
#StageXY=	Marzhauser
#StageZ=	Marzhauser
#X (µm)=	9023.1
#Y (µm)=	-3084.6
#Z (µm)=	-54.6
#Full time(mm:ss)=	3:19
#Project=	
#Sample=	
#Site=	
#Title=	Thy_00_07_16_2x_45s_532 nm_x100_100%_600 gr_mm
#Remark=	
#Date=	28.06.2022 11:14
#Acquired=	28.06.2022 11:14:48
#Base:Fit=	10.08.2022 10:06:44
#Base:Fit=	10.08.2022 10:07:16
#Base:Fit=	10.08.2022 10:07:25
#Base:Fit=	10.08.2022 10:07:44
#Base:Fit=	10.08.2022 10:07:56
#Base:Sub=	10.08.2022 10:08:40
#Filter:Polynom=	16.08.2022 10:26:06
#AxisType[0]=Intens
#AxisUnit[0]=Cnt
#AxisType[1]=Spectr
#AxisUnit[1]=1/cm
200.407	66.9685
202.221	63.9063
204.035	60.5563
205.849	56.4157
207.665	52.3021
209.478	48.613
211.291	45.5289
213.104	42.6621
214.916	40.6796
216.73	37.4544
218.541	34.5333
220.352	32.0948
222.163	28.9244
223.973	27.3732
225.785	25.2441
227.595	23.438
229.404	22.7953
231.213	20.7248
233.022	19.394
234.83	18.0148
236.638	16.4291
238.448	15.3942
240.255	14.4268
242.062	13.1528
243.868	11.5593
245.675	9.84394
247.48	10.4604
249.286	10.447
251.091	10.1737
252.896	8.85734
254.702	7.93878
256.506	7.11604
258.31	5.41375
260.113	3.8989
261.916	3.05706
263.719	3.32241
265.521	3.25924
267.323	3.23825
269.125	3.19878
270.926	3.17937
272.727	2.49295
274.527	2.0659
276.328	2.47847
278.127	2.64077
279.927	4.32268
281.726	5.44656
283.525	4.51402
285.323	5.21588
287.121	5.71754
288.919	6.16685
290.716	5.19448
292.513	5.39627
294.31	6.3037
296.104	8.19092
297.9	9.45641
299.696	10.4482
301.491	10.6052
303.286	11.1699
305.081	11.4606
306.875	11.2326
308.669	11.93
310.463	12.442
312.256	13.2275
314.047	14.9027
315.839	15.4967
317.631	16.4392
319.423	16.7601
321.215	16.1226
323.006	16.9805
324.794	16.8332
326.585	17.0421
328.375	17.8595
330.165	17.4283
331.954	16.6397
333.741	16.1494
335.53	16.2141
337.318	16.4988
339.106	14.8664
340.894	13.6922
342.679	13.5404
344.466	13.8181
346.253	12.8536
348.039	12.8534
349.823	12.9823
351.608	13.0627
353.393	13.2194
355.176	12.8622
356.961	13.2513
358.745	12.4742
360.529	13.0909
362.31	11.9595
364.093	10.6873
365.876	10.8416
367.657	10.9296
369.439	10.7479
371.221	9.50015
373	8.75935
374.781	9.65536
376.56	9.49671
378.34	8.74694
380.12	8.73909
381.898	8.57247
383.677	8.40576
385.456	8.33097
387.233	6.69745
389.011	5.85403
390.787	6.29097
392.565	6.75234
394.34	5.8788
396.117	5.34148
397.894	5.42305
399.668	5.3138
401.444	5.67297
403.217	5.59781
404.993	5.83101
406.766	5.43466
408.54	5.55532
410.312	5.27101
412.086	6.13089
413.858	6.42663
415.631	6.96298
417.402	7.21479
419.174	6.43883
420.944	6.98478
422.716	6.77304
424.486	6.26787
426.257	6.07611
428.025	5.85386
429.794	5.16735
431.564	5.06625
433.332	4.08524
435.101	2.83348
436.868	3.46929
438.637	4.46827
440.403	6.05304
442.169	7.65118
443.937	9.08781
445.703	10.2906
447.468	11.7404
449.234	14.2695
450.999	15.2454
452.765	17.3587
454.528	19.3654
456.292	21.3841
458.057	22.7106
459.819	25.4534
461.582	27.7945
463.344	29.6181
465.107	30.3611
466.868	32.6921
468.629	34.7811
470.392	36.2499
472.152	37.0282
473.912	38.4265
475.672	39.1947
477.433	40.6716
479.192	42.0789
480.951	42.6277
482.709	42.0632
484.469	42.2019
486.226	43.071
487.984	42.8455
489.74	44.0625
491.499	44.5494
493.255	44.8052
495.011	44.1461
496.767	44.2626
498.522	44.1591
500.277	43.9708
502.033	42.5634
503.788	41.7472
505.541	40.815
507.295	38.9498
509.048	37.6195
510.801	34.9277
512.553	32.3499
514.308	30.1948
516.06	27.1062
517.811	24.3354
519.562	22.5186
521.313	20.7932
523.063	19.6039
524.814	20.3979
526.563	20.4725
528.313	19.476
530.062	19.1894
531.811	18.5461
533.559	17.7275
535.308	16.7141
537.055	15.1495
538.803	13.4115
540.55	13.2831
542.297	12.7546
544.043	12.5164
545.789	11.7251
547.535	12.1703
549.281	12.4114
551.026	12.1888
552.771	11
554.515	10.6993
556.259	9.58964
558.003	8.17776
559.747	8.0467
561.49	9.00288
563.233	8.98274
564.975	8.50801
566.717	8.97479
568.459	8.105
570.2	7.82525
571.942	7.5885
573.68	8.23728
575.421	8.14006
577.161	9.07839
578.901	8.73587
580.64	8.97601
582.379	9.97011
584.118	11.084
585.855	11.37
587.593	10.6831
589.331	10.6927
591.068	11.0787
592.805	9.41436
594.54	8.69929
596.277	8.47636
598.013	7.52073
599.749	7.34437
601.484	7.4185
603.217	7.34901
604.952	7.78136
606.687	7.95586
608.421	7.1089
610.153	6.80849
611.886	7.86739
613.619	7.20143
615.35	7.04446
617.083	8.20663
618.815	7.9784
620.547	7.91653
622.276	7.59979
624.008	8.05649
625.738	8.55285
627.467	9.01879
629.197	9.35819
630.927	9.99016
632.655	11.2716
634.384	12.4424
636.113	14.0212
637.839	14.3727
639.568	15.6074
641.293	16.7175
643.021	18.8415
644.748	19.56
646.473	20.7725
648.2	21.3156
649.924	21.4892
651.65	21.2286
653.376	21.6233
655.099	21.8248
656.824	23.0583
658.546	23.4963
660.271	23.6229
661.993	23.9584
663.716	25.2354
665.438	24.9636
667.161	25.1977
668.881	25.807
670.604	24.9396
672.324	24.1007
674.045	23.957
675.765	23.8019
677.486	24.2436
679.204	25.4438
680.925	27.2451
682.643	27.0978
684.361	27.8023
686.08	28.9533
687.797	28.7588
689.516	28.8816
691.232	28.8051
692.95	28.8109
694.666	28.4411
696.382	29.4913
698.099	30.2711
699.813	29.4803
701.528	30.5133
703.244	30.5216
704.958	30.2614
706.673	30.091
708.387	30.4653
710.099	31.6201
711.814	33.0422
713.526	33.7651
715.238	35.0338
716.949	36.1235
718.663	36.5796
720.374	37.3552
722.084	38.208
723.796	38.8098
725.506	39.2898
727.216	39.8897
728.925	41.6224
730.636	42.1691
732.345	43.0526
734.053	43.3738
735.761	45.727
737.471	47.0412
739.178	48.5917
740.885	50.2221
742.592	51.2027
744.298	53.6769
746.006	55.3469
747.712	58.1336
749.417	59.8623
751.122	60.6333
752.827	61.9745
754.532	63.8835
756.236	65.0359
757.942	67.2464
759.645	68.8742
761.348	70.9194
763.051	72.9426
764.753	73.9401
766.456	74.1697
768.158	74.8761
769.859	76.8429
771.56	77.7203
773.261	78.2288
774.964	78.6434
776.664	79.457
778.364	80.3946
780.064	80.1925
781.763	80.1368
783.462	79.7949
785.16	80.0407
786.859	81.4366
788.557	81.2871
790.255	82.2253
791.952	81.5324
793.649	81.2797
795.346	81.2506
797.042	81.298
798.738	80.6798
800.434	80.0527
802.127	79.3727
803.823	79.3771
805.517	80.322
807.212	81.1076
808.906	82.1265
810.6	82.9949
812.293	84.3902
813.987	85.0791
815.68	86.2641
817.372	87.4666
819.064	89.1315
820.754	91.3107
822.446	90.6085
824.137	92.4128
825.828	94.5604
827.519	96.7719
829.209	98.9618
830.897	98.9652
832.587	99.5469
834.276	100.078
835.966	100.443
837.654	100.773
839.341	101.521
841.029	101.256
842.717	101.69
844.404	100.954
846.091	100.576
847.776	99.153
849.463	98.0778
851.149	97.7355
852.833	96.5749
854.519	94.8254
856.204	93.2835
857.889	91.6421
859.572	89.1324
861.256	88.3238
862.94	86.912
864.622	84.5953
866.305	82.6014
867.988	81.2279
869.669	79.5917
871.351	77.703
873.033	75.9269
874.713	74.1415
876.395	72.5296
878.074	72.3636
879.755	71.903
881.435	70.5771
883.114	68.4281
884.794	66.9862
886.471	66.7702
888.15	67.1042
889.829	67.5373
891.506	66.6628
893.184	66.4981
894.861	66.8522
896.538	67.0555
898.214	67.4582
899.891	68.0957
901.566	68.9714
903.242	69.542
904.916	70.3194
906.592	72.2135
908.266	74.86
909.941	77.7465
911.614	78.078
913.288	79.6841
914.961	81.4713
916.635	82.7059
918.306	83.647
919.979	84.5228
921.651	84.9737
923.321	84.6327
924.994	84.5492
926.664	84.7693
928.336	83.5691
930.005	82.9551
931.674	82.5869
933.345	81.4645
935.014	80.4715
936.682	78.3299
938.352	76.4684
940.019	75.02
941.687	73.4865
943.356	72.4079
945.022	71.391
946.689	69.6201
948.357	67.2185
950.022	65.5947
951.688	64.522
953.355	62.6323
955.02	61.4883
956.684	59.9185
958.348	56.6937
960.014	54.0285
961.678	51.7962
963.341	49.6627
965.004	47.3906
966.669	46.3091
968.331	45.171
969.993	44.866
971.655	44.2176
973.316	44.0954
974.979	42.8913
976.64	42.8332
978.3	43.061
979.961	42.5163
981.62	42.372
983.28	42.2982
984.941	42.8002
986.6	43.1596
988.259	43.8775
989.917	44.4201
991.575	44.1917
993.233	45.5916
994.89	44.9433
996.547	47.4537
998.204	47.9392
999.86	48.5135
1001.52	50.3973
1003.17	51.8806
1004.83	52.9165
1006.49	54.0438
1008.14	55.5067
1009.79	56.0203
1011.45	57.0169
1013.1	57.7777
1014.76	59.1514
1016.41	60.0266
1018.06	60.8334
1019.72	61.0297
1021.37	61.8842
1023.02	62.521
1024.67	62.2382
1026.32	62.5552
1027.97	60.8631
1029.62	60.4968
1031.27	59.4225
1032.92	59.1771
1034.57	58.4795
1036.22	57.4339
1037.87	56.7881
1039.52	55.8254
1041.17	55.1001
1042.82	55.1534
1044.47	55.7853
1046.11	55.929
1047.76	55.1126
1049.41	56.2509
1051.06	56.1722
1052.7	57.9648
1054.35	57.5297
1055.99	57.3171
1057.64	55.5228
1059.28	55.498
1060.93	55.703
1062.57	54.3812
1064.22	54.5331
1065.86	54.815
1067.5	55.4839
1069.15	56.2853
1070.79	56.2623
1072.43	57.1015
1074.08	57.8587
1075.72	60.4135
1077.36	60.8306
1079	61.8726
1080.64	62.0447
1082.28	63.8593
1083.92	64.8072
1085.56	65.7147
1087.2	66.036
1088.84	67.6289
1090.48	68.5678
1092.12	70.163
1093.76	72.1094
1095.39	73.3168
1097.03	75.1669
1098.67	75.1069
1100.31	75.6214
1101.94	76.2574
1103.58	76.6099
1105.22	76.6257
1106.85	76.5707
1108.49	76.384
1110.12	76.2155
1111.76	77.2075
1113.39	76.8563
1115.03	77.2065
1116.66	77.0609
1118.29	76.9455
1119.93	76.9277
1121.56	75.691
1123.19	74.9378
1124.82	73.8519
1126.46	73.4887
1128.09	72.6543
1129.72	72.2616
1131.35	72.539
1132.98	70.8115
1134.61	69.3317
1136.24	67.0532
1137.87	65.652
1139.5	63.7262
1141.13	63.39
1142.76	61.7506
1144.39	59.3078
1146.01	59.1874
1147.64	56.9596
1149.27	55.2064
1150.9	52.498
1152.53	49.1565
1154.15	46.186
1155.78	42.778
1157.4	40.1504
1159.03	35.6577
1160.65	32.8223
1162.28	30.3071
1163.9	27.9115
1165.53	25.9186
1167.15	24.475
1168.78	22.3822
1170.4	21.7176
1172.02	20.1547
1173.65	18.6812
1175.27	17.4946
1176.89	15.6484
1178.51	14.4346
1180.14	14.1521
1181.76	14.3401
1183.38	14.0305
1185	13.3447
1186.62	12.7303
1188.24	12.0073
1189.86	11.3756
1191.48	11.9432
1193.1	12.2277
1194.71	11.6959
1196.33	12.2772
1197.95	13.7539
1199.57	14.7876
1201.19	15.8446
1202.8	16.7985
1204.42	18.2476
1206.04	19.2368
1207.65	20.9785
1209.27	23.0445
1210.88	25.1645
1212.5	26.8206
1214.12	28.5863
1215.73	31.4114
1217.35	34.5863
1218.96	36.3534
1220.57	37.897
1222.19	39.7447
1223.8	42.0562
1225.41	43.7823
1227.03	45.6206
1228.64	45.1685
1230.25	46.3338
1231.86	46.6168
1233.47	47.2655
1235.08	48.5709
1236.69	49.3484
1238.31	50.7259
1239.92	51.535
1241.52	53.5462
1243.13	54.4696
1244.74	55.3898
1246.35	55.6902
1247.96	55.1283
1249.57	55.5584
1251.18	55.9278
1252.78	56.2207
1254.39	54.8114
1256	54.0064
1257.6	52.9485
1259.21	53.0109
1260.82	52.6506
1262.42	51.4632
1264.03	50.8074
1265.63	49.3864
1267.24	48.2625
1268.84	48.0008
1270.45	47.4833
1272.05	47.0045
1273.65	46.4686
1275.26	45.9555
1276.86	47.2013
1278.46	47.5022
1280.06	47.1016
1281.67	46.6921
1283.27	46.0589
1284.87	45.7936
1286.47	46.8082
1288.07	48.6956
1289.67	49.6017
1291.27	51.1888
1292.87	53.059
1294.47	54.0152
1296.07	55.335
1297.67	56.7102
1299.27	57.8702
1300.87	60.2384
1302.47	62.6768
1304.06	65.7836
1305.66	68.4776
1307.26	71.5987
1308.85	73.9124
1310.45	77.7884
1312.05	80.6976
1313.64	83.9264
1315.24	87.4626
1316.83	89.0745
1318.43	91.9801
1320.02	93.5593
1321.62	95.6598
1323.21	97.1393
1324.8	98.4885
1326.4	100.122
1327.99	101.757
1329.59	103.809
1331.18	103.259
1332.77	103.967
1334.36	104.323
1335.95	104.639
1337.54	105.234
1339.14	105.412
1340.73	104.482
1342.32	104.338
1343.91	103.59
1345.5	102.433
1347.09	101.694
1348.67	100.837
1350.26	99.0216
1351.85	97.9444
1353.44	96.4161
1355.03	95.041
1356.62	93.4788
1358.2	91.2992
1359.79	88.9521
1361.38	86.6732
1362.96	85.4951
1364.55	85.1099
1366.14	84.5273
1367.72	83.6959
1369.31	82.6757
1370.89	80.8776
1372.48	78.4026
1374.06	76.0476
1375.64	77.6448
1377.23	78.4407
1378.81	79.1876
1380.39	80.1257
1381.98	80.5359
1383.56	80.8843
1385.14	81.6803
1386.72	81.0333
1388.3	80.2964
1389.89	81.1653
1391.47	80.7127
1393.05	80.3375
1394.63	79.2761
1396.21	78.1306
1397.79	77.5096
1399.37	76.3005
1400.95	75.0901
1402.52	74.2057
1404.1	73.24
1405.68	73.6775
1407.26	72.9402
1408.84	72.1405
1410.42	71.112
1411.99	72.0269
1413.57	71.3554
1415.15	71.2463
1416.72	71.4461
1418.3	70.8769
1419.87	70.0079
1421.45	70.7343
1423.02	71.7025
1424.6	71.8858
1426.17	73.1976
1427.75	73.7501
1429.32	74.8503
1430.89	76.7867
1432.47	77.0358
1434.04	79.0061
1435.61	80.0973
1437.18	81.6375
1438.76	82.1859
1440.33	83.9594
1441.9	85.3899
1443.47	86.0601
1445.04	86.3548
1446.61	86.4409
1448.18	86.4617
1449.75	85.7374
1451.32	87.6048
1452.89	88.7903
1454.46	89.7075
1456.03	88.3837
1457.6	87.721
1459.16	86.3901
1460.73	84.7005
1462.3	83.2413
1463.87	81.7015
1465.43	79.5692
1467	77.6934
1468.56	74.9479
1470.13	70.5345
1471.7	66.6419
1473.26	62.3948
1474.83	58.5809
1476.39	54.3823
1477.96	51.0471
1479.52	48.0663
1481.08	45.096
1482.65	41.646
1484.21	39.2728
1485.77	35.972
1487.34	33.0808
1488.9	31.4398
1490.46	29.5474
1492.02	26.9939
1493.58	25.4667
1495.15	23.6852
1496.71	21.3574
1498.27	19.4447
1499.83	19.0416
1501.39	19.238
1502.95	18.4132
1504.51	18.4282
1506.07	18.0453
1507.63	18.1647
1509.18	18.043
1510.74	16.3537
1512.3	16.9418
1513.86	15.8684
1515.41	16.6552
1516.97	16.655
1518.53	17.3754
1520.08	18.1968
1521.64	18.0586
1523.2	19.5238
1524.75	20.5252
1526.31	20.4102
1527.86	21.0814
1529.42	22.1857
1530.97	22.447
1532.52	23.0191
1534.08	24.7151
1535.63	26.06
1537.19	26.8487
1538.74	28.3139
1540.29	29.3493
1541.84	30.0653
1543.4	30.8583
1544.95	31.3565
1546.5	32.0801
1548.05	32.9435
1549.6	34.199
1551.15	34.486
1552.7	35.2993
1554.25	36.5883
1555.8	37.6592
1557.35	38.709
1558.9	39.4923
1560.45	40.7575
1562	42.3335
1563.54	44.0856
1565.09	45.6404
1566.64	46.8755
1568.19	47.7378
1569.73	48.3689
1571.28	49.516
1572.83	50.3822
1574.37	51.1365
1575.92	53.0791
1577.47	55.3889
1579.01	57.1911
1580.56	57.979
1582.1	58.5948
1583.64	60.0879
1585.19	60.8007
1586.73	61.8494
1588.28	62.3789
1589.82	63.5672
1591.36	64.1768
1592.9	65.8586
1594.45	66.6511
1595.99	67.2712
1597.53	67.4034
1599.07	66.5516
1600.61	67.4396
1602.15	66.5071
1603.69	65.9081
1605.23	66.4369
1606.77	66.0169
1608.31	66.0938
1609.85	65.5388
1611.39	65.4007
1612.93	65.1577
1614.47	64.9674
1616.01	64.4726
1617.55	63.664
1619.08	62.3385
1620.62	61.4622
1622.16	61.065
1623.7	60.3763
1625.23	59.4453
1626.77	58.5207
1628.3	57.6365
1629.84	57.3349
1631.37	57.2853
1632.91	57.0386
1634.44	57.2
1635.98	56.4912
1637.51	55.8637
1639.05	56.8218
1640.58	57.5745
1642.11	57.8503
1643.65	58.017
1645.18	58.678
1646.71	58.706
1648.24	59.2263
1649.78	59.6312
1651.31	61.228
1652.84	61.5179
1654.37	61.4706
1655.9	60.9476
1657.43	60.3131
1658.96	59.8018
1660.49	60.1108
1662.02	59.2375
1663.55	58.2728
1665.08	57.1027
1666.61	56.9039
1668.14	56.0243
1669.66	55.6108
1671.19	54.7439
1672.72	53.4205
1674.25	52.0906
1675.77	49.9092
1677.3	49.3891
1678.83	47.8701
1680.35	46.5898
1681.88	44.658
1683.4	43.2097
1684.93	42.0322
1686.45	40.2374
1687.98	38.6061
1689.5	37.1072
1691.03	34.4752
1692.55	32.0894
1694.07	30.3988
1695.6	28.4398
1697.12	26.9694
1698.64	25.2082
1700.17	22.9408
1701.69	21.2201
1703.21	20.2851
1704.73	18.918
1706.25	17.0509
1707.77	16.3427
1709.29	15.6413
1710.81	15.0119
1712.33	13.9299
1713.85	13.5319
1715.37	13.1161
1716.89	11.3172
1718.41	11.3274
1719.93	10.6339
1721.45	9.95273
1722.97	9.63464
1724.49	9.16813
1726	9.43797
1727.52	9.98754
1729.04	8.91897
1730.55	8.8192
1732.07	8.90631
1733.59	9.1097
1735.1	9.32729
1736.62	9.35742
1738.13	9.06211
1739.65	9.5517
1741.16	9.87714
1742.68	9.99528
1744.19	9.7183
1745.7	10.3653
1747.22	10.8283
1748.73	10.3299
1750.24	10.0979
1751.76	9.43086
1753.27	10.0285
1754.78	9.47189
1756.29	9.01604
1757.8	8.82383
1759.31	9.05049
1760.83	9.06712
1762.34	8.75924
1763.85	7.99738
1765.36	7.4365
1766.87	6.62609
1768.38	6.42553
1769.89	5.81759
1771.39	4.70421
1772.9	4.10883
1774.41	3.98147
1775.92	3.82355
1777.43	4.06835
1778.94	3.96936
1780.44	3.38525
1781.95	2.69653
1783.46	3.16917
1784.96	3.034
1786.47	3.08532
1787.97	3.03033
1789.48	2.72471
1790.99	2.7696
1792.49	2.99807
1794	4.00158
1795.5	3.60472
1797	3.58029
1798.51	4.33981
1800.01	4.79463
1801.51	5.60142
1803.02	4.95743
1804.52	4.96939
1806.02	5.2287
1807.53	4.78391
1809.03	4.17606
1810.53	4.23247
1812.03	3.90852
1813.53	3.85245
1815.03	3.61922
1816.53	3.53551
1818.03	3.61807
1819.53	3.82403
1821.03	3.92235
1822.53	3.99894
1824.03	3.56695
1825.53	3.45272
1827.03	3.11648
1828.53	2.78224
1830.02	2.44445
1831.52	2.56969
1833.02	2.83653
1834.52	2.75487
1836.01	2.99616
1837.51	2.55251
1839.01	2.50282
1840.5	2.75338
1842	2.34584
1843.49	2.69735
1844.99	3.29531
1846.48	3.83853
1847.98	4.04749
1849.47	4.70592
1850.97	4.2154
1852.46	4.16746
1853.95	4.51515
1855.45	4.12439
1856.94	4.73833
1858.43	4.96468
1859.93	5.42774
1861.42	5.70707
1862.91	6.10194
1864.4	5.6301
1865.89	5.79919
1867.38	5.96551
1868.87	6.7748
1870.36	6.63808
1871.85	6.69518
1873.34	7.28751
1874.83	6.88373
1876.32	6.09795
1877.81	5.88939
1879.3	6.36662
1880.79	6.28121
1882.28	6.24628
1882.52	6.49987
1884.02	6.27909
1885.51	5.73862
1887.01	6.08529
1888.5	6.51236
1889.99	7.0114
1891.49	6.85071
1892.98	7.47721
1894.47	7.16973
1895.97	6.37552
1897.46	6.39631
1898.95	5.88954
1900.44	5.80727
1901.93	5.62266
1903.42	6.08487
1904.91	6.6289
1906.4	6.24556
1907.89	6.0431
1909.38	5.50314
1910.87	5.17318
1912.36	5.25557
1913.85	4.5993
1915.34	4.11813
1916.83	3.94478
1918.32	3.89832
1919.8	3.74944
1921.29	3.50119
1922.78	3.41275
1924.27	1.96079
1925.75	1.46777
1927.24	1.2622
1928.73	1.12374
1930.21	1.31789
1931.7	0.635739
1933.18	0.579549
1934.67	-0.00703243
1936.15	0.14276
1937.64	0.384859
1939.12	0.504024
1940.61	0.774455
1942.09	1.10268
1943.57	0.828171
1945.06	0.954221
1946.54	1.52572
1948.02	1.59157
1949.51	1.83094
1950.99	2.74055
1952.47	3.45657
1953.95	3.85003
1955.43	4.36583
1956.91	4.75306
1958.4	4.84887
1959.88	5.45465
1961.36	6.08266
1962.84	5.8277
1964.32	6.60511
1965.8	6.94723
1967.27	7.34431
1968.75	6.72957
1970.23	7.2379
1971.71	8.21112
1973.19	7.98921
1974.67	8.1287
1976.14	7.94396
1977.62	9.0664
1979.1	8.83992
1980.58	8.70648
1982.05	8.9535
1983.53	8.09558
1985	8.3823
1986.48	8.64495
1987.95	8.20804
1989.43	8.09943
1990.9	8.21005
1992.38	8.29258
1993.85	8.50671
1995.33	7.42329
1996.8	6.75231
1998.27	6.28946
1999.75	6.73198
2001.22	7.49709
2002.69	7.29679
2004.16	6.25266
2005.64	5.62123
2007.11	5.06633
2008.58	5.36386
2010.05	5.54116
2011.52	5.41073
2012.99	4.79827
2014.46	5.03639
2015.93	5.19197
2017.4	4.82128
2018.87	4.65115
2020.34	4.93874
2021.81	5.35804
2023.28	6.07964
2024.75	6.98387
2026.22	7.37201
2027.69	7.63566
2029.15	7.62704
2030.62	7.66606
2032.09	7.73223
2033.56	8.24066
2035.02	8.39059
2036.49	8.67524
2037.96	9.74585
2039.42	9.76861
2040.89	9.99888
2042.35	10.0465
2043.82	10.4539
2045.28	10.5892
2046.75	10.9967
2048.21	11.6932
2049.67	11.9563
2051.14	12.0462
2052.6	11.6256
2054.07	11.8085
2055.53	11.4478
2056.99	10.9628
2058.45	10.9387
2059.92	10.9097
2061.38	10.2623
2062.84	9.69744
2064.3	9.25501
2065.76	8.78972
2067.22	8.43477
2068.68	7.84209
2070.14	8.29725
2071.6	7.94566
2073.06	7.56827
2074.52	7.08299
2075.98	6.31818
2077.44	5.88209
2078.9	5.53047
2080.36	5.5456
2081.82	5.3467
2083.27	5.21669
2084.73	5.08051
2086.19	4.83592
2087.65	4.73313
2089.1	4.67777
2090.56	4.38813
2092.02	4.57586
2093.47	4.85517
2094.93	5.19565
2096.38	5.17122
2097.84	5.01244
2099.29	5.23623
2100.75	5.22494
2102.2	5.06663
2103.66	5.66662
2105.11	6.19518
2106.56	6.53903
2108.02	6.565
2109.47	7.22364
2110.92	7.38473
2112.38	7.79353
2113.83	7.66161
2115.28	7.32974
2116.73	7.26973
2118.18	7.95032
2119.63	8.17205
2121.09	7.72065
2122.54	7.62773
2123.99	7.70128
2125.44	8.25486
