#Acq. time (s)=	45
#Accumulations=	2
#Range (cm-¹)=	200...3150
#Windows=	2
#Auto scanning=	Off
#Autofocus=	Off
#Macrospot=	Off
#AutoExposure=	Off
#Spike filter=	Multiple accum.
#Delay time (s)=	0
#Binning=	1
#Readout mode=	Signal
#DeNoise=	Off
#ICS correction=	On
#Dark correction=	Off
#Inst. Process=	Off
#Detector Gain=	Best Dynamic Range
#Detector ADC=	20 kHz       
#Detector temperature (°C)=	-69.85
#Instrument=	LabRAM HR Evol
#Detector=	Synapse
#Objective=	x100
#Grating=	600 gr/mm
#ND Filter=	100%
#Laser (nm)=	532 
#Hole=	100.021
#Range=	Auto
#Laser Pol.=	No
#Raman. Pol.=	No
#Laser Pol. (°)=	-0.0007625
#Raman Pol. (°)=	89.9995
#Collection=	Microscope
#StageXY=	Marzhauser
#StageZ=	Marzhauser
#X (µm)=	-5919.9
#Y (µm)=	2831.4
#Z (µm)=	-223.3
#Full time(mm:ss)=	3:18
#Project=	
#Sample=	
#Site=	
#Title=	Thy_20_09_05_2x_45s_532 nm_x100_100%_600 gr_mm
#Remark=	
#Date=	29.06.2022 11:04
#Acquired=	29.06.2022 11:04:58
#Base:Fit=	10.08.2022 09:49:32
#Base:Fit=	10.08.2022 09:49:42
#Base:Fit=	10.08.2022 09:49:53
#Base:Fit=	10.08.2022 09:50:12
#Base:Fit=	10.08.2022 09:50:26
#Base:Fit=	10.08.2022 09:50:30
#Base:Fit=	10.08.2022 09:50:43
#Base:Fit=	10.08.2022 09:52:02
#Base:Fit=	10.08.2022 09:52:12
#Base:Sub=	10.08.2022 09:54:21
#Filter:Polynom=	16.08.2022 10:24:04
#AxisType[0]=Intens
#AxisUnit[0]=Cnt
#AxisType[1]=Spectr
#AxisUnit[1]=1/cm
200.523	-0.554942
202.339	2.70488
204.154	3.98592
205.967	6.83085
207.781	8.49539
209.596	8.87187
211.409	9.34468
213.222	9.84252
215.034	9.69687
216.848	9.91157
218.659	10.9611
220.47	9.94583
222.281	10.8026
224.091	8.30383
225.903	7.25965
227.713	7.52007
229.522	7.21358
231.331	6.84686
233.14	7.05407
234.948	7.61137
236.756	7.62205
238.566	6.48188
240.373	7.1046
242.18	7.47718
243.986	7.36959
245.792	6.37846
247.598	6.07523
249.403	4.67163
251.208	3.48696
253.013	3.09464
254.818	4.37554
256.624	4.01915
258.427	3.69833
260.231	4.28578
262.034	4.27918
263.836	4.51284
265.638	5.04697
267.44	3.33269
269.242	3.97684
271.043	4.82692
272.844	6.06538
274.645	6.08869
276.445	6.7517
278.245	7.39433
280.044	7.39497
281.843	7.54126
283.642	7.19544
285.44	7.05518
287.238	6.65686
289.036	7.09045
290.833	8.19456
292.63	7.44254
294.425	7.8164
296.221	6.86536
298.017	7.55307
299.813	9.71714
301.608	10.4836
303.403	10.3829
305.198	9.46827
306.992	10.2374
308.786	10.6476
310.579	10.2689
312.371	11.2675
314.163	10.3231
315.956	11.278
317.748	11.0557
319.54	11.1212
321.331	10.8879
323.122	10.837
324.911	11.191
326.701	10.8526
328.491	10.3967
330.281	11.6007
332.071	10.9736
333.857	11.0616
335.646	10.4583
337.434	11.2855
339.222	11.2082
341.008	12.6965
342.795	13.3524
344.582	12.6844
346.369	10.8213
348.153	10.4271
349.939	9.70569
351.724	8.60556
353.51	8.67471
355.292	8.49195
357.077	9.0406
358.861	10.5552
360.643	9.92984
362.426	9.81524
364.21	9.68125
365.99	9.02828
367.773	7.90028
369.555	7.76497
371.335	8.20943
373.116	8.46856
374.897	8.2615
376.676	8.12349
378.456	9.00433
380.236	9.92156
382.014	8.56939
383.793	9.87522
385.57	10.6985
387.349	11.7196
389.127	12.3667
390.903	11.8906
392.681	12.0176
394.456	12.7306
396.233	13.9395
398.007	13.8979
399.784	13.7345
401.56	14.2632
403.333	13.5534
405.108	13.2917
406.881	14.06
408.656	15.0787
410.428	14.7305
412.202	15.1466
413.973	15.1052
415.746	15.0698
417.517	14.9018
419.29	15.2048
421.06	14.4315
422.831	14.908
424.601	12.5063
426.37	12.5491
428.141	12.8242
429.909	11.6913
431.679	9.27638
433.447	7.96141
435.216	6.48292
436.983	6.5429
438.75	7.04221
440.519	6.60647
442.285	6.70393
444.052	5.13506
445.818	5.57345
447.583	4.6173
449.349	4.09066
451.114	3.86687
452.878	4.72004
454.643	4.16523
456.407	4.68163
458.169	5.43608
459.934	5.64053
461.696	5.03664
463.458	5.51189
465.222	5.57555
466.983	6.54879
468.744	7.33264
470.507	7.70413
472.267	8.83077
474.027	10.6898
475.787	11.1942
477.548	12.606
479.307	13.3563
481.065	14.8312
482.823	16.4118
484.583	17.8712
486.341	19.0192
488.098	19.8195
489.855	21.4147
491.612	20.6475
493.37	21.6161
495.126	22.7287
496.881	23.5891
498.636	24.5751
500.391	24.9398
502.148	26.1748
503.902	27.5246
505.656	28.0239
507.409	28.8809
509.162	28.9112
510.915	29.2602
512.668	29.2256
514.42	31.8781
516.174	32.0649
517.925	32.1917
519.676	32.4182
521.427	33.2009
523.178	34.2244
524.928	35.0273
526.678	35.1445
528.427	33.6641
530.176	32.9967
531.925	32.3541
533.673	32.4676
535.422	33.3621
537.169	33.5572
538.917	32.401
540.664	32.3861
542.411	30.4037
544.157	28.8284
545.903	27.3038
547.649	27.3199
549.395	25.8414
551.14	25.0313
552.884	23.4535
554.629	22.9059
556.373	22.3194
558.117	21.8406
559.86	20.4847
561.603	20.841
563.346	18.9683
565.089	18.6718
566.831	17.71
568.573	16.9474
570.314	16.1902
572.053	14.2797
573.794	12.532
575.534	10.7018
577.274	10.7395
579.014	9.42804
580.754	10.1311
582.493	10.0857
584.23	9.61126
585.968	9.82865
587.706	9.1915
589.444	9.69066
591.181	9.44631
592.919	8.69252
594.653	8.58252
596.39	8.33653
598.126	7.97766
599.862	8.83688
601.595	9.60275
603.33	8.42596
605.065	8.50741
606.8	8.80118
608.532	9.00721
610.266	8.60259
611.999	7.77928
613.732	7.6875
615.463	8.11373
617.196	8.82043
618.928	9.7018
620.66	10.6939
622.389	12.197
624.12	12.5054
625.851	12.6592
627.58	13.468
629.31	12.2655
631.04	12.1092
632.767	14.0269
634.497	14.7672
636.223	14.9907
637.952	16.2177
639.68	17.3183
641.406	18.0858
643.134	18.5444
644.861	20.2797
646.586	20.9374
648.312	23.0886
650.037	24.2497
651.762	25.4278
653.486	25.2883
655.211	25.0483
656.936	24.6762
658.659	24.9329
660.383	26.3064
662.105	27.2335
663.829	28.6401
665.55	28.9036
667.273	29.9601
668.994	30.8058
670.716	31.5409
672.436	32.6475
674.158	32.7326
675.877	32.8382
677.598	33.5826
679.317	33.8828
681.035	34.3827
682.755	34.6938
684.473	35.1489
686.192	36.6107
687.909	36.2395
689.628	36.0318
691.344	36.7455
693.06	37.4238
694.778	36.5501
696.493	36.5267
698.211	37.3165
699.925	37.2068
701.64	37.3822
703.356	36.9517
705.07	36.8006
706.783	37.3948
708.498	37.4277
710.211	37.1739
711.924	36.7437
713.638	37.3169
715.35	36.6521
717.061	38.0047
718.774	39.7376
720.485	38.9383
722.196	40.8991
723.906	41.1728
725.618	42.0059
727.328	43.6717
729.037	44.8064
730.746	46.2009
732.456	46.3342
734.165	47.0835
735.873	47.3094
737.58	46.2981
739.289	46.351
740.997	47.9845
742.703	49.1872
744.41	52.1808
746.116	53.3899
747.823	54.7333
749.529	55.0803
751.234	56.2784
752.938	57.9534
754.643	58.8275
756.347	60.1302
758.051	60.8398
759.756	61.7057
761.459	62.2855
763.162	61.9783
764.865	62.0731
766.567	61.5205
768.269	61.334
769.97	62.07
771.671	62.3637
773.372	61.6796
775.073	62.5363
776.773	62.4921
778.473	61.1819
780.174	60.7063
781.874	61.4263
783.573	60.9912
785.271	60.6231
786.97	60.7832
788.668	61.8999
790.365	63.3487
792.063	63.7992
793.76	63.7628
795.456	64.1907
797.153	65.6584
798.847	65.653
800.543	64.7645
802.238	65.47
803.933	66.4798
805.628	67.2419
807.322	68.3603
809.017	68.4448
810.71	68.7325
812.404	69.36
814.097	68.6332
815.79	68.8714
817.483	69.1984
819.173	69.7069
820.865	70.7262
822.556	71.2038
824.248	71.6318
825.939	73.0337
827.629	72.9436
829.318	73.6061
831.008	73.3813
832.697	73.1223
834.387	72.7659
836.076	72.6715
837.765	72.4179
839.451	71.7472
841.139	71.2266
842.827	69.094
844.514	68.6059
846.2	66.008
847.886	64.6767
849.573	65.2337
851.259	64.1077
852.943	62.6264
854.629	62.0422
856.314	59.4991
857.997	57.0901
859.682	57.0972
861.366	56.581
863.05	54.2795
864.732	52.7309
866.415	52.5606
868.098	50.953
869.779	50.5479
871.461	49.7317
873.141	48.6994
874.823	46.709
876.505	43.6432
878.184	42.978
879.865	42.14
881.545	42.1899
883.223	40.7483
884.903	40.224
886.581	39.4587
888.26	39.7122
889.937	39.5277
891.616	38.6217
893.294	37.8144
894.97	36.9218
896.648	37.6354
898.323	36.866
900	35.9239
901.675	36.1337
903.351	37.6945
905.026	38.4596
906.701	38.2866
908.375	38.4287
910.05	38.6425
911.723	38.0552
913.398	38.5339
915.07	38.623
916.742	38.6524
918.415	39.0556
920.087	39.3966
921.76	39.9474
923.43	39.7546
925.103	39.5302
926.773	39.5387
928.443	39.277
930.114	38.0328
931.783	38.7064
933.454	37.7962
935.123	35.8321
936.791	35.5001
938.461	35.2955
940.128	34.1589
941.796	34.1323
943.464	33.2393
945.131	29.7011
946.797	27.9044
948.465	26.9959
950.131	28.6898
951.797	28.6583
953.462	28.646
955.128	28.0609
956.793	25.9743
958.457	24.6201
960.121	22.7169
961.786	23.3818
963.45	23.7686
965.113	24.6422
966.775	25.0652
968.44	25.8749
970.102	25.6453
971.763	27.0348
973.425	26.1925
975.086	26.118
976.748	26.0747
978.409	26.7213
980.069	26.9506
981.729	26.1935
983.388	25.9014
985.048	27.6451
986.708	27.4657
988.367	26.7786
990.025	26.6152
991.683	26.9724
993.341	26.2673
994.998	26.273
996.655	26.1192
998.312	25.8763
999.969	25.6548
1001.62	24.4448
1003.28	24.0634
1004.94	23.8956
1006.59	23.4969
1008.25	22.9673
1009.9	22.3603
1011.56	21.2221
1013.21	20.3906
1014.86	19.502
1016.52	18.8351
1018.17	18.1788
1019.82	18.086
1021.48	15.8783
1023.13	13.8659
1024.78	12.58
1026.43	11.2335
1028.08	10.7266
1029.73	11.4333
1031.38	10.1634
1033.03	10.494
1034.68	8.50113
1036.33	7.71847
1037.98	6.48408
1039.63	4.32484
1041.28	5.0289
1042.93	5.82921
1044.57	7.46269
1046.22	8.79983
1047.87	8.8337
1049.52	8.66018
1051.16	8.12903
1052.81	7.00491
1054.45	7.20132
1056.1	7.06404
1057.75	6.82378
1059.39	6.60949
1061.04	6.53999
1062.68	6.32199
1064.32	6.36808
1065.97	6.38187
1067.61	7.55499
1069.25	7.73145
1070.9	7.77314
1072.54	7.16315
1074.18	7.10265
1075.82	7.09489
1077.47	7.56698
1079.11	7.57502
1080.75	7.99789
1082.39	8.60933
1084.03	9.24961
1085.67	10.295
1087.31	10.7015
1088.95	11.2958
1090.59	11.4973
1092.22	10.8404
1093.86	10.6806
1095.5	10.8749
1097.14	13.6993
1098.78	15.6381
1100.41	15.8201
1102.05	16.3502
1103.69	16.4532
1105.32	16.5642
1106.96	17.4016
1108.59	17.7756
1110.23	17.8242
1111.86	18.0513
1113.5	18.7777
1115.13	18.6704
1116.77	18.8448
1118.4	19.7215
1120.03	18.3397
1121.67	18.1005
1123.3	19.0953
1124.93	19.5285
1126.56	19.8327
1128.19	18.9541
1129.83	18.709
1131.46	18.5711
1133.09	19.3513
1134.72	18.4638
1136.35	18.4756
1137.98	18.446
1139.61	18.3958
1141.24	19.3261
1142.86	18.6552
1144.49	18.1683
1146.12	17.7514
1147.75	16.7428
1149.38	16.2742
1151	16.29
1152.63	15.2816
1154.26	15.1475
1155.88	14.8042
1157.51	14.3692
1159.14	14.0481
1160.76	13.22
1162.39	12.5172
1164.01	12.0238
1165.63	11.0599
1167.26	10.7451
1168.88	11.4329
1170.51	11.901
1172.13	12.5694
1173.75	13.2862
1175.38	14.5464
1177	15.1998
1178.62	17.1551
1180.24	16.1863
1181.86	15.1003
1183.48	15.33
1185.1	15.2259
1186.72	14.7506
1188.34	14.5356
1189.96	14.5207
1191.58	13.6952
1193.2	13.9955
1194.82	13.8476
1196.44	13.4127
1198.06	15.1053
1199.68	16.2869
1201.29	17.1276
1202.91	19.8368
1204.53	21.5666
1206.14	23.2631
1207.76	25.3018
1209.38	28.0521
1210.99	31.9325
1212.61	33.845
1214.22	36.9958
1215.84	38.98
1217.45	41.9845
1219.07	44.8054
1220.68	47.8551
1222.29	50.8866
1223.91	53.6303
1225.52	56.9496
1227.13	59.6596
1228.74	62.0542
1230.36	65.3622
1231.97	68.3919
1233.58	70.4664
1235.19	73.1473
1236.8	75.4668
1238.41	77.1696
1240.02	79.0239
1241.63	81.0577
1243.24	82.8905
1244.85	85.6014
1246.46	88.0073
1248.07	89.2602
1249.67	90.9979
1251.28	92.13
1252.89	93.3247
1254.5	92.9261
1256.1	93.0334
1257.71	94.4204
1259.32	96.2768
1260.92	95.3113
1262.53	95.3391
1264.13	97.0271
1265.74	97.5597
1267.34	98.1028
1268.95	99.0771
1270.55	101.226
1272.15	102.105
1273.76	103.967
1275.36	105.126
1276.97	107.27
1278.57	110.093
1280.17	112.959
1281.77	116.131
1283.37	119.176
1284.97	121.352
1286.58	124.663
1288.18	127.551
1289.78	129.412
1291.38	130.608
1292.98	132.195
1294.58	135.51
1296.18	137.614
1297.78	139.53
1299.37	141.889
1300.97	145.678
1302.57	147.556
1304.17	149.895
1305.77	152.344
1307.36	154.098
1308.96	157.271
1310.55	159.917
1312.15	161.338
1313.75	162.541
1315.34	163.958
1316.94	165.515
1318.53	166.227
1320.13	168.722
1321.72	169.26
1323.32	168.668
1324.91	169.455
1326.5	169.288
1328.1	168.976
1329.69	168.983
1331.28	169.299
1332.87	168.945
1334.47	168.507
1336.06	168.546
1337.65	168.042
1339.24	167.923
1340.83	167.098
1342.42	167.068
1344.01	167.132
1345.6	166.283
1347.19	164.218
1348.78	162.889
1350.37	160.742
1351.96	159.207
1353.54	156.611
1355.13	155.601
1356.72	154.792
1358.31	152.688
1359.89	152.056
1361.48	149.152
1363.07	144.625
1364.65	142.174
1366.24	140.384
1367.82	137.927
1369.41	136.742
1370.99	135.529
1372.58	133.428
1374.16	132.22
1375.75	130.336
1377.33	129.119
1378.91	127.345
1380.5	125.573
1382.08	123.24
1383.66	122.583
1385.25	120.568
1386.83	118.769
1388.41	117.242
1389.99	115.067
1391.57	112.965
1393.15	112.051
1394.73	111.285
1396.31	108.717
1397.89	107.133
1399.47	106.15
1401.05	104.285
1402.63	103.561
1404.21	105.457
1405.78	105.2
1407.36	105.568
1408.94	105.742
1410.52	107.3
1412.1	107.993
1413.67	108.238
1415.25	110.139
1416.82	112.492
1418.4	114.865
1419.98	115.688
1421.55	117.483
1423.13	120.676
1424.7	122.781
1426.28	123.787
1427.85	127.194
1429.42	129.629
1431	133.694
1432.57	136.238
1434.14	140.129
1435.71	140.883
1437.29	142.222
1438.86	145.683
1440.43	146.741
1442	148.536
1443.57	151.538
1445.14	154.147
1446.71	154.952
1448.28	155.484
1449.85	154.048
1451.42	152.866
1452.99	153.688
1454.56	151.277
1456.13	149.483
1457.7	146.189
1459.26	144.418
1460.83	142.075
1462.4	139.874
1463.97	136.563
1465.54	133.951
1467.1	130.736
1468.67	128.032
1470.23	124.154
1471.8	120.229
1473.36	116.913
1474.93	113.654
1476.49	111.306
1478.06	108.661
1479.62	105.505
1481.19	101.842
1482.75	99.3019
1484.31	96.3047
1485.88	94.1453
1487.44	91.7022
1489	89.599
1490.56	88.0531
1492.13	86.7837
1493.69	85.6667
1495.25	83.8481
1496.81	82.2275
1498.37	81.9266
1499.93	81.9463
1501.49	81.2738
1503.05	79.9386
1504.61	80.755
1506.17	80.2144
1507.73	80.4063
1509.28	81.7808
1510.84	81.3683
1512.4	80.2842
1513.96	81.0765
1515.52	83.4036
1517.07	84.5863
1518.63	85.7897
1520.19	86.5463
1521.74	87.3235
1523.3	88.6186
1524.85	89.9419
1526.41	90.4444
1527.96	90.9729
1529.52	93.1284
1531.07	94.6233
1532.63	94.4491
1534.18	96.8015
1535.73	98.3611
1537.29	100.814
1538.84	102.18
1540.39	106.262
1541.94	107.816
1543.5	111.225
1545.05	113.038
1546.6	115.519
1548.15	118.388
1549.7	121.61
1551.25	126.013
1552.8	128.978
1554.35	132.906
1555.9	137.02
1557.45	140.707
1559	144.608
1560.55	148.138
1562.1	152.606
1563.65	155.558
1565.19	159.585
1566.74	163.798
1568.29	166.322
1569.83	168.909
1571.38	171.991
1572.93	175.821
1574.47	179.953
1576.02	182.829
1577.56	184.542
1579.11	187.42
1580.66	189.661
1582.2	192.594
1583.74	193.411
1585.29	195.785
1586.83	196.797
1588.38	197.013
1589.92	198.109
1591.46	199.079
1593.01	197.359
1594.55	196.021
1596.09	195.307
1597.63	193.639
1599.17	193.28
1600.71	191.944
1602.25	190.866
1603.79	187.361
1605.34	185.343
1606.88	182.945
1608.41	180.551
1609.95	178.629
1611.49	176.718
1613.03	174.051
1614.57	170.985
1616.11	168.68
1617.65	166.501
1619.18	162.229
1620.72	160.592
1622.26	157.794
1623.79	155.935
1625.33	153.636
1626.87	152.085
1628.4	151.848
1629.94	151.017
1631.48	150.512
1633.01	149.135
1634.55	148.185
1636.08	147.521
1637.61	146.418
1639.15	147.112
1640.68	146.198
1642.21	146.123
1643.75	144.764
1645.28	143.651
1646.81	143.095
1648.34	142.877
1649.88	140.959
1651.41	139.741
1652.94	137.301
1654.47	135.094
1656	134.372
1657.53	133.125
1659.06	131.437
1660.59	128.858
1662.12	125.988
1663.65	123.328
1665.18	120.869
1666.71	117.198
1668.24	114.405
1669.76	111.454
1671.29	108.593
1672.82	106.971
1674.35	104.57
1675.87	101.485
1677.4	97.8686
1678.93	95.6046
1680.45	91.7986
1681.98	88.8581
1683.5	85.2579
1685.03	82.6492
1686.55	79.1497
1688.08	74.4729
1689.6	70.1642
1691.13	66.8939
1692.65	63.9073
1694.17	59.9876
1695.7	57.1463
1697.22	54.8425
1698.74	51.904
1700.27	49.1627
1701.79	47.4796
1703.31	46.0404
1704.83	44.3729
1706.35	42.4108
1707.87	40.6969
1709.39	39.3506
1710.91	37.9202
1712.43	36.5838
1713.95	34.4357
1715.47	32.9661
1716.99	30.6898
1718.51	29.0572
1720.03	27.4655
1721.55	26.4464
1723.07	24.9634
1724.58	24.0397
1726.1	22.4367
1727.62	21.7121
1729.13	20.6238
1730.65	19.4709
1732.17	20.3001
1733.68	19.41
1735.2	17.858
1736.72	17.2083
1738.23	17.3126
1739.74	17.0612
1741.26	16.7636
1742.77	16.526
1744.29	16.8663
1745.8	16.2534
1747.32	16.2743
1748.83	16.7148
1750.34	16.1357
1751.85	16.0287
1753.37	15.9439
1754.88	16.1022
1756.39	15.0816
1757.9	14.7401
1759.41	13.8857
1760.92	13.3709
1762.44	12.2584
1763.95	11.7112
1765.46	11.5155
1766.96	11.3717
1768.47	10.8204
1769.98	10.0915
1771.49	10.9407
1773	10.7802
1774.51	10.075
1776.02	8.98418
1777.53	8.52809
1779.03	8.22107
1780.54	9.08847
1782.05	9.11821
1783.55	9.037
1785.06	8.615
1786.57	8.1623
1788.07	8.22834
1789.58	8.1327
1791.08	7.29759
1792.59	6.80539
1794.09	6.29335
1795.6	6.26471
1797.1	6.26907
1798.61	5.85044
1800.11	5.19345
1801.61	5.40677
1803.12	6.11025
1804.62	6.16985
1806.12	6.35312
1807.62	7.06274
1809.12	7.32987
1810.63	7.61276
1812.13	8.363
1813.63	8.78893
1815.13	8.96676
1816.63	10.1416
1818.13	10.0646
1819.63	10.8563
1821.13	11.4336
1822.63	11.5905
1824.13	11.4705
1825.63	11.9272
1827.13	11.806
1828.62	12.351
1830.12	13.1775
1831.62	12.88
1833.12	13.6564
1834.61	13.5177
1836.11	13.4898
1837.61	14.2306
1839.1	14.2576
1840.6	14.2554
1842.09	13.6601
1843.59	14.303
1845.09	13.2731
1846.58	12.6622
1848.08	11.2061
1849.57	9.68646
1851.06	9.5222
1852.56	10.0267
1854.05	9.39186
1855.54	9.87299
1857.04	9.05023
1858.53	7.34202
1860.02	5.81007
1861.51	4.49137
1863.01	3.98942
1864.5	3.66095
1865.99	2.88289
1867.48	3.10387
1868.97	2.63322
1870.46	3.21875
1871.95	3.06597
1873.44	3.35926
1874.93	3.41681
1876.42	4.19313
1877.91	4.11264
1879.4	3.47206
1880.89	3.87156
1882.37	3.50857
1882.46	4.02579
1883.95	3.9697
1885.45	3.72891
1886.94	3.34036
1888.43	4.42522
1889.93	4.65872
1891.42	4.86898
1892.91	5.75933
1894.41	5.66881
1895.9	6.32507
1897.39	7.11835
1898.88	7.31694
1900.37	7.46446
1901.86	8.65257
1903.36	8.68916
1904.85	9.17742
1906.34	9.31075
1907.83	10.1802
1909.32	10.9014
1910.81	12.1478
1912.29	11.4783
1913.78	11.8097
1915.27	11.161
1916.76	11.1867
1918.25	10.4491
1919.74	10.4616
1921.23	11.1389
1922.71	10.9015
1924.2	11.6623
1925.69	12.3479
1927.17	11.4871
1928.66	11.5714
1930.15	11.0678
1931.63	10.2382
1933.12	10.9205
1934.6	12.2022
1936.09	13.4028
1937.57	13.597
1939.06	14.5579
1940.54	16.0398
1942.02	16.2588
1943.51	16.9018
1944.99	16.8687
1946.47	17.8026
1947.96	16.8345
1949.44	17.0151
1950.92	16.4851
1952.4	16.4461
1953.88	16.41
1955.37	14.9269
1956.85	15.2005
1958.33	15.4364
1959.81	15.2697
1961.29	15.3142
1962.77	16.2512
1964.25	16.3254
1965.73	16.3127
1967.21	16.2511
1968.69	16.1361
1970.16	15.2554
1971.64	14.4166
1973.12	13.7812
1974.6	13.9137
1976.08	14.5576
1977.55	14.6198
1979.03	14.711
1980.51	14.6577
1981.98	14.3082
1983.46	13.7575
1984.94	12.7798
1986.41	12.1745
1987.89	11.6415
1989.36	10.3215
1990.84	9.69518
1992.31	9.22684
1993.79	8.33572
1995.26	8.22991
1996.73	7.04017
1998.21	7.55258
1999.68	6.76072
2001.15	5.83885
2002.63	6.51562
2004.1	6.12352
2005.57	6.43359
2007.04	6.94681
2008.51	7.90112
2009.99	7.68696
2011.46	7.68965
2012.93	7.8708
2014.4	7.83747
2015.87	7.12788
2017.34	7.47187
2018.81	7.39183
2020.28	7.14566
2021.75	6.30316
2023.21	7.03745
2024.68	7.75333
2026.15	8.38189
2027.62	8.99525
2029.09	9.26721
2030.56	11.3005
2032.02	11.8519
2033.49	12.1419
2034.96	12.4514
2036.42	13.4136
2037.89	13.8967
2039.36	13.6318
2040.82	13.334
2042.29	12.9947
2043.75	12.9648
2045.22	13.9044
2046.68	14.289
2048.14	14.9429
2049.61	15.9969
2051.07	16.1587
2052.54	16.4623
2054	16.463
2055.46	16.5513
2056.93	17.164
2058.39	16.835
2059.85	17.5264
2061.31	17.5629
2062.77	17.4463
2064.23	17.913
2065.7	17.8354
2067.16	17.7546
2068.62	17.9159
2070.08	18.5631
2071.54	19.2029
2073	19.1759
2074.46	19.7301
2075.92	19.0393
2077.38	17.9786
2078.83	19.1698
2080.29	18.3668
2081.75	18.3641
2083.21	17.7191
2084.67	18.2654
2086.12	19.1781
2087.58	19.3701
2089.04	19.4984
2090.49	20.271
2091.95	19.6663
2093.41	19.6589
2094.86	19.8944
2096.32	20.4006
2097.77	21.3885
2099.23	21.5748
2100.68	20.9803
2102.14	20.4516
2103.59	21.5153
2105.05	21.0639
2106.5	21.1942
2107.95	20.9336
2109.41	21.165
2110.86	21.0022
2112.31	20.9097
2113.76	21.7967
