#Acq. time (s)=	45
#Accumulations=	2
#Range (cm-¹)=	200...3150
#Windows=	2
#Auto scanning=	Off
#Autofocus=	Off
#Macrospot=	Off
#AutoExposure=	Off
#Spike filter=	Multiple accum.
#Delay time (s)=	0
#Binning=	1
#Readout mode=	Signal
#DeNoise=	Off
#ICS correction=	On
#Dark correction=	Off
#Inst. Process=	Off
#Detector Gain=	Best Dynamic Range
#Detector ADC=	20 kHz       
#Detector temperature (°C)=	-69.85
#Instrument=	LabRAM HR Evol
#Detector=	Synapse
#Objective=	x100
#Grating=	600 gr/mm
#ND Filter=	100%
#Laser (nm)=	532 
#Hole=	100.021
#Range=	Auto
#Laser Pol.=	No
#Raman. Pol.=	No
#Laser Pol. (°)=	-0.0007625
#Raman Pol. (°)=	89.9995
#Collection=	Microscope
#StageXY=	Marzhauser
#StageZ=	Marzhauser
#X (µm)=	2163.1
#Y (µm)=	1244.8
#Z (µm)=	442.15
#Full time(mm:ss)=	3:18
#Project=	
#Sample=	
#Site=	
#Title=	Thy_10_08_05_2x_45s_532 nm_x100_100%_600 gr_mm
#Remark=	
#Date=	05.07.2022 14:33
#Acquired=	05.07.2022 14:33:02
#Base:Fit=	10.08.2022 09:45:33
#Base:Fit=	10.08.2022 09:46:03
#Base:Fit=	10.08.2022 09:46:25
#Base:Sub=	10.08.2022 09:46:49
#Filter:Polynom=	16.08.2022 10:24:56
#AxisType[0]=Intens
#AxisUnit[0]=Cnt
#AxisType[1]=Spectr
#AxisUnit[1]=1/cm
200.43	24.4189
202.244	24.6983
204.059	23.5069
205.873	22.5893
207.688	21.3609
209.501	19.9418
211.314	18.4686
213.127	17.4888
214.941	15.9674
216.753	14.3689
218.564	13.0566
220.375	12.0545
222.186	10.5704
223.999	10.4624
225.809	8.42146
227.618	6.04909
229.428	5.61746
231.236	5.07162
233.045	4.57513
234.855	4.59846
236.663	4.1897
238.471	4.44038
240.278	4.00328
242.085	4.44273
243.891	4.86391
245.698	3.54854
247.503	3.3134
249.309	3.21972
251.116	3.44253
252.921	2.60204
254.725	2.1234
256.529	2.63349
258.333	3.13431
260.136	3.65185
261.939	4.31533
263.742	4.15037
265.544	4.46865
267.346	6.19821
269.148	7.49669
270.949	7.27845
272.75	6.96509
274.55	7.29964
276.351	8.26318
278.15	8.67126
279.95	9.95778
281.749	10.0892
283.548	9.22612
285.346	9.3035
287.144	9.7937
288.942	9.55155
290.739	10.2332
292.536	11.1008
294.333	10.947
296.129	10.9819
297.925	10.8964
299.721	11.9099
301.514	12.1236
303.309	13.1512
305.104	12.5316
306.898	13.2127
308.692	13.8338
310.486	14.0558
312.279	12.963
314.072	12.5089
315.862	10.868
317.654	12.0115
319.446	13.6386
321.238	14.0009
323.029	14.1675
324.819	13.9688
326.608	13.6598
328.398	12.8799
330.188	12.3479
331.977	12.703
333.766	12.8143
335.553	10.8472
337.341	11.1787
339.129	11.5491
340.917	12.2285
342.704	12.8461
344.489	12.9888
346.275	13.6579
348.062	13.2836
349.845	13.0808
351.631	13.2794
353.416	12.0802
355.201	12.0885
356.984	13.2134
358.768	11.7198
360.552	10.1291
362.333	9.79678
364.116	9.83442
365.899	10.0723
367.68	9.33372
369.462	9.54506
371.243	8.63328
373.023	8.12333
374.804	8.13324
376.585	8.79823
378.363	8.13742
380.143	8.4685
381.923	7.73704
383.7	7.37282
385.479	7.9288
387.256	7.78282
389.034	9.40346
390.812	8.47626
392.588	7.82927
394.365	6.88506
396.14	6.6459
397.916	6.15002
399.691	4.92014
401.467	3.29675
403.24	2.81968
405.015	2.67616
406.788	3.5698
408.563	3.18551
410.335	3.20702
412.109	2.54853
413.88	1.7792
415.654	1.77476
417.424	1.27845
419.197	1.3861
420.967	1.35087
422.739	1.59832
424.508	0.756184
426.279	3.13802
428.048	4.03933
429.819	4.20322
431.587	4.38095
433.356	4.0782
435.124	4.89666
436.891	4.18528
438.66	4.94172
440.426	5.24141
442.194	4.94427
443.96	5.10434
445.725	5.2605
447.492	4.72657
449.257	4.89029
451.021	4.92686
452.787	4.82693
454.551	4.39885
456.314	4.27147
458.079	3.88475
459.842	3.46769
461.604	4.04784
463.368	4.61756
465.13	5.39437
466.891	4.54073
468.654	4.35248
470.415	5.47099
472.175	6.7204
473.935	6.9446
475.696	7.20661
477.456	6.95848
479.215	6.39798
480.973	7.06681
482.733	8.42703
484.491	7.94983
486.249	8.74114
488.006	8.3486
489.765	8.26087
491.522	8.85831
493.278	11.2757
495.034	12.7399
496.789	14.3814
498.544	14.8134
500.301	14.4696
502.056	14.5613
503.81	15.1554
505.564	15.2288
507.317	16.0725
509.071	18.3557
510.825	19.9174
512.578	20.7047
514.33	20.3669
516.082	19.9258
517.833	21.175
519.585	21.8382
521.335	22.3733
523.086	23.208
524.836	23.0248
526.586	23.9982
528.335	24.0514
530.085	22.7686
531.835	22.5095
533.584	22.9058
535.332	23.0581
537.08	22.4513
538.827	22.2688
540.574	21.3388
542.321	20.6534
544.068	19.6386
545.814	18.6435
547.56	19.3088
549.305	18.8413
551.05	18.09
552.795	18.3482
554.54	18.3558
556.282	19.0334
558.025	19.7152
559.769	19.989
561.512	19.8637
563.255	19.0508
564.997	18.5963
566.739	19.3585
568.481	18.5315
570.223	17.6004
571.964	15.7254
573.705	16.2032
575.443	15.0232
577.183	14.8761
578.923	14.8743
580.663	15.2134
582.402	14.7141
584.141	14.1581
585.879	12.2462
587.615	11.4869
589.353	11.461
591.09	11.4126
592.828	10.9031
594.564	10.8643
596.299	10.8688
598.035	9.76527
599.771	9.18654
601.506	9.36695
603.242	11.2778
604.974	11.728
606.709	11.0334
608.443	11.6135
610.177	11.6004
611.908	10.7883
613.642	10.2415
615.374	9.99196
617.105	9.33148
618.837	9.63391
620.569	10.2735
622.3	10.4773
624.03	9.95174
625.761	10.4497
627.491	10.0601
629.219	11.2875
630.949	11.2669
632.677	12.4993
634.406	14.1938
636.135	14.7373
637.861	15.5158
639.59	17.1542
641.318	17.4131
643.043	17.9292
644.77	18.5831
646.495	19.2891
648.222	18.1332
649.948	18.6304
651.672	19.0693
653.398	18.8636
655.121	18.7485
656.846	18.8632
658.569	20.0169
660.293	19.7363
662.015	19.7848
663.738	20.0782
665.46	20.074
667.183	21.7569
668.903	22.5129
670.626	22.2371
672.346	23.5415
674.067	24.1963
675.787	24.7132
677.508	25.9679
679.226	26.8402
680.947	26.9071
682.665	28.1794
684.385	29.2235
686.102	29.6461
687.821	30.4401
689.538	30.3612
691.254	30.2628
692.972	30.7729
694.688	32.3597
696.406	32.8638
698.121	33.4143
699.835	33.4074
701.552	34.7409
703.266	35.105
704.98	36.1659
706.695	37.3178
708.409	38.9273
710.121	39.2131
711.836	41.504
713.548	41.7098
715.26	42.5027
716.973	42.3768
718.685	43.4441
720.396	44.2729
722.108	45.1718
723.818	45.6646
725.528	46.0342
727.238	45.4692
728.949	46.9868
730.658	48.3414
732.367	48.3895
734.075	48.8038
735.785	50.3689
737.493	49.5419
739.2	49.3775
740.907	50.2724
742.614	50.486
744.322	51.752
746.028	52.2358
747.734	54.8219
749.439	55.5097
751.144	56.7637
752.849	58.4358
754.555	59.3328
756.26	59.9076
757.963	61.1539
759.667	61.0544
761.37	63.0646
763.073	64.1662
764.775	64.7098
766.477	64.8136
768.179	66.4517
769.883	67.1799
771.584	67.7363
773.285	69.0828
774.986	69.6169
776.686	70.2096
778.386	71.1263
780.085	72.4896
781.785	72.4974
783.484	73.5723
785.182	74.301
786.881	75.4028
788.579	76.1771
790.276	77.2594
791.974	78.0248
793.671	78.5194
795.367	78.4517
797.064	79.7291
798.76	78.3952
800.456	80.125
802.151	80.7773
803.846	82.0197
805.541	82.1647
807.234	82.4377
808.928	81.3792
810.622	81.6884
812.315	82.4567
814.008	84.0208
815.701	84.0376
817.394	82.8276
819.086	83.4946
820.778	83.7695
822.468	83.4605
824.159	83.919
825.85	84.9367
827.541	86.1895
829.231	87.16
830.921	86.706
832.609	86.9685
834.298	86.0463
835.987	85.0471
837.676	85.1477
839.364	84.939
841.051	84.1043
842.738	83.9791
844.426	84.2456
846.113	84.5376
847.798	84.4658
849.484	83.9457
851.171	82.5599
852.857	81.4907
854.54	80.0131
856.226	78.6306
857.911	76.7262
859.593	74.8925
861.278	73.4013
862.961	72.6341
864.645	71.2788
866.327	70.1
868.01	68.755
869.692	67.2772
871.373	65.1592
873.055	64.4348
874.735	62.9134
876.416	60.7338
878.097	59.2292
879.776	59.0835
881.457	58.4475
883.135	56.5894
884.815	55.8058
886.495	54.3217
888.172	54.0994
889.851	52.3518
891.528	51.523
893.206	51.3851
894.882	50.6425
896.56	50.0882
898.237	50.4141
899.912	50.1538
901.589	50.1412
903.263	49.6493
904.94	49.3117
906.614	49.6376
908.289	50.1033
909.962	50.6893
911.635	49.927
913.31	48.9424
914.982	48.3919
916.656	48.2066
918.328	46.8355
920.001	47.5034
921.672	50.2808
923.345	51.0906
925.015	52.0043
926.685	51.4783
928.357	51.7726
930.026	51.7716
931.698	51.7245
933.366	50.865
935.035	51.1898
936.705	50.6754
938.373	50.4435
940.041	50.4739
941.71	49.4774
943.377	48.8697
945.044	47.8267
946.712	47.0398
948.378	46.636
950.044	47.1964
951.709	47.1093
953.376	47.4952
955.041	47.0607
956.706	46.2233
958.372	43.1445
960.036	40.7518
961.699	40.8807
963.362	41.1977
965.027	41.4103
966.69	43.1065
968.352	44.1017
970.014	47.0418
971.676	48.4481
973.339	49.3059
975	50.8947
976.661	52.7637
978.322	53.9494
979.982	56.1524
981.642	57.846
983.303	58.9232
984.962	59.3386
986.621	59.077
988.28	59.9326
989.938	59.8316
991.596	59.1826
993.254	59.2685
994.911	58.8146
996.57	59.7368
998.227	59.4358
999.884	58.5593
1001.54	59.1894
1003.2	59.658
1004.85	59.8302
1006.51	58.7501
1008.16	58.1823
1009.82	56.9606
1011.47	56.3172
1013.12	55.4241
1014.78	53.8265
1016.43	52.457
1018.08	50.0477
1019.74	48.0161
1021.39	47.6165
1023.04	46.3738
1024.69	44.5602
1026.34	43.9265
1028	41.9261
1029.65	40.7649
1031.3	39.4064
1032.95	37.3913
1034.6	36.0625
1036.25	33.5301
1037.9	31.1031
1039.54	27.5066
1041.19	25.8776
1042.84	27.3713
1044.49	28.189
1046.14	28.193
1047.78	29.5328
1049.43	30.1262
1051.08	29.5387
1052.72	29.7216
1054.37	29.6226
1056.02	28.8186
1057.66	28.5264
1059.31	28.3457
1060.95	27.1518
1062.6	26.8556
1064.24	26.3655
1065.88	25.578
1067.53	24.7265
1069.17	23.9083
1070.81	23.1653
1072.45	23.0013
1074.1	22.5839
1075.74	22.6446
1077.38	22.2759
1079.02	21.4865
1080.66	21.6696
1082.3	21.8169
1083.94	21.5782
1085.58	20.9603
1087.22	21.4374
1088.86	21.5376
1090.5	21.7697
1092.14	21.1085
1093.78	20.6906
1095.42	20.7075
1097.05	20.7737
1098.69	22.0902
1100.33	23.013
1101.96	24.0304
1103.6	24.8944
1105.24	24.4336
1106.87	25.2824
1108.51	25.6814
1110.14	24.5085
1111.78	24.4208
1113.41	24.0847
1115.05	23.1963
1116.68	23.9078
1118.31	21.9372
1119.95	20.302
1121.58	19.7466
1123.21	20.082
1124.85	19.2524
1126.48	18.316
1128.11	17.633
1129.74	16.8135
1131.37	14.6647
1133	13.2065
1134.63	12.6872
1136.26	11.9262
1137.89	10.2201
1139.52	9.93457
1141.15	9.9607
1142.78	10.125
1144.41	10.4854
1146.04	9.89847
1147.66	9.65625
1149.29	9.41245
1150.92	9.88503
1152.55	9.7846
1154.17	9.3733
1155.8	7.99058
1157.43	7.93615
1159.05	7.13652
1160.68	6.32224
1162.3	6.70638
1163.93	5.31121
1165.55	4.08819
1167.17	4.89188
1168.8	5.90274
1170.42	6.56316
1172.05	7.11097
1173.67	6.74928
1175.29	6.6055
1176.91	8.03476
1178.54	9.34305
1180.16	10.6959
1181.78	10.6931
1183.4	10.907
1185.02	11.8904
1186.64	13.9633
1188.26	16.0024
1189.88	16.7408
1191.5	16.5907
1193.12	17.2003
1194.74	19.1284
1196.36	21.44
1197.97	23.4449
1199.59	23.954
1201.21	25.1071
1202.83	28.0456
1204.44	28.9867
1206.06	30.7836
1207.68	32
1209.29	32.3635
1210.91	34.9625
1212.52	36.5692
1214.14	40.0339
1215.75	43.1965
1217.37	45.0702
1218.98	47.6797
1220.59	51.6612
1222.21	55.8726
1223.82	58.0769
1225.43	59.8326
1227.05	62.0479
1228.66	63.9395
1230.27	65.8024
1231.88	67.8022
1233.49	67.7572
1235.1	68.0236
1236.72	67.8848
1238.33	69.5276
1239.94	71.3224
1241.55	72.3206
1243.16	73.4214
1244.76	74.5865
1246.37	75.0961
1247.98	75.6023
1249.59	75.1922
1251.2	74.6417
1252.8	74.2566
1254.41	73.4998
1256.02	73.6919
1257.62	74.4572
1259.23	74.0192
1260.84	73.205
1262.44	72.5557
1264.05	73.0364
1265.66	73.5089
1267.26	74.9846
1268.86	74.3731
1270.47	74.0449
1272.07	74.2008
1273.67	74.6956
1275.28	75.137
1276.88	74.9921
1278.48	74.0398
1280.09	73.9162
1281.69	74.7842
1283.29	75.2344
1284.89	74.6251
1286.49	75.5223
1288.09	75.1627
1289.69	76.9693
1291.29	78.6149
1292.89	79.8284
1294.49	81.3716
1296.09	82.0739
1297.69	84.0081
1299.29	86.2902
1300.89	88.6656
1302.49	89.4221
1304.08	89.9985
1305.68	91.8637
1307.28	93.4205
1308.88	95.8117
1310.47	97.4205
1312.07	97.913
1313.66	99.0068
1315.26	99.5783
1316.85	100.74
1318.45	102.851
1320.04	103.663
1321.64	103.966
1323.23	104.605
1324.83	105.274
1326.42	104.389
1328.01	103.606
1329.61	102.905
1331.2	102.252
1332.79	102.24
1334.38	101.594
1335.97	102.21
1337.56	102.045
1339.16	101.19
1340.75	100.059
1342.34	99.3525
1343.93	98.2677
1345.52	96.4931
1347.11	94.9668
1348.7	92.2828
1350.29	90.6939
1351.87	88.6165
1353.46	85.2017
1355.05	82.1805
1356.64	80.0053
1358.22	77.5065
1359.81	74.92
1361.4	72.6087
1362.98	69.0236
1364.57	66.4628
1366.16	64.0204
1367.74	61.2344
1369.33	59.3734
1370.91	57.606
1372.5	55.102
1374.08	52.2921
1375.67	50.4241
1377.25	48.7175
1378.83	46.3606
1380.41	45.0789
1382	44.8196
1383.58	44.2816
1385.16	43.3054
1386.74	42.1861
1388.33	41.209
1389.91	38.9933
1391.49	37.5965
1393.07	37.2094
1394.65	35.5986
1396.23	36.151
1397.81	35.3103
1399.39	34.7308
1400.97	34.6483
1402.55	33.6248
1404.13	33.6615
1405.7	33.7451
1407.28	34.6127
1408.86	35.8752
1410.44	37.8038
1412.01	40.3478
1413.59	43.8957
1415.17	47.3546
1416.74	50.2043
1418.32	53.0083
1419.89	55.7184
1421.47	58.4605
1423.04	62.0343
1424.62	66.5967
1426.19	70.4289
1427.77	75.2512
1429.34	79.6156
1430.91	83.7399
1432.49	87.2718
1434.06	91.5863
1435.63	95.6697
1437.2	99.8538
1438.78	103.24
1440.35	106.529
1441.92	109.172
1443.49	110.365
1445.06	111.598
1446.63	112.445
1448.2	113.092
1449.77	113.712
1451.34	112.917
1452.91	112.728
1454.48	111.017
1456.05	110.4
1457.62	108.937
1459.18	108.397
1460.75	106.02
1462.32	101.797
1463.89	98.6144
1465.45	93.9864
1467.02	89.2624
1468.59	84.3792
1470.15	79.6003
1471.72	75.06
1473.28	69.7703
1474.85	65.3286
1476.41	59.4693
1477.98	54.4794
1479.54	49.4843
1481.1	44.6973
1482.67	41.0499
1484.23	37.8768
1485.79	34.1062
1487.36	30.6743
1488.92	27.7352
1490.48	24.6635
1492.04	23.0215
1493.61	19.161
1495.17	16.1011
1496.73	14.2423
1498.29	12.9317
1499.85	12.4278
1501.41	11.7562
1502.97	11.9486
1504.53	11.4938
1506.09	11.5326
1507.65	10.8702
1509.2	10.946
1510.76	10.8469
1512.32	11.5653
1513.88	11.4067
1515.43	11.9071
1516.99	12.1752
1518.55	12.1169
1520.1	12.1218
1521.66	11.4277
1523.22	12.6386
1524.77	14.4573
1526.33	15.5625
1527.88	16.9137
1529.44	18.2922
1530.99	19.0033
1532.54	19.2254
1534.1	20.5744
1535.65	21.3302
1537.21	23.3187
1538.76	23.566
1540.31	24.5931
1541.86	25.5149
1543.42	26.2198
1544.97	27.5564
1546.52	28.4166
1548.07	30.5394
1549.62	32.6517
1551.17	34.5456
1552.72	36.9518
1554.27	38.7407
1555.82	40.0134
1557.37	42.4408
1558.92	43.6479
1560.47	46.4719
1562.02	48.2127
1563.56	49.5448
1565.11	51.2633
1566.66	52.3634
1568.21	53.0745
1569.75	55.2842
1571.3	56.318
1572.85	58.8947
1574.39	62.7389
1575.94	65.5206
1577.49	67.3477
1579.03	69.1184
1580.57	72.0949
1582.12	73.9316
1583.66	75.6042
1585.21	77.6289
1586.75	79.2455
1588.3	80.2545
1589.84	82.0986
1591.38	82.3959
1592.92	83.8584
1594.47	84.3652
1596.01	84.282
1597.55	85.7804
1599.09	86.2638
1600.63	87.6886
1602.17	88.5047
1603.71	88.57
1605.25	88.5082
1606.79	88.1969
1608.33	86.9631
1609.87	85.5789
1611.41	85.3718
1612.95	84.6477
1614.49	84.0381
1616.03	83.3841
1617.57	83.1945
1619.1	82.7587
1620.64	83.0341
1622.18	83.4237
1623.72	84.8576
1625.25	86.654
1626.79	87.3745
1628.32	87.7625
1629.86	88.7844
1631.39	89.4027
1632.93	90.1168
1634.46	90.9712
1636	92.0692
1637.53	94.1208
1639.07	95.6363
1640.6	97.2755
1642.13	98.902
1643.67	100.917
1645.2	103.345
1646.73	106.642
1648.26	108.578
1649.8	110.6
1651.33	112.433
1652.86	114.138
1654.39	114.396
1655.92	115.138
1657.45	116.366
1658.98	116.836
1660.51	117.051
1662.04	116.922
1663.57	116.224
1665.1	115.476
1666.63	114.87
1668.16	112.873
1669.68	112.162
1671.21	110.357
1672.74	108.989
1674.27	107.474
1675.79	104.076
1677.32	101.453
1678.85	98.0538
1680.37	93.6764
1681.9	89.6568
1683.42	85.3922
1684.95	80.4929
1686.47	76.1561
1688	72.9924
1689.52	69.1815
1691.05	65.8214
1692.57	61.6387
1694.09	57.8387
1695.62	53.7185
1697.14	50.1456
1698.66	47.1368
1700.18	44.3723
1701.71	39.8498
1703.23	36.2036
1704.75	32.7208
1706.27	30.0269
1707.79	27.3367
1709.31	25.5366
1710.83	24.2025
1712.35	24.1645
1713.87	23.3367
1715.39	22.4078
1716.91	20.7878
1718.43	19.4974
1719.95	18.606
1721.47	17.606
1722.99	16.3105
1724.5	15.2049
1726.02	14.8762
1727.54	14.6523
1729.06	14.2045
1730.57	13.0948
1732.09	13.2024
1733.61	13.5197
1735.12	13.1769
1736.64	13.0956
1738.15	12.8954
1739.67	12.3751
1741.18	12.2351
1742.7	11.7742
1744.21	11.5031
1745.72	11.3215
1747.24	10.9484
1748.75	10.2905
1750.26	9.9288
1751.77	8.85351
1753.29	8.59914
1754.8	7.71645
1756.31	7.00938
1757.82	7.1873
1759.33	6.00423
1760.84	5.36502
1762.36	5.1235
1763.87	4.69361
1765.38	4.35899
1766.89	3.62486
1768.4	2.42274
1769.91	2.79085
1771.41	2.22293
1772.92	2.0505
1774.43	1.17784
1775.94	0.880312
1777.45	-0.200677
1778.95	-0.0214829
1780.46	0.478577
1781.97	0.531319
1783.48	1.03498
1784.98	1.99111
1786.49	1.7597
1787.99	1.27765
1789.5	1.11938
1791.01	0.361999
1792.51	0.0479341
1794.01	-0.193153
1795.52	-0.187387
1797.02	-0.899683
1798.53	-0.689547
1800.03	-0.626837
1801.53	-0.772363
1803.04	-1.18603
1804.54	-1.46615
1806.04	-1.03466
1807.54	-1.12477
1809.05	-0.853879
1810.55	-1.00248
1812.05	-0.183803
1813.55	-0.44399
1815.05	-0.559268
1816.55	-0.369718
1818.05	0.133204
1819.55	0.461171
1821.05	0.52593
1822.55	0.644179
1824.05	0.838911
1825.55	1.0133
1827.05	0.440052
1828.55	1.18147
1830.04	1.7886
1831.54	2.1636
1833.04	2.69896
1834.54	2.34155
1836.03	2.90535
1837.53	3.38706
1839.03	3.99789
1840.52	4.15398
1842.02	4.10697
1843.51	4.3321
1845.01	4.87271
1846.5	4.95252
1848	5.68654
1849.49	6.00631
1850.99	6.81301
1852.48	7.01427
1853.97	6.8879
1855.47	7.08265
1856.96	6.61841
1858.45	6.77018
1859.94	6.84204
1861.44	6.5876
1862.93	6.94813
1864.42	6.7967
1865.91	6.18601
1867.4	5.53505
1868.89	5.92063
1870.38	5.54345
1871.87	5.07559
1873.36	5.71993
1874.85	5.18922
1876.34	4.79179
1877.83	4.74612
1879.32	4.7086
1880.81	4.80432
1882.3	4.51917
1882.57	4.24893
1884.07	4.06385
1885.56	4.2837
1887.06	4.06928
1888.55	4.63169
1890.04	4.84285
1891.54	4.83358
1893.03	4.18869
1894.52	4.80262
1896.02	4.83934
1897.51	5.49594
1899	5.0191
1900.49	4.97803
1901.98	5.42164
1903.47	5.67378
1904.96	5.87443
1906.45	6.1074
1907.94	5.54214
1909.43	6.01733
1910.92	5.94927
1912.41	6.31816
1913.9	6.86669
1915.39	7.69345
1916.88	7.80902
1918.37	8.51427
1919.85	8.29657
1921.34	8.31899
1922.83	8.11165
1924.32	8.15216
1925.8	8.09748
1927.29	7.47023
1928.78	7.83352
1930.26	7.62476
1931.75	7.2046
1933.23	7.60001
1934.72	7.04149
1936.2	6.83099
1937.69	6.43963
1939.17	6.5307
1940.66	6.6116
1942.14	7.42201
1943.63	6.72187
1945.11	7.16735
1946.59	7.88284
1948.07	7.47416
1949.56	7.87901
1951.04	7.96028
1952.52	8.67095
1954	9.02806
1955.48	8.98
1956.96	9.49782
1958.45	9.66423
1959.93	10.8433
1961.41	11.0353
1962.89	11.1957
1964.37	11.0796
1965.85	10.5665
1967.32	10.9586
1968.8	11.6224
1970.28	11.1369
1971.76	11.9027
1973.24	11.9227
1974.72	12.1438
1976.19	12.9546
1977.67	13.3339
1979.15	13.4344
1980.63	13.0547
1982.1	13.4369
1983.58	13.9072
1985.05	13.6175
1986.53	14.0249
1988	13.7629
1989.48	13.2503
1990.95	13.1645
1992.43	12.6535
1993.9	12.1155
1995.38	12.6846
1996.85	13.2616
1998.32	13.6009
1999.8	13.6703
2001.27	13.2758
2002.74	14.1326
2004.22	13.1876
2005.69	13.5754
2007.16	13.5766
2008.63	13.1457
2010.1	13.888
2011.57	13.7962
2013.04	13.7809
2014.51	13.807
2015.98	13.7118
2017.45	13.6486
2018.92	14.4172
2020.39	14.3827
2021.86	15.2195
2023.33	15.7536
2024.8	15.5672
2026.27	16.589
2027.74	15.9768
2029.2	15.1417
2030.67	15.145
2032.14	15.1379
2033.61	16.2284
2035.07	15.6224
2036.54	15.9042
2038.01	16.4467
2039.47	17.2337
2040.94	18.2011
2042.4	18.6841
2043.87	19.3645
2045.33	19.8141
2046.8	19.8568
2048.26	20.2462
2049.72	21.2073
2051.19	21.0199
2052.65	21.1271
2054.12	21.7834
2055.58	22.0762
2057.04	21.6464
2058.5	21.6688
2059.97	21.936
2061.43	21.0209
2062.89	21.6228
2064.35	21.2223
2065.81	20.8346
2067.27	21.3907
2068.73	21.7392
2070.19	21.699
2071.65	21.9625
2073.11	21.1122
2074.57	20.4803
2076.03	20.4798
2077.49	19.3389
2078.95	19.8606
2080.41	19.6896
2081.87	20.3351
2083.32	20.4716
2084.78	19.8472
2086.24	19.6649
2087.7	19.6775
2089.15	19.5809
2090.61	19.3904
2092.07	19.3651
2093.52	19.04
2094.98	19.509
2096.43	19.1968
2097.89	18.4291
2099.34	18.6697
2100.8	18.3783
2102.25	18.7499
2103.71	19.3592
2105.16	20.385
2106.61	21.052
2108.07	21.2679
2109.52	22.0383
2110.97	22.821
2112.43	23.0276
2113.88	22.9453
2115.33	23.5882
2116.78	24.3806
2118.23	24.3853
2119.68	25.6781
2121.13	27.0382
2122.59	28.2072
2124.04	28.9295
2125.49	29.8142
2126.94	30.8129
