#Acq. time (s)=	45
#Accumulations=	2
#Range (cm-¹)=	200...3150
#Windows=	2
#Auto scanning=	Off
#Autofocus=	Off
#Macrospot=	Off
#AutoExposure=	Off
#Spike filter=	Multiple accum.
#Delay time (s)=	0
#Binning=	1
#Readout mode=	Signal
#DeNoise=	Off
#ICS correction=	On
#Dark correction=	Off
#Inst. Process=	Off
#Detector Gain=	Best Dynamic Range
#Detector ADC=	20 kHz       
#Detector temperature (°C)=	-69.85
#Instrument=	LabRAM HR Evol
#Detector=	Synapse
#Objective=	x100
#Grating=	600 gr/mm
#ND Filter=	100%
#Laser (nm)=	532 
#Hole=	100.021
#Range=	Auto
#Laser Pol.=	No
#Raman. Pol.=	No
#Laser Pol. (°)=	-0.0007625
#Raman Pol. (°)=	89.9995
#Collection=	Microscope
#StageXY=	Marzhauser
#StageZ=	Marzhauser
#X (µm)=	2169.9
#Y (µm)=	1265.4
#Z (µm)=	442.25
#Full time(mm:ss)=	3:05
#Project=	
#Sample=	
#Site=	
#Title=	Thy_10_08_12_2x_45s_532 nm_x100_100%_600 gr_mm
#Remark=	
#Date=	05.07.2022 15:02
#Acquired=	05.07.2022 15:02:59
#Base:Fit=	10.08.2022 09:46:25
#Base:Sub=	10.08.2022 09:46:49
#Filter:Polynom=	16.08.2022 10:24:56
#AxisType[0]=Intens
#AxisUnit[0]=Cnt
#AxisType[1]=Spectr
#AxisUnit[1]=1/cm
200.43	21.2852
202.244	19.6361
204.059	18.0352
205.873	17.4368
207.688	17.0673
209.501	16.9125
211.314	16.3407
213.127	15.3558
214.941	13.9916
216.753	11.8241
218.564	11.4103
220.375	11.0354
222.186	11.3041
223.999	10.097
225.809	9.00202
227.618	8.89352
229.428	9.69373
231.236	8.51075
233.045	7.55666
234.855	6.18877
236.663	6.1674
238.471	5.56546
240.278	5.71541
242.085	4.94066
243.891	4.63907
245.698	4.44956
247.503	4.01725
249.309	3.76593
251.116	3.61458
252.921	3.38034
254.725	2.56496
256.529	2.50482
258.333	2.95041
260.136	3.37009
261.939	3.18572
263.742	3.59939
265.544	3.69557
267.346	3.07714
269.148	4.81355
270.949	5.1544
272.75	4.6154
274.55	4.27905
276.351	5.00299
278.15	5.51952
279.95	6.0899
281.749	6.70884
283.548	7.36783
285.346	7.60102
287.144	7.54611
288.942	7.80725
290.739	8.92619
292.536	10.017
294.333	10.2701
296.129	10.0719
297.925	10.6291
299.721	11.2977
301.514	11.2606
303.309	11.2335
305.104	11.9435
306.898	12.1495
308.692	13.5586
310.486	13.0191
312.279	13.1437
314.072	12.3385
315.862	13.3122
317.654	13.9847
319.446	13.71
321.238	12.7902
323.029	13.0308
324.819	12.9798
326.608	13.2652
328.398	12.8379
330.188	13.0286
331.977	12.6137
333.766	13.6566
335.553	14.1512
337.341	14.5055
339.129	14.8954
340.917	15.2076
342.704	14.6888
344.489	14.0066
346.275	14.2906
348.062	13.5483
349.845	13.4861
351.631	13.3975
353.416	13.1796
355.201	12.7768
356.984	12.6779
358.768	11.8724
360.552	10.6945
362.333	10.4258
364.116	10.6795
365.899	10.171
367.68	9.56091
369.462	9.78091
371.243	10.1983
373.023	9.68841
374.804	9.07564
376.585	9.26222
378.363	9.08841
380.143	8.86292
381.923	9.24173
383.7	8.88223
385.479	9.07378
387.256	9.73587
389.034	9.50162
390.812	8.41912
392.588	7.90131
394.365	8.22687
396.14	8.21831
397.916	8.63236
399.691	8.24532
401.467	8.68717
403.24	8.65965
405.015	8.8674
406.788	8.60803
408.563	8.79508
410.335	9.30888
412.109	9.55439
413.88	9.58021
415.654	10.1886
417.424	11.5626
419.197	12.0411
420.967	13.2175
422.739	13.8715
424.508	13.1775
426.279	12.7235
428.048	12.0616
429.819	11.3234
431.587	10.5846
433.356	11.6378
435.124	10.3923
436.891	9.84861
438.66	10.3418
440.426	10.5483
442.194	10.4251
443.96	10.0594
445.725	10.5693
447.492	10.086
449.257	10.2881
451.021	10.5581
452.787	10.1586
454.551	10.8653
456.314	12.2107
458.079	12.5237
459.842	11.9386
461.604	11.571
463.368	11.6739
465.13	12.6299
466.891	12.3687
468.654	13.1826
470.415	14.0291
472.175	14.7802
473.935	15.0337
475.696	16.0794
477.456	15.5233
479.215	16.7977
480.973	17.428
482.733	18.0473
484.491	18.3538
486.249	18.559
488.006	18.0018
489.765	19.0458
491.522	19.9307
493.278	20.9514
495.034	22.2853
496.789	22.9875
498.544	23.132
500.301	23.3033
502.056	22.9011
503.81	23.5882
505.564	23.3728
507.317	23.366
509.071	23.5429
510.825	22.9031
512.578	21.9902
514.33	22.2204
516.082	22.0658
517.833	22.1609
519.585	21.9332
521.335	21.7561
523.086	20.1901
524.836	21.2683
526.586	21.9739
528.335	21.8316
530.085	21.5232
531.835	21.011
533.584	21.2669
535.332	21.0083
537.08	20.6129
538.827	20.8373
540.574	21.1685
542.321	21.0578
544.068	21.5202
545.814	20.5655
547.56	20.2566
549.305	20.6207
551.05	20.9356
552.795	20.9453
554.54	20.175
556.282	20.5927
558.025	20.0892
559.769	19.8058
561.512	18.0948
563.255	17.9781
564.997	16.7901
566.739	16.9378
568.481	15.8716
570.223	15.5635
571.964	14.3032
573.705	13.459
575.443	12.1681
577.183	12.5544
578.923	11.2222
580.663	10.8199
582.402	9.55023
584.141	8.45637
585.879	8.42865
587.615	6.9536
589.353	5.69442
591.09	4.77748
592.828	3.77529
594.564	3.76882
596.299	2.73193
598.035	1.97193
599.771	0.876131
601.506	0.621098
603.242	0.768044
604.974	0.506154
606.709	0.410061
608.443	1.17567
610.177	1.47419
611.908	2.28981
613.642	2.30698
615.374	3.10994
617.105	4.34513
618.837	4.34392
620.569	5.58485
622.3	6.65948
624.03	7.64135
625.761	9.74677
627.491	11.6487
629.219	12.1916
630.949	13.9095
632.677	13.8453
634.406	15.1962
636.135	15.889
637.861	16.8791
639.59	17.3782
641.318	18.1025
643.043	18.2846
644.77	18.7781
646.495	19.2631
648.222	20.0476
649.948	21.1679
651.672	22.0376
653.398	22.4905
655.121	23.1164
656.846	23.304
658.569	23.4766
660.293	24.3622
662.015	24.4485
663.738	25.1738
665.46	25.5967
667.183	26.6063
668.903	26.2026
670.626	26.8224
672.346	26.5698
674.067	25.3368
675.787	26.4977
677.508	27.0167
679.226	27.5085
680.947	28.2372
682.665	27.7478
684.385	27.3868
686.102	27.6513
687.821	27.9513
689.538	29.3592
691.254	28.9664
692.972	29.7908
694.688	30.3928
696.406	31.0934
698.121	31.7108
699.835	32.0294
701.552	33.1355
703.266	33.3818
704.98	33.4924
706.695	35.1528
708.409	36.1598
710.121	36.3659
711.836	37.3656
713.548	38.6735
715.26	39.3408
716.973	40.4779
718.685	41.685
720.396	42.7561
722.108	42.5006
723.818	43.0855
725.528	43.9389
727.238	44.991
728.949	46.7194
730.658	48.6523
732.367	49.1341
734.075	49.7681
735.785	50.6619
737.493	50.9614
739.2	51.6699
740.907	53.0058
742.614	53.8556
744.322	54.814
746.028	55.8708
747.734	56.7016
749.439	57.9787
751.144	59.3214
752.849	59.9929
754.555	60.4864
756.26	62.0502
757.963	62.6333
759.667	64.047
761.37	65.9099
763.073	65.9355
764.775	66.8316
766.477	67.7053
768.179	67.9725
769.883	68.8093
771.584	70.2686
773.285	70.9871
774.986	72.1377
776.686	72.2213
778.386	73.2067
780.085	74.1132
781.785	74.4676
783.484	74.9452
785.182	75.8535
786.881	77.0879
788.579	77.8698
790.276	79.3798
791.974	81.3508
793.671	82.8305
795.367	84.3365
797.064	86.1853
798.76	87.7401
800.456	88.7933
802.151	89.072
803.846	88.8179
805.541	87.905
807.234	87.653
808.928	88.0799
810.622	89.1021
812.315	90.3448
814.008	91.8795
815.701	91.4249
817.394	91.6276
819.086	92.5337
820.778	93.3509
822.468	93.9188
824.159	95.5257
825.85	95.5788
827.541	95.1298
829.231	95.0687
830.921	95.12
832.609	94.9908
834.298	94.1955
835.987	94.2516
837.676	93.0277
839.364	91.5779
841.051	91.4179
842.738	90.3013
844.426	89.4859
846.113	88.829
847.798	87.053
849.484	86.1202
851.171	84.1438
852.857	83.1837
854.54	81.2097
856.226	80.4347
857.911	78.5931
859.593	76.8383
861.278	74.2061
862.961	72.4976
864.645	71.1807
866.327	69.6337
868.01	68.9011
869.692	67.9521
871.373	66.5368
873.055	65.4883
874.735	65.4652
876.416	64.5031
878.097	62.7694
879.776	61.6184
881.457	60.1323
883.135	58.8473
884.815	57.6607
886.495	56.7079
888.172	56.5143
889.851	56.0645
891.528	56.0994
893.206	56.375
894.882	57.0917
896.56	57.3766
898.237	57.3093
899.912	56.1634
901.589	55.8388
903.263	55.8082
904.94	56.0802
906.614	55.7749
908.289	55.4924
909.962	54.8142
911.635	54.0362
913.31	54.5693
914.982	54.7725
916.656	54.3868
918.328	54.1132
920.001	54.3359
921.672	53.4027
923.345	53.3337
925.015	53.6799
926.685	52.8783
928.357	52.4768
930.026	52.0085
931.698	52.1245
933.366	51.0483
935.035	49.9577
936.705	49.4373
938.373	47.9552
940.041	47.6251
941.71	45.9119
943.377	45.1043
945.044	43.5577
946.712	43.8342
948.378	43.2873
950.044	43.0128
951.709	43.08
953.376	42.8139
955.041	43.0824
956.706	42.2564
958.372	40.9177
960.036	39.0546
961.699	37.9509
963.362	38.3153
965.027	38.6685
966.69	40.2851
968.352	41.9785
970.014	43.5216
971.676	43.5153
973.339	42.615
975	43.1902
976.661	43.9929
978.322	44.6614
979.982	44.9246
981.642	45.3453
983.303	45.5103
984.962	46.7594
986.621	47.8208
988.28	48.1181
989.938	47.4056
991.596	48.29
993.254	49.0971
994.911	49.2505
996.57	50.0242
998.227	49.5502
999.884	50.1808
1001.54	50.6117
1003.2	50.1843
1004.85	49.7639
1006.51	49.0958
1008.16	48.9968
1009.82	48.3341
1011.47	47.7239
1013.12	46.513
1014.78	45.6
1016.43	44.1466
1018.08	43.7549
1019.74	42.9453
1021.39	41.7535
1023.04	40.8001
1024.69	39.5371
1026.34	37.8098
1028	36.4074
1029.65	35.3573
1031.3	34.0652
1032.95	33.2346
1034.6	31.8506
1036.25	29.9139
1037.9	28.5188
1039.54	25.6189
1041.19	24.777
1042.84	24.6921
1044.49	24.9259
1046.14	24.7371
1047.78	24.916
1049.43	26.1675
1051.08	24.657
1052.72	23.5838
1054.37	22.6215
1056.02	22.0761
1057.66	22.1259
1059.31	22.2037
1060.95	21.7122
1062.6	20.8029
1064.24	20.7767
1065.88	20.2396
1067.53	20.3803
1069.17	20.0688
1070.81	19.5091
1072.45	20.0541
1074.1	21.3706
1075.74	21.6458
1077.38	21.2663
1079.02	21.2617
1080.66	21.7354
1082.3	22.1791
1083.94	21.5603
1085.58	21.7857
1087.22	21.9041
1088.86	22.0097
1090.5	22.8321
1092.14	22.2334
1093.78	22.9361
1095.42	23.8719
1097.05	24.8682
1098.69	26.308
1100.33	26.2093
1101.96	25.5574
1103.6	25.2778
1105.24	25.1547
1106.87	24.1391
1108.51	23.71
1110.14	24.2425
1111.78	23.0867
1113.41	22.7653
1115.05	21.9773
1116.68	20.8192
1118.31	19.7419
1119.95	19.5282
1121.58	18.2636
1123.21	17.5134
1124.85	15.9321
1126.48	14.4035
1128.11	13.0676
1129.74	12.9392
1131.37	12.7008
1133	10.502
1134.63	9.92635
1136.26	8.8654
1137.89	7.84758
1139.52	6.81678
1141.15	6.9891
1142.78	6.02451
1144.41	5.1888
1146.04	5.27455
1147.66	4.41103
1149.29	4.19171
1150.92	3.56887
1152.55	2.58405
1154.17	2.30732
1155.8	1.40798
1157.43	0.155781
1159.05	-0.317435
1160.68	-0.651768
1162.3	-0.647341
1163.93	-0.355536
1165.55	0.753695
1167.17	1.5461
1168.8	2.38805
1170.42	2.95263
1172.05	4.16957
1173.67	5.71503
1175.29	7.32578
1176.91	8.28174
1178.54	9.42851
1180.16	10.3024
1181.78	11.0636
1183.4	11.4288
1185.02	12.1439
1186.64	13.4387
1188.26	13.7633
1189.88	15.1524
1191.5	15.8994
1193.12	15.5334
1194.74	16.8671
1196.36	18.2885
1197.97	19.4175
1199.59	20.7957
1201.21	23.0801
1202.83	23.3556
1204.44	24.6544
1206.06	25.8795
1207.68	27.3449
1209.29	29.7217
1210.91	32.3879
1212.52	33.6366
1214.14	34.897
1215.75	37.1404
1217.37	38.9807
1218.98	41.2805
1220.59	44.0436
1222.21	45.9781
1223.82	47.1049
1225.43	48.8256
1227.05	50.0333
1228.66	50.6504
1230.27	52.4684
1231.88	53.0031
1233.49	54.619
1235.1	55.9208
1236.72	56.7379
1238.33	57.0047
1239.94	58.8711
1241.55	59.8655
1243.16	60.7692
1244.76	61.3659
1246.37	61.3066
1247.98	61.9189
1249.59	61.9279
1251.2	61.6585
1252.8	61.8897
1254.41	62.5948
1256.02	62.1352
1257.62	62.5158
1259.23	63.3248
1260.84	62.5067
1262.44	62.3157
1264.05	61.7429
1265.66	61.7442
1267.26	61.4885
1268.86	60.6672
1270.47	60.5211
1272.07	60.7651
1273.67	60.5022
1275.28	61.4902
1276.88	61.9942
1278.48	62.2093
1280.09	63.2169
1281.69	64.2907
1283.29	63.8581
1284.89	64.929
1286.49	66.4404
1288.09	67.7319
1289.69	69.99
1291.29	71.1502
1292.89	71.6943
1294.49	73.3016
1296.09	74.6796
1297.69	77.1678
1299.29	78.8673
1300.89	80.8684
1302.49	81.2162
1304.08	82.0134
1305.68	83.0057
1307.28	83.6329
1308.88	85.3147
1310.47	87.0761
1312.07	87.6446
1313.66	88.7
1315.26	89.1204
1316.85	89.4913
1318.45	89.7315
1320.04	90.1048
1321.64	89.4725
1323.23	89.0231
1324.83	88.4964
1326.42	87.6427
1328.01	87.0983
1329.61	85.5624
1331.2	84.9248
1332.79	84.1066
1334.38	84.0825
1335.97	82.564
1337.56	81.3727
1339.16	79.3394
1340.75	77.2394
1342.34	75.681
1343.93	73.9538
1345.52	71.4834
1347.11	70.1529
1348.7	69.175
1350.29	67.5342
1351.87	66.6414
1353.46	64.9448
1355.05	63.3131
1356.64	62.1178
1358.22	60.9852
1359.81	58.9232
1361.4	57.924
1362.98	56.3273
1364.57	56.2917
1366.16	54.7729
1367.74	53.2987
1369.33	51.9093
1370.91	50.9113
1372.5	49.6765
1374.08	48.5287
1375.67	48.1404
1377.25	47.0234
1378.83	45.1685
1380.41	44.0066
1382	42.5025
1383.58	41.4708
1385.16	42.6206
1386.74	42.1493
1388.33	42.7339
1389.91	41.8195
1391.49	41.0892
1393.07	39.6704
1394.65	38.8989
1396.23	38.0844
1397.81	36.6157
1399.39	36.9998
1400.97	37.4546
1402.55	37.2389
1404.13	36.2196
1405.7	36.0919
1407.28	36.7638
1408.86	36.9998
1410.44	37.0895
1412.01	37.9635
1413.59	39.4225
1415.17	40.2851
1416.74	42.1029
1418.32	44.2912
1419.89	47.1297
1421.47	49.7124
1423.04	52.9894
1424.62	55.1729
1426.19	58.9817
1427.77	62.0474
1429.34	65.3121
1430.91	69.0225
1432.49	71.6169
1434.06	74.2402
1435.63	77.0791
1437.2	79.9959
1438.78	81.9142
1440.35	85.4086
1441.92	86.6412
1443.49	89.2982
1445.06	89.1616
1446.63	90.9603
1448.2	91.246
1449.77	92.2516
1451.34	92.0128
1452.91	91.294
1454.48	91.1274
1456.05	89.8349
1457.62	89.1526
1459.18	87.4412
1460.75	85.7592
1462.32	83.5203
1463.89	81.8454
1465.45	78.6416
1467.02	75.9288
1468.59	72.5332
1470.15	69.0787
1471.72	64.9216
1473.28	61.3358
1474.85	57.9548
1476.41	54.1138
1477.98	50.7536
1479.54	46.137
1481.1	41.9758
1482.67	38.3739
1484.23	35.6959
1485.79	32.8316
1487.36	29.7165
1488.92	27.4004
1490.48	25.5959
1492.04	23.4855
1493.61	21.7892
1495.17	20.2794
1496.73	18.7445
1498.29	17.3183
1499.85	15.5769
1501.41	14.3487
1502.97	12.5621
1504.53	12.4494
1506.09	12.3045
1507.65	11.995
1509.2	11.7605
1510.76	10.8785
1512.32	10.3776
1513.88	9.94622
1515.43	10.4463
1516.99	10.8881
1518.55	11.735
1520.1	11.8119
1521.66	12.5088
1523.22	12.3411
1524.77	13.4165
1526.33	13.3973
1527.88	14.3858
1529.44	15.0507
1530.99	16.6411
1532.54	17.795
1534.1	18.08
1535.65	19.1914
1537.21	19.9546
1538.76	20.893
1540.31	22.5245
1541.86	23.769
1543.42	24.5923
1544.97	25.048
1546.52	25.5271
1548.07	26.1061
1549.62	27.4765
1551.17	29.1534
1552.72	30.4192
1554.27	32.3148
1555.82	34.4239
1557.37	36.5095
1558.92	38.2059
1560.47	40.3427
1562.02	42.2299
1563.56	44.0527
1565.11	44.6225
1566.66	46.3329
1568.21	47.6823
1569.75	49.8
1571.3	52.0002
1572.85	53.9327
1574.39	54.9592
1575.94	56.1853
1577.49	57.5098
1579.03	58.9687
1580.57	59.6017
1582.12	61.8285
1583.66	63.7772
1585.21	64.8262
1586.75	66.0276
1588.3	66.339
1589.84	67.5419
1591.38	69.0058
1592.92	70.7786
1594.47	71.5948
1596.01	72.4129
1597.55	72.487
1599.09	73.076
1600.63	73.1943
1602.17	73.0733
1603.71	73.2447
1605.25	72.852
1606.79	72.2636
1608.33	71.2315
1609.87	70.2735
1611.41	70.0575
1612.95	69.8376
1614.49	69.3188
1616.03	69.1118
1617.57	69.4827
1619.1	69.4336
1620.64	70.1654
1622.18	70.795
1623.72	71.4764
1625.25	72.0077
1626.79	72.955
1628.32	74.4406
1629.86	76.068
1631.39	78.2802
1632.93	79.8911
1634.46	80.7491
1636	81.7625
1637.53	83.6676
1639.07	85.4315
1640.6	86.8624
1642.13	88.4687
1643.67	90.7362
1645.2	92.1446
1646.73	94.2954
1648.26	95.256
1649.8	96.5028
1651.33	97.3606
1652.86	98.4888
1654.39	98.9488
1655.92	99.5799
1657.45	100.818
1658.98	101.817
1660.51	101.621
1662.04	101.446
1663.57	101.96
1665.1	101.31
1666.63	101.113
1668.16	100.268
1669.68	98.7709
1671.21	96.0968
1672.74	93.6112
1674.27	90.3758
1675.79	86.757
1677.32	82.9593
1678.85	79.7264
1680.37	75.8444
1681.9	71.2347
1683.42	68.0652
1684.95	65.1371
1686.47	63.1574
1688	59.76
1689.52	56.1383
1691.05	53.3103
1692.57	49.752
1694.09	46.6622
1695.62	43.2361
1697.14	39.7241
1698.66	36.0723
1700.18	32.7571
1701.71	30.0815
1703.23	28.5181
1704.75	26.1618
1706.27	23.5071
1707.79	20.7435
1709.31	18.917
1710.83	16.1967
1712.35	14.196
1713.87	13.0639
1715.39	11.3172
1716.91	9.18221
1718.43	7.74993
1719.95	6.24481
1721.47	6.12575
1722.99	6.27385
1724.5	5.5769
1726.02	5.61265
1727.54	5.17795
1729.06	4.39154
1730.57	5.01515
1732.09	5.80111
1733.61	5.9938
1735.12	6.05066
1736.64	6.85142
1738.15	7.28681
1739.67	7.51683
1741.18	6.779
1742.7	6.67584
1744.21	6.33023
1745.72	5.67521
1747.24	4.68567
1748.75	4.17459
1750.26	3.85963
1751.77	3.61844
1753.29	4.26286
1754.8	4.40281
1756.31	4.50225
1757.82	4.48576
1759.33	5.09793
1760.84	4.74458
1762.36	4.6387
1763.87	4.03311
1765.38	3.66072
1766.89	3.25231
1768.4	2.23322
1769.91	1.98424
1771.41	1.64508
1772.92	1.48218
1774.43	1.14649
1775.94	0.746265
1777.45	0.746422
1778.95	0.446494
1780.46	0.035069
1781.97	-0.101459
1783.48	-0.20118
1784.98	-0.071259
1786.49	-0.88756
1787.99	-1.03243
1789.5	-1.11339
1791.01	-1.85288
1792.51	-1.49041
1794.01	-1.29668
1795.52	-0.872203
1797.02	0.127967
1798.53	0.43054
1800.03	0.294237
1801.53	0.0720501
1803.04	-0.386493
1804.54	-0.339445
1806.04	0.0254252
1807.54	0.411873
1809.05	0.716686
1810.55	0.801768
1812.05	0.842709
1813.55	0.377679
1815.05	0.721712
1816.55	0.514118
1818.05	1.24018
1819.55	1.20654
1821.05	1.2155
1822.55	1.54406
1824.05	1.96439
1825.55	2.83112
1827.05	3.43297
1828.55	3.63806
1830.04	4.62179
1831.54	5.11773
1833.04	5.18605
1834.54	5.44916
1836.03	5.39563
1837.53	5.89052
1839.03	5.94336
1840.52	6.16541
1842.02	6.58903
1843.51	6.9276
1845.01	7.46809
1846.5	7.93594
1848	8.66904
1849.49	8.72393
1850.99	9.30745
1852.48	9.76218
1853.97	10.1896
1855.47	10.2567
1856.96	10.3496
1858.45	10.8933
1859.94	11.4025
1861.44	11.653
1862.93	12.1838
1864.42	12.726
1865.91	12.9532
1867.4	13.1681
1868.89	13.1019
1870.38	13.4732
1871.87	13.1455
1873.36	13.0548
1874.85	12.6821
1876.34	12.5865
1877.83	13.2891
1879.32	13.4027
1880.81	13.8606
1882.3	14.1275
1882.57	13.4256
1884.07	13.3935
1885.56	14.0534
1887.06	13.6428
1888.55	14.1865
1890.04	14.1462
1891.54	13.9117
1893.03	12.9626
1894.52	13.1774
1896.02	13.1534
1897.51	12.9542
1899	12.9106
1900.49	12.5847
1901.98	12.5443
1903.47	12.2773
1904.96	11.3581
1906.45	10.6695
1907.94	10.8906
1909.43	10.6781
1910.92	10.5757
1912.41	11.1562
1913.9	11.4553
1915.39	11.5856
1916.88	11.591
1918.37	12.307
1919.85	12.3299
1921.34	12.7145
1922.83	13.1005
1924.32	14.2429
1925.8	13.8372
1927.29	14.162
1928.78	14.3721
1930.26	15.1483
1931.75	15.3617
1933.23	15.6535
1934.72	15.942
1936.2	16.2197
1937.69	16.2852
1939.17	16.1344
1940.66	16.0782
1942.14	16.9969
1943.63	17.2613
1945.11	17.2717
1946.59	18.0796
1948.07	18.1355
1949.56	18.2218
1951.04	17.7508
1952.52	17.5264
1954	17.8033
1955.48	17.3106
1956.96	17.0164
1958.45	17.1899
1959.93	17.1226
1961.41	16.8392
1962.89	17.0203
1964.37	16.0406
1965.85	15.4153
1967.32	15.5701
1968.8	16.1325
1970.28	16.0155
1971.76	16.1139
1973.24	15.9225
1974.72	15.4051
1976.19	15.3121
1977.67	14.8199
1979.15	15.0013
1980.63	15.0066
1982.1	15.6626
1983.58	15.3591
1985.05	15.9539
1986.53	16.7794
1988	16.8234
1989.48	17.3352
1990.95	18.1454
1992.43	18.6128
1993.9	19.2617
1995.38	20.1538
1996.85	20.3357
1998.32	20.324
1999.8	20.4081
2001.27	21.3601
2002.74	21.7095
2004.22	22.1193
2005.69	21.9753
2007.16	22.6552
2008.63	23.2604
2010.1	23.377
2011.57	23.8883
2013.04	24.3122
2014.51	24.6818
2015.98	25.2922
2017.45	25.0534
2018.92	25.1046
2020.39	25.3884
2021.86	25.5159
2023.33	25.3264
2024.8	24.9507
2026.27	25.1145
2027.74	25.2235
2029.2	24.8859
2030.67	25.161
2032.14	25.2912
2033.61	24.9625
2035.07	24.7477
2036.54	24.7346
2038.01	24.2852
2039.47	24.1107
2040.94	23.9894
2042.4	24.2223
2043.87	24.1773
2045.33	23.5807
2046.8	23.0077
2048.26	22.9508
2049.72	23.5075
2051.19	23.3227
2052.65	23.0856
2054.12	23.466
2055.58	23.6997
2057.04	23.9228
2058.5	24.6079
2059.97	24.892
2061.43	25.5557
2062.89	26.1229
2064.35	26.7628
2065.81	27.2359
2067.27	28.2468
2068.73	28.0649
2070.19	28.4923
2071.65	29.4337
2073.11	30.2913
2074.57	30.1911
2076.03	30.4415
2077.49	30.9422
2078.95	31.1927
2080.41	32.3267
2081.87	32.7793
2083.32	33.0108
2084.78	33.7347
2086.24	33.7651
2087.7	33.9975
2089.15	33.636
2090.61	33.8064
2092.07	33.6649
2093.52	33.4197
2094.98	33.1919
2096.43	32.7512
2097.89	32.9405
2099.34	32.949
2100.8	33.0851
2102.25	32.3115
2103.71	31.8549
2105.16	31.3269
2106.61	31.5019
2108.07	31.9576
2109.52	32.3703
2110.97	31.6664
2112.43	31.0107
2113.88	30.9684
2115.33	30.8926
2116.78	31.0689
2118.23	31.2126
2119.68	31.4156
2121.13	32.1797
2122.59	32.0054
2124.04	31.677
2125.49	31.9686
2126.94	32.7996
2128.39	33.0353
2129.83	33.8878
2131.28	34.6632
