#Acq. time (s)=	45
#Accumulations=	2
#Range (cm-¹)=	200...3150
#Windows=	2
#Auto scanning=	Off
#Autofocus=	Off
#Macrospot=	Off
#AutoExposure=	Off
#Spike filter=	Multiple accum.
#Delay time (s)=	0
#Binning=	1
#Readout mode=	Signal
#DeNoise=	Off
#ICS correction=	On
#Dark correction=	Off
#Inst. Process=	Off
#Detector Gain=	Best Dynamic Range
#Detector ADC=	20 kHz       
#Detector temperature (°C)=	-69.85
#Instrument=	LabRAM HR Evol
#Detector=	Synapse
#Objective=	x100
#Grating=	600 gr/mm
#ND Filter=	100%
#Laser (nm)=	532 
#Hole=	100.021
#Range=	Auto
#Laser Pol.=	No
#Raman. Pol.=	No
#Laser Pol. (°)=	-0.0007625
#Raman Pol. (°)=	89.9995
#Collection=	Microscope
#StageXY=	Marzhauser
#StageZ=	Marzhauser
#X (µm)=	8998.3
#Y (µm)=	-3057.5
#Z (µm)=	-55.15
#Full time(mm:ss)=	3:18
#Project=	
#Sample=	
#Site=	
#Title=	Thy_00_07_26_2x_45s_532 nm_x100_100%_600 gr_mm
#Remark=	
#Date=	28.06.2022 12:02
#Acquired=	28.06.2022 12:02:00
#Base:Fit=	10.08.2022 10:07:56
#Base:Sub=	10.08.2022 10:08:40
#Filter:Polynom=	16.08.2022 10:26:06
#AxisType[0]=Intens
#AxisUnit[0]=Cnt
#AxisType[1]=Spectr
#AxisUnit[1]=1/cm
200.407	58.4658
202.221	55.6156
204.035	53.1831
205.849	50.7029
207.665	48.9021
209.478	47.1603
211.291	45.5495
213.104	43.2396
214.916	40.1662
216.73	37.717
218.541	34.6583
220.352	33.269
222.163	31.5018
223.973	28.1691
225.785	25.7039
227.595	23.9712
229.404	21.5808
231.213	19.7651
233.022	18.1157
234.83	18.026
236.638	17.7305
238.448	16.4751
240.255	14.9913
242.062	13.9008
243.868	13.3588
245.675	12.3675
247.48	11.7123
249.286	11.2691
251.091	9.92756
252.896	8.26676
254.702	9.086
256.506	9.15351
258.31	8.81862
260.113	8.55631
261.916	8.03271
263.719	7.8704
265.521	8.95541
267.323	8.46273
269.125	7.40617
270.926	7.39756
272.727	7.73398
274.527	7.65282
276.328	7.34614
278.127	7.35913
279.927	7.188
281.726	7.08789
283.525	5.42641
285.323	5.60101
287.121	6.47668
288.919	6.88754
290.716	6.97714
292.513	7.48769
294.31	8.3683
296.104	8.88902
297.9	8.81259
299.696	9.0235
301.491	7.21971
303.286	7.10626
305.081	6.69272
306.875	7.44034
308.669	7.54827
310.463	8.44126
312.256	8.06467
314.047	7.309
315.839	8.49807
317.631	9.26623
319.423	9.51469
321.215	10.1891
323.006	12.2829
324.794	13.7017
326.585	14.2848
328.375	14.8393
330.165	16.1109
331.954	16.7415
333.741	18.0758
335.53	18.6424
337.318	19.4414
339.106	19.9931
340.894	20.5109
342.679	21.4913
344.466	21.6227
346.253	21.8387
348.039	21.5191
349.823	21.4159
351.608	20.2694
353.393	20.135
355.176	18.433
356.961	17.1388
358.745	16.4918
360.529	17.3591
362.31	17.5576
364.093	16.3088
365.876	15.4747
367.657	15.0801
369.439	14.4779
371.221	14.1624
373	13.6396
374.781	14.5884
376.56	14.6631
378.34	13.5581
380.12	13.316
381.898	13.7356
383.677	13.6966
385.456	12.3016
387.233	11.0652
389.011	9.66451
390.787	8.64764
392.565	8.2888
394.34	7.61773
396.117	6.54845
397.894	5.58697
399.668	4.87452
401.444	5.13771
403.217	5.56238
404.993	7.00886
406.766	8.03314
408.54	8.98584
410.312	9.63225
412.086	10.8738
413.858	11.5554
415.631	11.9149
417.402	12.6059
419.174	12.5597
420.944	12.3999
422.716	13.7933
424.486	13.7824
426.257	14.0038
428.025	13.0734
429.794	12.7836
431.564	10.9109
433.332	9.5656
435.101	8.39377
436.868	7.27603
438.637	6.57349
440.403	7.53324
442.169	9.43231
443.937	10.8135
445.703	15.3502
447.468	18.8138
449.234	22.0105
450.999	24.7599
452.765	26.7996
454.528	30.1378
456.292	33.6181
458.057	36.8019
459.819	39.8251
461.582	42.4598
463.344	45.5273
465.107	47.422
466.868	48.7612
468.629	50.8069
470.392	52.126
472.152	52.9151
473.912	53.7967
475.672	54.9494
477.433	56.1817
479.192	57.2925
480.951	59.3487
482.709	61.5982
484.469	60.9602
486.226	62.7024
487.984	63.7472
489.74	65.1071
491.499	65.0964
493.255	65.3697
495.011	64.016
496.767	63.1616
498.522	62.2218
500.277	61.1606
502.033	59.4171
503.788	56.4657
505.541	54.7561
507.295	51.0222
509.048	48.5575
510.801	45.588
512.553	42.6372
514.308	38.7537
516.06	34.2789
517.811	32.0528
519.562	28.0033
521.313	26.3121
523.063	24.8932
524.814	25.7465
526.563	25.1218
528.313	24.8715
530.062	24.354
531.811	23.6357
533.559	23.2658
535.308	22.395
537.055	22.0826
538.803	21.1655
540.55	19.8354
542.297	19.3348
544.043	18.1243
545.789	18.4435
547.535	18.1382
549.281	18.1936
551.026	18.6054
552.771	17.7153
554.515	17.7743
556.259	18.6123
558.003	19.272
559.747	20.0451
561.49	20.3145
563.233	21.2939
564.975	23.462
566.717	24.1118
568.459	24.5062
570.2	24.1936
571.942	23.7828
573.68	24.7126
575.421	23.8836
577.161	24.2761
578.901	23.9596
580.64	23.8265
582.379	22.6411
584.118	22.0889
585.855	21.3087
587.593	20.1555
589.331	19.5507
591.068	20.3803
592.805	20.0731
594.54	18.5678
596.277	19.3455
598.013	17.7403
599.749	17.0856
601.484	14.8098
603.217	13.4845
604.952	12.6604
606.687	12.1409
608.421	11.8855
610.153	11.351
611.886	9.78479
613.619	7.71173
615.35	6.29719
617.083	5.53176
618.815	4.61472
620.547	4.32173
622.276	4.3247
624.008	3.95813
625.738	3.29301
627.467	3.78391
629.197	3.57829
630.927	4.63007
632.655	5.83073
634.384	4.87915
636.113	5.68602
637.839	5.27187
639.568	5.38586
641.293	6.19304
643.021	6.89187
644.748	7.90456
646.473	8.65631
648.2	8.32642
649.924	8.65678
651.65	8.71346
653.376	7.95601
655.099	7.98828
656.824	8.3714
658.546	8.49444
660.271	7.47961
661.993	6.60541
663.716	6.72356
665.438	6.33702
667.161	6.9485
668.881	6.59899
670.604	7.53003
672.324	8.14293
674.045	9.27021
675.765	10.4149
677.486	10.5912
679.204	10.1772
680.925	10.7524
682.643	12.0973
684.361	11.7524
686.08	12.7407
687.797	14.2019
689.516	15.5217
691.232	17.0333
692.95	18.2257
694.666	17.5859
696.382	18.2211
698.099	16.7514
699.813	17.5243
701.528	17.7134
703.244	18.4374
704.958	18.6267
706.673	19.0255
708.387	19.5267
710.099	21.4428
711.814	23.1233
713.526	24.2689
715.238	25.0653
716.949	26.6279
718.663	28.1184
720.374	28.5378
722.084	29.9669
723.796	31.3171
725.506	33.3502
727.216	34.2033
728.925	34.2736
730.636	35.8567
732.345	36.7005
734.053	37.6173
735.761	38.3868
737.471	39.944
739.178	42.1884
740.885	43.3556
742.592	45.1029
744.298	46.9668
746.006	47.7552
747.712	50.2887
749.417	52.2944
751.122	55.0068
752.827	56.7829
754.532	58.8465
756.236	60.7606
757.942	62.2658
759.645	65.1374
761.348	66.3253
763.051	68.4495
764.753	70.4247
766.456	71.426
768.158	72.3995
769.859	73.361
771.56	73.9287
773.261	74.997
774.964	73.7127
776.664	72.3254
778.364	71.3061
780.064	70.3485
781.763	70.0559
783.462	69.1763
785.16	69.7319
786.859	68.6396
788.557	68.0179
790.255	68.7106
791.952	69.5586
793.649	69.5624
795.346	70.8271
797.042	70.1094
798.738	69.262
800.434	68.8765
802.127	68.3083
803.823	68.7007
805.517	67.6938
807.212	67.4333
808.906	67.74
810.6	68.0659
812.293	69.1205
813.987	70.1483
815.68	72.4208
817.372	73.0597
819.064	74.896
820.754	76.3579
822.446	79.2748
824.137	82.352
825.828	84.8635
827.519	87.0214
829.209	88.9317
830.897	90.1958
832.587	92.7471
834.276	94.2413
835.966	96.0322
837.654	97.3718
839.341	99.5646
841.029	100.263
842.717	101.809
844.404	103.244
846.091	102.912
847.776	103.165
849.463	101.689
851.149	100.768
852.833	99.7665
854.519	98.1739
856.204	95.7707
857.889	93.9768
859.572	91.3471
861.256	89.401
862.94	87.9564
864.622	85.8492
866.305	83.7955
867.988	80.7951
869.669	77.4093
871.351	74.9006
873.033	73.1638
874.713	70.9293
876.395	68.201
878.074	65.1255
879.755	63.4003
881.435	59.9677
883.114	57.3529
884.794	56.4517
886.471	55.5362
888.15	54.5871
889.829	52.5631
891.506	51.7834
893.184	52.1243
894.861	52.7214
896.538	52.1519
898.214	51.9654
899.891	52.8239
901.566	54.4831
903.242	57.0239
904.916	59.648
906.592	62.4516
908.266	65.3926
909.941	68.1597
911.614	70.3667
913.288	73.3665
914.961	75.3038
916.635	77.5651
918.306	79.6326
919.979	81.1248
921.651	82.5933
923.321	83.7609
924.994	83.7296
926.664	83.7437
928.336	83.7656
930.005	82.6085
931.674	82.0834
933.345	81.2034
935.014	79.9835
936.682	78.2154
938.352	76.594
940.019	75.0772
941.687	72.5352
943.356	71.1363
945.022	69.0777
946.689	66.4284
948.357	64.0539
950.022	61.7319
951.688	59.8903
953.355	57.5725
955.02	55.4882
956.684	52.4355
958.348	48.5306
960.014	45.6103
961.678	42.8911
963.341	41.2252
965.004	38.893
966.669	39.3039
968.331	39.6034
969.993	38.4663
971.655	37.4396
973.316	37.7078
974.979	37.8159
976.64	38.357
978.3	38.7282
979.961	39.0812
981.62	40.6772
983.28	42.764
984.941	44.6728
986.6	46.232
988.259	46.9281
989.917	47.4995
991.575	48.7387
993.233	49.8708
994.89	50.4176
996.547	50.7901
998.204	50.7388
999.86	51.7086
1001.52	53.1042
1003.17	53.3708
1004.83	53.1936
1006.49	55.1371
1008.14	56.7777
1009.79	58.8502
1011.45	60.7633
1013.1	62.2844
1014.76	62.9647
1016.41	62.2724
1018.06	60.4455
1019.72	59.3362
1021.37	59.939
1023.02	60.1689
1024.67	59.7672
1026.32	60.4804
1027.97	61.077
1029.62	61.9769
1031.27	62.791
1032.92	65.2049
1034.57	66.5451
1036.22	66.4076
1037.87	67.2362
1039.52	68.299
1041.17	69.9917
1042.82	70.9524
1044.47	73.7273
1046.11	75.5044
1047.76	77.7086
1049.41	80.4071
1051.06	81.3633
1052.7	82.3537
1054.35	83.4613
1055.99	84.2781
1057.64	83.3346
1059.28	83.998
1060.93	84.5085
1062.57	84.168
1064.22	84.2714
1065.86	84.5004
1067.5	83.3773
1069.15	83.1136
1070.79	82.9119
1072.43	82.9431
1074.08	84.1788
1075.72	84.2039
1077.36	83.8841
1079	83.0968
1080.64	83.6338
1082.28	84.1078
1083.92	84.3695
1085.56	83.7386
1087.2	83.4088
1088.84	84.8964
1090.48	83.8034
1092.12	82.7375
1093.76	82.2093
1095.39	80.7308
1097.03	79.1056
1098.67	77.5262
1100.31	77.4666
1101.94	79.0792
1103.58	81.1121
1105.22	81.9969
1106.85	82.8822
1108.49	83.8336
1110.12	85.595
1111.76	85.5023
1113.39	84.8295
1115.03	85.8296
1116.66	85.2053
1118.29	83.806
1119.93	83.7799
1121.56	84.1651
1123.19	82.9368
1124.82	82.054
1126.46	82.5645
1128.09	81.1663
1129.72	80.9386
1131.35	79.6804
1132.98	79.2243
1134.61	77.9593
1136.24	76.3969
1137.87	74.5239
1139.5	71.8327
1141.13	69.533
1142.76	67.2383
1144.39	63.715
1146.01	61.1816
1147.64	58.0792
1149.27	55.6606
1150.9	52.2417
1152.53	48.8958
1154.15	45.2465
1155.78	41.9421
1157.4	38.4359
1159.03	34.585
1160.65	30.8828
1162.28	28.5139
1163.9	25.6822
1165.53	22.0412
1167.15	18.9557
1168.78	17.0284
1170.4	16.2175
1172.02	13.9624
1173.65	13.7196
1175.27	13.0344
1176.89	12.1752
1178.51	11.9123
1180.14	10.7579
1181.76	10.6985
1183.38	10.7181
1185	10.7205
1186.62	10.2862
1188.24	9.85845
1189.86	10.4541
1191.48	11.3383
1193.1	11.6302
1194.71	12.0474
1196.33	14.8592
1197.95	15.8999
1199.57	17.8436
1201.19	20.0487
1202.8	22.3338
1204.42	23.9462
1206.04	27.0991
1207.65	30.341
1209.27	32.7407
1210.88	36.3724
1212.5	39.0293
1214.12	42.5816
1215.73	44.816
1217.35	46.4514
1218.96	48.2348
1220.57	49.9105
1222.19	51.9762
1223.8	54.5146
1225.41	56.4277
1227.03	58.0326
1228.64	59.4139
1230.25	61.0652
1231.86	62.1668
1233.47	64.2562
1235.08	65.5658
1236.69	66.4744
1238.31	68.6199
1239.92	68.9442
1241.52	70.1039
1243.13	70.2803
1244.74	70.2046
1246.35	70.3358
1247.96	71.3578
1249.57	72.1677
1251.18	71.4729
1252.78	70.2496
1254.39	70.3409
1256	68.796
1257.6	68.3343
1259.21	67.2555
1260.82	66.4846
1262.42	66.3582
1264.03	64.9153
1265.63	63.7366
1267.24	62.6859
1268.84	62.7947
1270.45	63.5123
1272.05	63.2554
1273.65	63.1444
1275.26	61.8776
1276.86	63.0463
1278.46	62.6021
1280.06	63.6337
1281.67	62.7951
1283.27	64.3584
1284.87	65.654
1286.47	66.6434
1288.07	68.4587
1289.67	68.9965
1291.27	71.1996
1292.87	72.0373
1294.47	74.5777
1296.07	76.1814
1297.67	77.5829
1299.27	79.8266
1300.87	82.3878
1302.47	85.0733
1304.06	87.8054
1305.66	91.4041
1307.26	94.6933
1308.85	98.9327
1310.45	102.574
1312.05	106.173
1313.64	109.088
1315.24	112.426
1316.83	115.192
1318.43	117.64
1320.02	118.204
1321.62	119.461
1323.21	120.369
1324.8	122.371
1326.4	124.532
1327.99	124.889
1329.59	125.219
1331.18	125.518
1332.77	126.063
1334.36	126.6
1335.95	126.958
1337.54	127.386
1339.14	126.842
1340.73	126.855
1342.32	126.064
1343.91	125.353
1345.5	125.537
1347.09	125.715
1348.67	125.13
1350.26	123.925
1351.85	122.263
1353.44	119.857
1355.03	117.285
1356.62	116.466
1358.2	114.839
1359.79	112.798
1361.38	110.913
1362.96	109.293
1364.55	107.188
1366.14	105.097
1367.72	104.004
1369.31	102.853
1370.89	101.324
1372.48	99.2335
1374.06	98.2993
1375.64	96.229
1377.23	95.0719
1378.81	95.4464
1380.39	94.8465
1381.98	94.8546
1383.56	94.4727
1385.14	95.051
1386.72	94.299
1388.3	93.4738
1389.89	92.6025
1391.47	91.3095
1393.05	90.0711
1394.63	88.9931
1396.21	86.9975
1397.79	84.5534
1399.37	83.6063
1400.95	82.2576
1402.52	81.8568
1404.1	81.7937
1405.68	81.2792
1407.26	79.5865
1408.84	78.968
1410.42	78.3927
1411.99	77.9713
1413.57	77.8076
1415.15	77.8864
1416.72	77.8001
1418.3	78.5306
1419.87	80.2523
1421.45	81.9398
1423.02	83.8947
1424.6	85.0915
1426.17	87.0563
1427.75	88.8887
1429.32	92.0947
1430.89	94.9457
1432.47	97.1902
1434.04	100.186
1435.61	102.56
1437.18	104.896
1438.76	107.01
1440.33	108.82
1441.9	110.124
1443.47	111.772
1445.04	112.87
1446.61	114.463
1448.18	115.825
1449.75	115.419
1451.32	115.086
1452.89	114.542
1454.46	114.822
1456.03	114.978
1457.6	113.863
1459.16	111.667
1460.73	109.698
1462.3	106.895
1463.87	103.447
1465.43	99.2907
1467	95.14
1468.56	91.437
1470.13	86.6191
1471.7	81.8692
1473.26	76.7804
1474.83	71.3877
1476.39	66.0088
1477.96	60.9479
1479.52	55.86
1481.08	52.5621
1482.65	47.6967
1484.21	42.2072
1485.77	36.477
1487.34	32.1634
1488.9	28.0835
1490.46	24.5621
1492.02	21.1439
1493.58	18.1539
1495.15	16.3058
1496.71	14.9713
1498.27	14.4681
1499.83	13.7424
1501.39	12.1042
1502.95	11.9215
1504.51	11.9509
1506.07	11.8738
1507.63	12.3461
1509.18	12.2606
1510.74	12.3704
1512.3	13.1732
1513.86	12.8127
1515.41	13.3272
1516.97	14.5847
1518.53	15.3105
1520.08	16.1993
1521.64	17.4225
1523.2	19.5057
1524.75	21.249
1526.31	22.0328
1527.86	22.4652
1529.42	23.8891
1530.97	25.5348
1532.52	27.4825
1534.08	28.2876
1535.63	28.1808
1537.19	29.0257
1538.74	30.2328
1540.29	30.9452
1541.84	31.7815
1543.4	32.0401
1544.95	32.1292
1546.5	33.208
1548.05	33.5755
1549.6	34.1172
1551.15	35.4811
1552.7	36.5538
1554.25	37.9663
1555.8	39.3433
1557.35	42.0295
1558.9	42.9014
1560.45	43.8221
1562	44.8691
1563.54	46.4058
1565.09	48.3035
1566.64	49.5649
1568.19	51.2629
1569.73	53.3642
1571.28	55.4814
1572.83	57.649
1574.37	59.3139
1575.92	61.4209
1577.47	62.598
1579.01	63.7531
1580.56	66.7781
1582.1	68.3606
1583.64	70.1589
1585.19	71.4247
1586.73	72.7
1588.28	73.1898
1589.82	74.1879
1591.36	74.6178
1592.9	75.4678
1594.45	76.3722
1595.99	76.72
1597.53	76.817
1599.07	77.5203
1600.61	77.4594
1602.15	77.0222
1603.69	76.6428
1605.23	76.2624
1606.77	75.747
1608.31	75.3678
1609.85	74.2653
1611.39	73.0571
1612.93	71.2063
1614.47	70.9969
1616.01	70.6625
1617.55	68.2991
1619.08	67.5559
1620.62	66.5717
1622.16	66.7318
1623.7	67.6071
1625.23	67.9627
1626.77	68.5741
1628.3	69.3933
1629.84	70.4285
1631.37	71.8395
1632.91	72.3938
1634.44	73.4495
1635.98	75.1356
1637.51	76.935
1639.05	78.237
1640.58	78.9834
1642.11	79.986
1643.65	81.3147
1645.18	83.2069
1646.71	85.1074
1648.24	85.7877
1649.78	86.9431
1651.31	88.009
1652.84	88.3222
1654.37	88.7528
1655.9	89.2569
1657.43	89.4385
1658.96	88.2622
1660.49	86.8099
1662.02	85.8274
1663.55	84.595
1665.08	83.2874
1666.61	81.8608
1668.14	80.8899
1669.66	78.5913
1671.19	76.9123
1672.72	75.1356
1674.25	73.3728
1675.77	70.8745
1677.3	67.6761
1678.83	65.1478
1680.35	61.6552
1681.88	58.3866
1683.4	55.2851
1684.93	52.409
1686.45	48.8224
1687.98	47.0075
1689.5	44.2492
1691.03	42.6278
1692.55	39.335
1694.07	36.6311
1695.6	35.0473
1697.12	32.9563
1698.64	31.6969
1700.17	30.3547
1701.69	28.799
1703.21	27.8574
1704.73	26.0667
1706.25	24.8949
1707.77	22.7641
1709.29	20.5761
1710.81	19.4578
1712.33	18.9279
1713.85	17.4799
1715.37	16.3167
1716.89	14.8823
1718.41	14.969
1719.93	13.672
1721.45	12.3588
1722.97	11.9775
1724.49	10.6843
1726	9.92058
1727.52	8.79583
1729.04	7.95399
1730.55	7.59977
1732.07	6.73456
1733.59	6.81766
1735.1	6.66162
1736.62	6.99242
1738.13	7.43551
1739.65	7.31597
1741.16	7.6428
1742.68	7.06805
1744.19	6.97221
1745.7	5.8201
1747.22	5.83571
1748.73	5.60262
1750.24	5.21156
1751.76	4.37273
1753.27	4.61338
1754.78	4.73845
1756.29	4.82847
1757.8	4.87792
1759.31	4.97397
1760.83	4.92116
1762.34	4.56073
1763.85	5.10589
1765.36	4.10697
1766.87	4.08888
1768.38	3.67135
1769.89	4.51787
1771.39	4.46594
1772.9	5.09015
1774.41	5.32811
1775.92	4.9403
1777.43	4.60269
1778.94	4.65481
1780.44	3.66369
1781.95	3.64153
1783.46	3.00808
1784.96	3.05442
1786.47	3.29962
1787.97	3.17154
1789.48	3.38642
1790.99	2.77833
1792.49	2.38511
1794	1.78086
1795.5	0.567555
1797	0.670428
1798.51	1.27746
1800.01	0.931402
1801.51	1.03314
1803.02	1.535
1804.52	1.81263
1806.02	2.26704
1807.53	2.69064
1809.03	3.61379
1810.53	3.23169
1812.03	3.68553
1813.53	3.23828
1815.03	3.43151
1816.53	3.85595
1818.03	3.49871
1819.53	3.07128
1821.03	3.6094
1822.53	4.23889
1824.03	4.09133
1825.53	3.87684
1827.03	4.39055
1828.53	5.35589
1830.02	5.36935
1831.52	5.45105
1833.02	5.3999
1834.52	5.47145
1836.01	5.73944
1837.51	5.99098
1839.01	6.28852
1840.5	6.40334
1842	6.84263
1843.49	6.93878
1844.99	7.25906
1846.48	7.51419
1847.98	8.05581
1849.47	7.1452
1850.97	7.82207
1852.46	7.21337
1853.95	7.12986
1855.45	6.53818
1856.94	6.01126
1858.43	4.92732
1859.93	5.03422
1861.42	4.72873
1862.91	4.26809
1864.4	3.65297
1865.89	2.65411
1867.38	2.55206
1868.87	2.16465
1870.36	2.54801
1871.85	3.1055
1873.34	3.2473
1874.83	2.95835
1876.32	2.72557
1877.81	2.22715
1879.3	2.38804
1880.79	2.38623
1882.28	2.14274
1882.52	2.31782
1884.02	2.63388
1885.51	2.91655
1887.01	2.81611
1888.5	3.03586
1889.99	2.91497
1891.49	2.10136
1892.98	2.85352
1894.47	3.52432
1895.97	3.46643
1897.46	2.8296
1898.95	2.92345
1900.44	4.19365
1901.93	4.59366
1903.42	4.55119
1904.91	4.10893
1906.4	4.64758
1907.89	4.07635
1909.38	4.29994
1910.87	4.47023
1912.36	4.14165
1913.85	3.73826
1915.34	3.8116
1916.83	4.00047
1918.32	4.53348
1919.8	4.28766
1921.29	4.39316
1922.78	3.93789
1924.27	4.46642
1925.75	3.94244
1927.24	4.00253
1928.73	4.0298
1930.21	3.78961
1931.7	4.10993
1933.18	4.65821
1934.67	3.91813
1936.15	3.7264
1937.64	3.82298
1939.12	4.12814
1940.61	4.34691
1942.09	3.85795
1943.57	3.54402
1945.06	3.64002
1946.54	3.31965
1948.02	2.91997
1949.51	2.80801
1950.99	2.78425
1952.47	3.56173
1953.95	3.38019
1955.43	3.52932
1956.91	3.58999
1958.4	3.58428
1959.88	2.89546
1961.36	2.90378
1962.84	2.9945
1964.32	2.85236
1965.8	2.69438
1967.27	2.80724
1968.75	1.93848
1970.23	1.57063
1971.71	1.78266
1973.19	2.40969
1974.67	2.70712
1976.14	2.62394
1977.62	2.07767
1979.1	2.26968
1980.58	2.38205
1982.05	1.6019
1983.53	2.02567
1985	2.3543
1986.48	2.22967
1987.95	2.98282
1989.43	3.82928
1990.9	3.85378
1992.38	4.02666
1993.85	4.27737
1995.33	4.48606
1996.8	4.34253
1998.27	4.70294
1999.75	4.8433
2001.22	4.98974
2002.69	5.38034
2004.16	5.23386
2005.64	5.21004
2007.11	5.60784
2008.58	6.00004
2010.05	5.92092
2011.52	6.84026
2012.99	6.88674
2014.46	6.44594
2015.93	6.40865
2017.4	6.36601
2018.87	6.82282
2020.34	6.59162
2021.81	6.6828
2023.28	6.73741
2024.75	6.90169
2026.22	7.31134
2027.69	6.59396
2029.15	6.39006
2030.62	6.22312
2032.09	6.14603
2033.56	6.253
2035.02	6.36528
2036.49	5.98361
2037.96	5.91115
2039.42	6.69843
2040.89	6.5943
2042.35	7.08752
2043.82	7.81239
2045.28	8.65056
2046.75	8.26984
2048.21	8.07653
2049.67	7.83936
2051.14	7.50499
2052.6	7.98071
2054.07	8.05894
2055.53	8.37617
2056.99	8.44965
2058.45	8.56973
2059.92	8.06758
2061.38	8.14422
2062.84	7.44309
2064.3	7.52056
2065.76	7.95588
2067.22	8.27394
2068.68	8.03949
2070.14	8.3175
2071.6	8.19203
2073.06	8.29104
2074.52	8.56687
2075.98	8.36295
2077.44	8.46292
2078.9	8.33482
2080.36	8.5776
2081.82	8.43209
2083.27	7.93318
2084.73	9.08398
2086.19	8.38888
2087.65	8.03521
2089.1	8.03947
2090.56	7.94186
2092.02	8.13724
2093.47	8.0085
2094.93	7.75377
2096.38	7.20164
2097.84	6.67653
2099.29	6.44469
2100.75	5.31399
2102.2	5.82855
2103.66	6.15903
2105.11	5.30493
2106.56	4.85732
2108.02	4.21489
2109.47	4.1914
2110.92	4.00874
2112.38	3.7244
2113.83	3.67654
2115.28	4.28257
2116.73	3.73092
2118.18	3.40255
2119.63	2.68284
2121.09	2.57717
2122.54	2.68072
2123.99	3.08697
2125.44	2.64525
2126.89	2.41762
2128.34	1.32663
2129.79	1.06154
2131.23	1.42253
2132.68	1.50529
2134.13	2.02106
2135.58	1.99413
2137.03	2.66888
