#Acq. time (s)=	45
#Accumulations=	2
#Range (cm-¹)=	200...3150
#Windows=	2
#Auto scanning=	Off
#Autofocus=	Off
#Macrospot=	Off
#AutoExposure=	Off
#Spike filter=	Multiple accum.
#Delay time (s)=	0
#Binning=	1
#Readout mode=	Signal
#DeNoise=	Off
#ICS correction=	On
#Dark correction=	Off
#Inst. Process=	Off
#Detector Gain=	Best Dynamic Range
#Detector ADC=	20 kHz       
#Detector temperature (°C)=	-69.85
#Instrument=	LabRAM HR Evol
#Detector=	Synapse
#Objective=	x100
#Grating=	600 gr/mm
#ND Filter=	100%
#Laser (nm)=	532 
#Hole=	100.021
#Range=	Auto
#Laser Pol.=	No
#Raman. Pol.=	No
#Laser Pol. (°)=	-0.0007625
#Raman Pol. (°)=	89.9995
#Collection=	Microscope
#StageXY=	Marzhauser
#StageZ=	Marzhauser
#X (µm)=	4773.7
#Y (µm)=	-7738.7
#Z (µm)=	584
#Full time(mm:ss)=	3:10
#Project=	
#Sample=	
#Site=	
#Title=	Thy_30_10_01_2x_45s_532 nm_x100_100%_600 gr_mm
#Remark=	
#Date=	30.06.2022 11:28
#Acquired=	30.06.2022 11:28:01
#Base:Fit=	10.08.2022 09:56:48
#Base:Fit=	10.08.2022 09:57:06
#Base:Fit=	10.08.2022 09:57:43
#Base:Fit=	10.08.2022 09:57:50
#Base:Fit=	10.08.2022 09:58:11
#Base:Sub=	10.08.2022 09:58:44
#Filter:Polynom=	16.08.2022 10:22:53
#AxisType[0]=Intens
#AxisUnit[0]=Cnt
#AxisType[1]=Spectr
#AxisUnit[1]=1/cm
200.533	62.5083
202.348	58.1591
204.162	58.6217
205.976	56.9009
207.792	54.8205
209.605	53.1074
211.418	51.7554
213.23	51.2688
215.044	49.7608
216.856	47.5898
218.667	47.3861
220.478	46.2934
222.289	44.4199
224.102	41.9763
225.912	40.6006
227.721	39.2759
229.531	38.6103
231.34	37.2244
233.148	37.0006
234.956	37.0595
236.766	36.2525
238.574	35.8802
240.381	35.8345
242.188	34.3699
243.994	33.4488
245.801	31.9923
247.606	30.9214
249.412	29.5589
251.217	29.8122
253.024	28.8746
254.828	27.253
256.632	25.5626
258.436	25.1646
260.239	25.1042
262.042	25.717
263.845	24.9101
265.647	25.3373
267.449	23.8797
269.25	23.9653
271.052	22.636
272.852	23.1651
274.653	22.8119
276.453	22.1413
278.253	22.2952
280.052	21.5013
281.852	21.5627
283.65	20.7601
285.449	20.3918
287.247	19.1216
289.044	19.7633
290.842	20.5567
292.639	22.3419
294.436	21.0698
296.232	23.3061
298.028	24.9138
299.821	25.046
301.617	24.9325
303.412	24.5611
305.206	22.4781
307	21.4411
308.794	21.5811
310.588	20.6246
312.381	20.4912
314.172	20.6548
315.964	20.8578
317.756	20.7079
319.548	21.2563
321.34	21.2713
323.131	20.865
324.921	19.6215
326.71	18.98
328.5	18.2504
330.29	16.7027
332.079	16.493
333.868	16.8764
335.654	15.8452
337.443	15.4733
339.231	16.3559
341.018	16.5467
342.804	16.2132
344.591	15.8741
346.377	15.6551
348.163	15.9607
349.947	14.2383
351.733	14.1103
353.518	13.5058
355.303	12.9579
357.085	10.9996
358.869	11.4628
360.653	10.4346
362.435	11.4361
364.218	10.5604
366.001	10.2377
367.781	11.726
369.563	12.3998
371.345	13.0887
373.124	14.9454
374.905	15.6702
376.686	17.6593
378.464	19.3314
380.244	20.0212
382.022	20.7109
383.801	19.7829
385.58	20.5596
387.357	20.6748
389.135	19.4617
390.911	20.2922
392.689	19.4068
394.466	19.1669
396.241	19.7738
398.018	19.6811
399.792	20.2749
401.568	19.8391
403.341	19.4371
405.117	18.7347
406.889	18.7232
408.664	17.7134
410.436	17.1111
412.21	15.952
413.981	15.2451
415.755	15.4578
417.525	14.8712
419.298	14.6014
421.068	15.2825
422.84	12.5933
424.609	11.1371
426.38	10.7697
428.149	10.3066
429.919	7.88325
431.688	6.74654
433.455	5.48343
435.225	4.508
436.992	3.86121
438.76	3.20098
440.527	4.65493
442.293	4.5294
444.06	3.40693
445.826	2.87233
447.593	2.67081
449.357	3.53306
451.122	3.92581
452.888	5.83011
454.651	6.37786
456.415	8.41733
458.18	9.7602
459.942	9.55235
461.705	10.7881
463.469	10.4669
465.23	10.832
466.991	9.89713
468.752	10.6682
470.515	11.353
472.275	14.0349
474.035	14.5452
475.797	14.7735
477.556	14.4904
479.315	16.9
481.073	16.4505
482.834	16.8261
484.592	16.7836
486.349	17.5807
488.106	18.9148
489.863	18.9321
491.622	19.2118
493.378	19.1731
495.134	19.5563
496.889	18.9665
498.645	19.625
500.401	20.1331
502.156	20.1408
503.91	20.78
505.664	20.5961
507.417	20.8275
509.171	20.8509
510.923	20.5431
512.678	22.6016
514.43	22.2699
516.182	22.0192
517.933	21.2806
519.684	21.2474
521.435	21.2616
523.186	21.3922
524.936	21.0589
526.686	21.7369
528.435	21.5533
530.184	20.3565
531.933	18.8555
533.682	18.7704
535.43	18.2835
537.18	19.529
538.927	18.4622
540.674	17.7859
542.421	16.8355
544.167	16.1872
545.913	14.4906
547.659	11.8989
549.403	11.7234
551.148	10.8885
552.893	10.555
554.637	11.4457
556.381	12.6219
558.125	12.3656
559.868	13.6029
561.611	11.8625
563.354	12.9274
565.097	13.5083
566.839	13.5003
568.581	12.6004
570.322	12.3105
572.063	12.0008
573.802	11.9351
575.542	10.776
577.283	10.5576
579.022	10.5364
580.762	10.1135
582.501	9.69347
584.24	10.2468
585.976	10.9744
587.714	11.7174
589.452	10.2577
591.19	10.9953
592.927	11.0594
594.663	11.0651
596.398	10.7766
598.134	11.4247
599.87	11.4878
601.605	11.3799
603.338	12.3163
605.073	11.5854
606.808	11.7737
608.542	11.3951
610.274	11.1537
612.007	11.6602
613.74	12.3247
615.473	12.0739
617.204	12.3291
618.936	11.2977
620.668	13.0046
622.397	13.2166
624.128	13.3702
625.859	12.9926
627.588	14.1815
629.318	16.3556
631.048	15.6394
632.775	16.3024
634.505	17.7336
636.233	20.5018
637.96	21.3293
639.688	21.7555
641.416	23.343
643.142	24.2553
644.869	26.3304
646.594	27.7964
648.32	28.7885
650.045	29.3167
651.771	29.5515
653.496	30.5639
655.219	31.3952
656.944	30.939
658.667	31.0806
660.391	30.9535
662.113	31.3737
663.837	31.8667
665.558	32.0541
667.281	32.9538
669.002	34.7961
670.724	35.4751
672.444	36.8913
674.166	37.6404
675.885	38.1237
677.606	40.3393
679.325	41.006
681.045	41.7062
682.763	43.0816
684.483	45.5514
686.2	45.9937
687.917	47.2332
689.636	46.7624
691.352	46.0723
693.07	46.5121
694.786	47.6561
696.501	48.8506
698.219	50.8015
699.933	52.1369
701.65	51.7881
703.364	52.5921
705.078	53.518
706.793	55.3263
708.506	55.6363
710.219	56.294
711.934	57.5566
713.646	59.0465
715.358	58.9784
717.071	59.0383
718.782	61.1535
720.493	61.5612
722.204	62.8754
723.916	63.4795
725.626	64.6333
727.336	66.4951
729.045	67.6325
730.756	69.062
732.464	69.956
734.173	71.4075
735.881	72.3469
737.59	73.3989
739.297	74.6375
741.004	74.4683
742.711	75.2931
744.417	75.5804
746.125	76.4973
747.831	77.3837
749.537	79.1277
751.242	81.3311
752.946	84.0413
754.651	85.6251
756.357	87.2009
758.061	89.7794
759.764	90.742
761.467	92.6754
763.17	94.7253
764.872	96.4954
766.575	99.0183
768.276	100.612
769.978	103.741
771.679	103.325
773.382	105.777
775.083	107.684
776.783	109.321
778.483	111.849
780.182	114.246
781.882	115.859
783.581	118.614
785.279	120.309
786.978	121.095
788.676	124.07
790.373	127.139
792.071	129.523
793.768	133.041
795.464	135.776
797.161	138.052
798.857	139.623
800.552	141.537
802.248	143.87
803.941	145.358
805.636	146.446
807.33	148.537
809.024	148.848
810.718	149.819
812.412	151.606
814.105	152.837
815.798	152.605
817.49	154.018
819.183	153.566
820.873	153.819
822.564	153.354
824.256	152.406
825.947	150.64
827.637	149.297
829.328	147.367
831.016	146.796
832.705	145.856
834.395	147.557
836.084	145.988
837.772	145.594
839.459	143.891
841.147	142.937
842.835	139.986
844.522	138.573
846.209	137.473
847.894	136.578
849.581	135.478
851.267	132.467
852.953	130.287
854.637	129.339
856.322	126.739
858.007	126.007
859.689	124.43
861.374	121.682
863.058	119.959
864.739	117.551
866.423	117.137
868.106	117.066
869.787	116.115
871.469	115.808
873.151	115.002
874.831	114.96
876.512	114.331
878.193	114.174
879.872	112.756
881.553	111.938
883.231	110.084
884.911	110.134
886.591	109.577
888.268	107.809
889.947	107.741
891.623	106.792
893.302	106.141
894.978	106.076
896.656	105.471
898.331	105.16
900.008	104.205
901.683	104.558
903.359	103.935
905.033	102.497
906.709	100.906
908.383	98.8228
910.058	98.4051
911.731	98.1419
913.405	98.0247
915.078	99.2713
916.752	98.812
918.423	99.1515
920.096	96.9734
921.768	96.6745
923.438	95.2421
925.111	93.6159
926.781	91.8901
928.452	92.7238
930.122	91.9054
931.791	90.7725
933.462	89.517
935.13	88.5901
936.799	89.4518
938.468	88.2483
940.136	86.7708
941.803	84.4456
943.472	82.5911
945.139	79.9755
946.805	78.2194
948.473	77.7622
950.139	76.7892
951.804	75.5944
953.471	72.516
955.136	70.7041
956.801	69.015
958.465	67.1469
960.131	64.3949
961.794	61.5771
963.458	59.7856
965.12	56.7807
966.785	55.0892
968.447	56.2553
970.109	55.8356
971.771	54.0215
973.432	54.5297
975.095	53.885
976.756	53.2929
978.417	51.8509
980.077	50.9421
981.737	50.6192
983.396	49.0526
985.057	47.1988
986.716	45.8944
988.375	43.5795
990.033	43.8175
991.691	42.578
993.349	42.4272
995.006	41.4812
996.663	40.9067
998.32	41.7174
999.976	41.5971
1001.63	40.6322
1003.29	40.1862
1004.95	39.8818
1006.6	40.3944
1008.26	40.5311
1009.91	40.3694
1011.56	40.1181
1013.22	37.9276
1014.87	37.5683
1016.53	38.6979
1018.18	38.2722
1019.83	37.1469
1021.48	37.4366
1023.14	36.97
1024.79	36.3908
1026.44	36.4219
1028.09	36.8474
1029.74	37.1604
1031.39	37.857
1033.04	37.2728
1034.69	37.7393
1036.34	35.6085
1037.99	37.122
1039.64	36.6056
1041.29	35.0107
1042.94	35.7598
1044.58	36.2872
1046.23	38.7144
1047.88	38.7281
1049.52	39.1141
1051.17	38.9248
1052.82	37.5326
1054.46	36.7789
1056.11	37.6027
1057.75	35.8225
1059.4	34.1177
1061.04	31.6394
1062.69	29.7837
1064.33	28.3644
1065.98	27.4527
1067.62	25.7219
1069.26	25.4123
1070.9	24.7627
1072.55	23.4101
1074.19	22.2805
1075.83	21.4651
1077.47	21.6926
1079.11	22.2459
1080.76	23.3491
1082.4	23.2194
1084.04	22.2269
1085.68	22.4219
1087.32	22.374
1088.95	21.2926
1090.59	20.0024
1092.23	18.4793
1093.87	19.0541
1095.51	19.1988
1097.15	21.8203
1098.78	22.5863
1100.42	22.2948
1102.06	23.5771
1103.69	25.2935
1105.33	24.9303
1106.97	25.9093
1108.6	26.7589
1110.24	27.2776
1111.87	27.4569
1113.51	28.9772
1115.14	28.9564
1116.77	27.7188
1118.41	26.6626
1120.04	26.2388
1121.67	23.7554
1123.31	22.5468
1124.94	22.0522
1126.57	20.4605
1128.2	20.2556
1129.83	18.6145
1131.47	17.6462
1133.1	17.2911
1134.72	17.1511
1136.36	16.035
1137.98	14.692
1139.62	11.9939
1141.24	10.9524
1142.87	9.1012
1144.5	9.07392
1146.13	9.96099
1147.76	10.0576
1149.38	8.39597
1151.01	7.75671
1152.64	6.4402
1154.27	4.83817
1155.89	5.88306
1157.52	5.13057
1159.14	6.59318
1160.77	6.01997
1162.39	5.29358
1164.02	4.07812
1165.64	4.10017
1167.27	3.86566
1168.89	5.04571
1170.51	4.12059
1172.14	5.88258
1173.76	6.47364
1175.38	7.85412
1177	8.74353
1178.63	9.3893
1180.25	8.55686
1181.87	9.68773
1183.49	11.1103
1185.11	11.7413
1186.73	12.0004
1188.35	12.5987
1189.97	12.0521
1191.59	12.2299
1193.21	13.8342
1194.83	14.3403
1196.45	13.528
1198.07	13.5251
1199.68	14.4226
1201.3	15.029
1202.92	15.9494
1204.53	16.9635
1206.15	19.0469
1207.77	21.3358
1209.38	22.7486
1211	22.5843
1212.62	22.9708
1214.23	23.5348
1215.84	24.6226
1217.46	25.5354
1219.07	27.4931
1220.69	28.4267
1222.3	29.1917
1223.91	30.0326
1225.53	31.2482
1227.14	31.5158
1228.75	31.0573
1230.36	31.5793
1231.97	32.9031
1233.59	33.5406
1235.2	35.0171
1236.81	35.4583
1238.42	35.6891
1240.03	36.2635
1241.64	35.9569
1243.25	37.6049
1244.85	38.9604
1246.46	40.0665
1248.07	39.9619
1249.68	40.758
1251.29	41.4409
1252.9	43.5425
1254.5	43.414
1256.11	45.2076
1257.72	46.4093
1259.32	45.9789
1260.93	46.4937
1262.54	48.5403
1264.14	49.3615
1265.75	50.2631
1267.35	51.0458
1268.96	51.2337
1270.56	52.6639
1272.16	53.2143
1273.77	53.5741
1275.37	53.3055
1276.97	54.1373
1278.57	55.088
1280.18	56.3719
1281.78	57.1195
1283.38	57.478
1284.98	58.583
1286.58	60.1084
1288.18	60.5852
1289.78	60.7945
1291.38	60.6442
1292.99	63.0893
1294.58	63.4216
1296.18	63.3322
1297.78	63.9091
1299.38	65.3982
1300.98	64.5457
1302.58	65.0976
1304.17	65.7054
1305.77	67.2651
1307.37	68.5479
1308.97	69.5654
1310.56	71.3189
1312.16	71.988
1313.76	71.9884
1315.35	71.7628
1316.95	71.6294
1318.54	72.6798
1320.14	72.3832
1321.73	72.7924
1323.32	72.7601
1324.92	72.1657
1326.51	71.5794
1328.1	72.3682
1329.7	73.9496
1331.29	74.3777
1332.88	74.4547
1334.47	73.1626
1336.07	72.7897
1337.66	72.6176
1339.25	71.2414
1340.84	72.4194
1342.43	72.5019
1344.02	71.3405
1345.61	69.7104
1347.2	67.3481
1348.79	65.2139
1350.37	63.5386
1351.96	61.1961
1353.55	59.7947
1355.14	58.8412
1356.73	57.8874
1358.31	56.5783
1359.9	54.8368
1361.49	52.3101
1363.07	50.2971
1364.66	48.7761
1366.25	47.8068
1367.83	46.7611
1369.42	44.968
1371	43.3342
1372.59	42.4675
1374.17	40.0609
1375.75	39.474
1377.34	39.9943
1378.92	39.8869
1380.5	38.2784
1382.09	39.1564
1383.67	39.292
1385.25	39.4428
1386.83	38.7054
1388.42	37.3003
1390	36.1506
1391.58	35.9451
1393.16	35.5197
1394.74	34.6645
1396.32	33.4121
1397.9	33.0952
1399.48	33.5804
1401.06	33.4546
1402.64	32.8975
1404.21	32.8919
1405.79	33.0982
1407.37	34.1331
1408.95	35.0087
1410.53	34.5114
1412.1	36.0957
1413.68	36.3802
1415.26	37.4726
1416.83	40.3654
1418.41	40.98
1419.98	43.4321
1421.56	44.5244
1423.13	46.1001
1424.71	47.535
1426.28	48.9819
1427.86	51.1879
1429.43	53.2942
1431	56.2188
1432.58	58.9912
1434.15	61.7218
1435.72	62.9539
1437.29	63.5009
1438.87	63.9925
1440.44	65.6342
1442.01	67.5834
1443.58	68.9301
1445.15	69.44
1446.72	70.0386
1448.29	70.167
1449.86	70.6449
1451.43	70.0844
1453	69.8815
1454.57	70.8808
1456.14	70.4154
1457.71	69.1556
1459.27	67.5253
1460.84	66.0848
1462.41	63.9343
1463.98	60.6407
1465.54	60.1522
1467.11	56.0669
1468.67	52.9427
1470.24	51.5987
1471.81	48.3102
1473.37	44.389
1474.94	41.347
1476.5	39.1262
1478.07	35.9311
1479.63	31.9287
1481.19	29.9643
1482.76	27.6003
1484.32	26.2521
1485.88	24.6248
1487.45	22.334
1489.01	20.2538
1490.57	19.0937
1492.13	16.9793
1493.69	16.3194
1495.26	16.1623
1496.82	15.5845
1498.38	14.6623
1499.94	14.0547
1501.5	12.8873
1503.06	11.4909
1504.62	10.0374
1506.17	10.7153
1507.73	10.302
1509.29	9.75898
1510.85	9.23522
1512.41	7.81118
1513.97	7.15237
1515.52	6.71621
1517.08	6.94104
1518.64	8.07761
1520.19	7.3506
1521.75	7.03516
1523.31	8.03293
1524.86	9.47768
1526.42	10.1152
1527.97	10.2056
1529.52	10.9696
1531.08	13.5352
1532.63	14.5734
1534.19	14.2949
1535.74	14.6206
1537.29	15.5982
1538.85	16.9501
1540.4	19.0464
1541.95	20.2881
1543.5	23.812
1545.06	24.2295
1546.61	27.1307
1548.16	30.7297
1549.71	32.4373
1551.26	33.961
1552.81	35.9377
1554.36	39.2381
1555.91	42.0717
1557.46	45.3019
1559.01	48.1355
1560.56	50.1403
1562.11	52.2837
1563.65	54.2007
1565.2	54.7716
1566.75	56.7579
1568.29	58.1222
1569.84	60.0502
1571.39	61.9537
1572.94	63.1811
1574.48	64.3639
1576.03	64.0067
1577.57	65.9182
1579.12	67.228
1580.66	67.908
1582.21	69.3445
1583.75	70.4765
1585.3	70.6221
1586.84	71.4273
1588.38	72.3153
1589.93	71.9066
1591.47	70.9016
1593.01	68.922
1594.55	68.7462
1596.1	68.6766
1597.64	68.2343
1599.18	67.2788
1600.72	66.7936
1602.26	65.7004
1603.8	63.5891
1605.34	62.4534
1606.88	62.4995
1608.42	61.8395
1609.96	59.2814
1611.5	58.5231
1613.04	58.0355
1614.58	57.1218
1616.12	57.5245
1617.65	57.8203
1619.19	57.1856
1620.73	58.4091
1622.27	57.2854
1623.8	56.8947
1625.34	57.8484
1626.87	57.6132
1628.41	58.009
1629.95	58.4286
1631.48	59.9472
1633.02	59.9761
1634.55	61.0957
1636.09	61.7707
1637.62	62.5454
1639.15	63.1171
1640.69	64.0583
1642.22	65.6301
1643.76	69.0108
1645.29	71.4613
1646.82	72.4733
1648.35	73.8287
1649.88	74.7522
1651.42	76.4908
1652.95	78.0921
1654.48	79.7032
1656.01	80.8246
1657.54	81.4212
1659.07	81.9498
1660.6	81.8048
1662.13	82.0053
1663.66	81.8072
1665.19	80.6301
1666.72	79.8601
1668.24	78.3231
1669.77	78.3782
1671.3	77.6654
1672.83	76.2846
1674.35	74.2221
1675.88	71.6192
1677.41	69.7656
1678.93	67.4804
1680.46	65.1458
1681.99	62.949
1683.51	59.8057
1685.04	56.4812
1686.56	53.6551
1688.09	51.289
1689.61	48.9765
1691.13	46.4233
1692.66	44.3255
1694.18	42.0787
1695.71	40.9305
1697.23	38.4785
1698.75	35.5229
1700.27	33.5525
1701.8	31.7423
1703.32	28.4139
1704.84	25.8561
1706.36	24.1322
1707.88	22.6852
1709.4	21.0703
1710.92	19.5121
1712.44	17.9117
1713.96	16.2803
1715.48	14.9343
1717	14.6905
1718.52	14.2886
1720.04	12.9766
1721.56	10.4464
1723.07	8.95354
1724.59	8.83375
1726.11	8.92956
1727.63	8.47303
1729.14	7.53504
1730.66	7.44167
1732.18	7.22301
1733.69	6.83042
1735.21	6.79325
1736.72	7.64204
1738.24	7.68244
1739.75	7.34407
1741.27	7.22967
1742.78	7.46731
1744.3	6.79498
1745.81	7.43476
1747.32	7.31689
1748.84	8.11703
1750.35	8.06259
1751.86	7.74523
1753.37	6.57954
1754.89	7.01185
1756.4	7.01637
1757.91	6.2693
1759.42	6.41948
1760.93	7.14197
1762.44	7.3214
1763.95	7.8576
1765.46	8.38309
1766.97	8.50533
1768.48	8.41462
1769.99	8.77999
1771.5	8.79383
1773.01	6.83875
1774.52	6.38389
1776.03	6.39467
1777.53	5.28997
1779.04	4.24226
1780.55	4.14026
1782.06	3.94015
1783.56	3.16679
1785.07	3.10512
1786.57	2.2579
1788.08	2.03306
1789.59	2.21535
1791.09	1.86317
1792.6	2.31174
1794.1	2.21672
1795.6	2.35338
1797.11	2.05429
1798.61	2.05658
1800.12	2.1759
1801.62	2.68947
1803.12	2.65716
1804.63	3.48957
1806.13	4.96332
1807.63	5.38493
1809.13	6.12391
1810.63	5.75489
1812.14	6.32181
1813.64	5.90641
1815.14	5.72363
1816.64	5.85081
1818.14	5.99626
1819.64	5.9999
1821.14	6.05855
1822.64	6.00534
1824.14	5.90808
1825.63	5.08216
1827.13	5.01801
1828.63	4.7287
1830.13	5.35666
1831.63	5.62446
1833.12	5.73105
1834.62	5.26124
1836.12	4.53586
1837.62	4.45169
1839.11	4.95373
1840.61	3.78033
1842.1	3.91285
1843.6	3.17094
1845.09	2.82921
1846.59	2.56647
1848.08	2.2947
1849.58	2.02516
1851.07	1.62577
1852.57	0.550032
1854.06	1.44588
1855.55	1.8376
1857.04	2.34281
1858.54	2.26827
1860.03	3.06215
1861.52	4.00435
1863.01	3.77508
1864.5	4.07166
1866	3.45015
1867.49	4.16701
1868.98	4.5327
1870.47	5.06966
1871.96	5.32907
1873.45	5.66511
1874.94	6.17018
1876.43	6.61408
1877.92	7.05824
1879.41	6.89101
1880.89	6.30748
1882.38	5.25231
1882.48	4.49169
1883.97	4.29345
1885.47	5.64455
1886.96	5.09859
1888.46	4.65571
1889.95	4.17128
1891.44	3.83731
1892.94	3.78409
1894.43	3.74377
1895.92	4.13419
1897.41	4.02223
1898.9	4.09541
1900.4	4.92137
1901.89	5.03378
1903.38	5.31131
1904.87	4.67398
1906.36	4.52577
1907.85	3.66539
1909.34	3.5203
1910.83	4.36387
1912.32	3.75407
1913.81	3.34214
1915.29	3.40072
1916.78	2.66382
1918.27	2.58544
1919.76	3.36289
1921.25	4.24738
1922.74	3.40915
1924.22	4.04574
1925.71	4.66099
1927.2	5.32053
1928.68	5.79189
1930.17	6.48763
1931.65	6.95701
1933.14	7.061
1934.63	6.59354
1936.11	5.04402
1937.59	4.82537
1939.08	4.80194
1940.56	5.43197
1942.05	5.40609
1943.53	5.56196
1945.01	5.19747
1946.5	5.06493
1947.98	5.21559
1949.46	4.949
1950.94	4.91312
1952.43	3.85692
1953.91	3.30178
1955.39	3.81214
1956.87	4.30404
1958.35	4.86524
1959.83	4.63178
1961.31	3.84455
1962.79	3.53895
1964.27	4.00553
1965.75	4.2279
1967.23	4.11806
1968.71	4.16642
1970.19	3.93505
1971.67	3.90605
1973.14	4.72335
1974.62	4.32237
1976.1	4.17162
1977.58	3.77965
1979.05	3.24506
1980.53	4.19732
1982.01	3.81383
1983.48	4.93922
1984.96	5.2896
1986.43	4.43761
1987.91	4.08679
1989.38	4.27773
1990.86	4.19675
1992.33	4.89504
1993.81	5.56973
1995.28	5.46572
1996.76	5.5927
1998.23	6.43293
1999.7	6.56661
2001.18	6.39209
2002.65	5.8226
2004.12	5.33839
2005.59	5.38968
2007.06	4.50995
2008.54	4.2914
2010.01	3.79951
2011.48	3.72145
2012.95	5.05315
2014.42	5.7462
2015.89	6.28312
2017.36	6.44386
2018.83	7.09276
2020.3	6.73649
2021.77	6.94207
2023.24	6.61266
2024.71	6.7043
2026.17	6.6017
2027.64	7.47213
2029.11	8.5252
2030.58	8.48613
2032.04	8.37124
2033.51	8.59102
2034.98	9.39499
2036.45	9.58889
2037.91	9.37791
2039.38	9.14391
2040.84	9.21481
2042.31	9.44867
2043.77	9.3108
2045.24	10.4909
2046.7	10.6582
2048.17	10.1057
2049.63	11.2139
2051.1	11.9707
2052.56	12.0838
2054.02	13.4329
2055.48	13.7581
2056.95	14.834
2058.41	13.9671
2059.87	13.8943
2061.33	14.8949
2062.8	15.9962
2064.26	16.0133
2065.72	17.1786
2067.18	16.6317
2068.64	16.3481
2070.1	16.7245
2071.56	16.4512
2073.02	16.2966
2074.48	16.266
2075.94	16.5844
2077.4	17.8504
2078.86	18.4533
2080.31	18.3634
2081.77	18.6073
2083.23	19.304
2084.69	21.4671
2086.14	23.0583
2087.6	23.5938
2089.06	22.9593
2090.52	23.2284
2091.97	24.0312
2093.43	24.3082
2094.88	25.0813
2096.34	25.2873
2097.79	26.278
2099.25	27.7533
2100.7	28.0924
2102.16	28.3631
2103.61	27.8679
2105.07	29.2754
2106.52	30.646
2107.97	31.2337
2109.43	31.8636
2110.88	31.3363
2112.33	33.112
2113.78	33.4804
2115.24	33.7361
2116.69	34.9933
2118.14	36.6912
2119.59	37.4149
2121.04	38.6183
2122.49	40.0625
