#Acq. time (s)=	45
#Accumulations=	2
#Range (cm-¹)=	200...3150
#Windows=	2
#Auto scanning=	Off
#Autofocus=	Off
#Macrospot=	Off
#AutoExposure=	Off
#Spike filter=	Multiple accum.
#Delay time (s)=	0
#Binning=	1
#Readout mode=	Signal
#DeNoise=	Off
#ICS correction=	On
#Dark correction=	Off
#Inst. Process=	Off
#Detector Gain=	Best Dynamic Range
#Detector ADC=	20 kHz       
#Detector temperature (°C)=	-69.85
#Instrument=	LabRAM HR Evol
#Detector=	Synapse
#Objective=	x100
#Grating=	600 gr/mm
#ND Filter=	100%
#Laser (nm)=	532 
#Hole=	100.021
#Range=	Auto
#Laser Pol.=	No
#Raman. Pol.=	No
#Laser Pol. (°)=	-0.0007625
#Raman Pol. (°)=	89.9995
#Collection=	Microscope
#StageXY=	Marzhauser
#StageZ=	Marzhauser
#X (µm)=	8998.5
#Y (µm)=	-3084.5
#Z (µm)=	-54.85
#Full time(mm:ss)=	3:14
#Project=	
#Sample=	
#Site=	
#Title=	Thy_00_07_2_2x_45s_532 nm_x100_100%_600 gr_mm
#Remark=	
#Date=	28.06.2022 10:02
#Acquired=	28.06.2022 10:02:35
#Base:Fit=	10.08.2022 10:07:56
#Base:Sub=	10.08.2022 10:08:40
#Filter:Polynom=	16.08.2022 10:26:06
#AxisType[0]=Intens
#AxisUnit[0]=Cnt
#AxisType[1]=Spectr
#AxisUnit[1]=1/cm
200.407	15.9616
202.221	13.0318
204.035	11.4913
205.849	10.6408
207.665	9.67064
209.478	8.5578
211.291	7.71648
213.104	6.96773
214.916	6.10335
216.73	5.06821
218.541	4.50933
220.352	4.30409
222.163	3.80334
223.973	2.55773
225.785	1.93324
227.595	1.62898
229.404	1.37672
231.213	1.00648
233.022	0.439902
234.83	0.332234
236.638	0.166743
238.448	0.326117
240.255	0.175751
242.062	0.200876
243.868	0.352965
245.675	0.387883
247.48	0.879947
249.286	1.3967
251.091	2.66706
252.896	3.09432
254.702	2.93284
256.506	2.60411
258.31	2.20012
260.113	2.21078
261.916	1.9999
263.719	2.68657
265.521	3.26026
267.323	2.59848
269.125	2.40991
270.926	1.70573
272.727	1.70729
274.527	2.36514
276.328	2.11618
278.127	2.40552
279.927	2.56665
281.726	2.52824
283.525	2.52041
285.323	3.72195
287.121	3.8807
288.919	4.37392
290.716	4.88933
292.513	4.63419
294.31	4.07988
296.104	3.81581
297.9	4.22187
299.696	4.86535
301.491	5.18287
303.286	5.85192
305.081	5.49655
306.875	5.43406
308.669	5.34956
310.463	5.54639
312.256	5.19633
314.047	6.54172
315.839	7.18142
317.631	7.3574
319.423	8.2452
321.215	8.79286
323.006	9.2982
324.794	9.8253
326.585	9.72651
328.375	10.6542
330.165	10.8706
331.954	11.6117
333.741	12.2459
335.53	12.3083
337.318	11.9507
339.106	11.2771
340.894	12.2011
342.679	11.7108
344.466	10.5241
346.253	10.6222
348.039	10.5665
349.823	10.5233
351.608	9.59073
353.393	10.1377
355.176	9.35705
356.961	8.62
358.745	8.6952
360.529	8.21453
362.31	7.65278
364.093	7.57161
365.876	6.91083
367.657	6.13527
369.439	5.84918
371.221	5.26736
373	5.17738
374.781	4.5137
376.56	3.47888
378.34	2.6304
380.12	1.84623
381.898	1.93135
383.677	0.925744
385.456	1.07799
387.233	1.02165
389.011	1.16721
390.787	1.75559
392.565	1.10513
394.34	0.858885
396.117	1.69578
397.894	1.85551
399.668	2.13992
401.444	2.1999
403.217	2.77306
404.993	2.49002
406.766	2.39706
408.54	3.31503
410.312	2.93404
412.086	3.52027
413.858	3.73784
415.631	4.31448
417.402	5.38317
419.174	5.35037
420.944	5.05821
422.716	5.00645
424.486	4.55417
426.257	4.47181
428.025	4.95051
429.794	5.14993
431.564	4.48571
433.332	3.79117
435.101	4.12939
436.868	4.21823
438.637	4.70183
440.403	4.50685
442.169	5.57055
443.937	4.8343
445.703	5.12816
447.468	5.33904
449.234	5.4401
450.999	5.07706
452.765	5.80737
454.528	5.53613
456.292	5.38116
458.057	6.17091
459.819	5.91042
461.582	7.28827
463.344	7.93376
465.107	8.88301
466.868	9.39907
468.629	10.0737
470.392	10.754
472.152	11.4397
473.912	12.3921
475.672	13.8005
477.433	15.1157
479.192	15.9623
480.951	16.3005
482.709	17.307
484.469	17.492
486.226	17.4188
487.984	18.7006
489.74	19.1886
491.499	19.7597
493.255	21.0697
495.011	21.6256
496.767	22.781
498.522	23.0923
500.277	24.2739
502.033	24.2021
503.788	24.9974
505.541	25.0809
507.295	24.646
509.048	24.5435
510.801	25.0469
512.553	25.3686
514.308	24.967
516.06	24.0555
517.811	23.0228
519.562	23.077
521.313	22.3358
523.063	22.7544
524.814	22.2924
526.563	22.1747
528.313	21.2106
530.062	20.6091
531.811	19.1661
533.559	18.2904
535.308	18.3533
537.055	17.6572
538.803	16.3438
540.55	16.1078
542.297	15.5494
544.043	15.5349
545.789	15.3401
547.535	14.8905
549.281	15.1015
551.026	14.4021
552.771	14.1274
554.515	14.4307
556.259	13.5796
558.003	13.1427
559.747	13.0917
561.49	12.5719
563.233	12.6655
564.975	11.892
566.717	11.4809
568.459	10.5596
570.2	9.7459
571.942	9.02881
573.68	8.50251
575.421	8.5143
577.161	7.18045
578.901	7.7051
580.64	7.99011
582.379	7.50782
584.118	7.0921
585.855	6.47721
587.593	7.05785
589.331	6.42188
591.068	6.52145
592.805	5.89644
594.54	5.47693
596.277	5.0859
598.013	4.79999
599.749	4.34504
601.484	2.92977
603.217	2.59063
604.952	2.01363
606.687	2.47862
608.421	2.19495
610.153	2.32616
611.886	2.17477
613.619	2.11878
615.35	2.58704
617.083	1.95742
618.815	1.55354
620.547	1.06539
622.276	1.65108
624.008	1.65528
625.738	1.78587
627.467	2.91377
629.197	3.36011
630.927	4.02817
632.655	3.66979
634.384	3.73824
636.113	4.32128
637.839	5.50141
639.568	6.23298
641.293	6.9017
643.021	6.04421
644.748	7.50849
646.473	8.03242
648.2	8.11584
649.924	8.40389
651.65	8.94318
653.376	9.72674
655.099	9.73955
656.824	9.97253
658.546	11.0674
660.271	12.0803
661.993	12.4934
663.716	12.5939
665.438	13.0514
667.161	12.6654
668.881	12.9818
670.604	12.8455
672.324	12.7875
674.045	12.8707
675.765	12.2314
677.486	12.2207
679.204	12.111
680.925	12.0235
682.643	12.7595
684.361	13.1051
686.08	13.7404
687.797	14.2807
689.516	15.763
691.232	16.9148
692.95	18.9136
694.666	19.6838
696.382	20.5098
698.099	21.431
699.813	21.3512
701.528	21.9051
703.244	21.6021
704.958	22.7007
706.673	23.9574
708.387	24.865
710.099	25.338
711.814	25.816
713.526	25.9794
715.238	26.4092
716.949	27.2858
718.663	28.5179
720.374	29.7084
722.084	32.3033
723.796	33.1837
725.506	34.6052
727.216	35.6213
728.925	36.2846
730.636	37.4919
732.345	37.378
734.053	38.4029
735.761	39.3178
737.471	40.1543
739.178	40.5585
740.885	41.258
742.592	42.7708
744.298	44.0183
746.006	44.5697
747.712	44.6508
749.417	46.2213
751.122	46.8504
752.827	47.3485
754.532	48.2094
756.236	49.246
757.942	50.5956
759.645	51.8962
761.348	53.7444
763.051	55.1366
764.753	56.706
766.456	58.2308
768.158	59.4251
769.859	60.2606
771.56	62.2434
773.261	63.9252
774.964	65.075
776.664	65.7972
778.364	66.1959
780.064	65.9617
781.763	66.3273
783.462	66.8078
785.16	66.2707
786.859	67.6306
788.557	67.6067
790.255	67.8043
791.952	68.8691
793.649	68.1295
795.346	67.9982
797.042	68.5255
798.738	68.857
800.434	69.7655
802.127	69.9631
803.823	70.6808
805.517	70.0044
807.212	69.7198
808.906	69.2925
810.6	69.4065
812.293	68.3696
813.987	68.3359
815.68	68.1874
817.372	68.4681
819.064	68.5424
820.754	69.0298
822.446	69.4326
824.137	70.1434
825.828	70.9992
827.519	71.9219
829.209	71.9185
830.897	71.6269
832.587	72.2113
834.276	72.8871
835.966	72.6206
837.654	72.6624
839.341	72.2597
841.029	72.6041
842.717	72.3731
844.404	72.2075
846.091	71.5774
847.776	70.8026
849.463	69.5705
851.149	68.144
852.833	67.27
854.519	67.476
856.204	67.1157
857.889	65.6221
859.572	63.4748
861.256	62.2855
862.94	61.3881
864.622	59.9896
866.305	59.2749
867.988	58.1454
869.669	56.3019
871.351	55.6482
873.033	54.2105
874.713	53.4301
876.395	52.424
878.074	50.0077
879.755	48.6765
881.435	47.8574
883.114	47.0916
884.794	45.5183
886.471	45.0229
888.15	44.6691
889.829	42.4168
891.506	42.5333
893.184	42.4984
894.861	41.8684
896.538	41.2631
898.214	41.3962
899.891	41.2348
901.566	41.1704
903.242	41.0866
904.916	41.2024
906.592	41.238
908.266	41.4179
909.941	41.3193
911.614	41.8416
913.288	41.3202
914.961	40.9995
916.635	41.9217
918.306	42.0187
919.979	42.1372
921.651	42.0391
923.321	42.2584
924.994	43.2675
926.664	43.9522
928.336	44.274
930.005	44.2388
931.674	44.2905
933.345	44.1236
935.014	44.8976
936.682	45.9615
938.352	46.135
940.019	45.6134
941.687	45.0137
943.356	45.12
945.022	45.2932
946.689	45.6913
948.357	45.299
950.022	45.7731
951.688	46.0306
953.355	46.0542
955.02	46.0918
956.684	45.3552
958.348	44.1663
960.014	42.9195
961.678	41.7025
963.341	40.8496
965.004	41.614
966.669	42.2356
968.331	42.632
969.993	43.7368
971.655	43.6367
973.316	43.1314
974.979	45.2067
976.64	44.8842
978.3	44.3809
979.961	44.048
981.62	45.0831
983.28	44.1429
984.941	43.9079
986.6	42.6499
988.259	42.1503
989.917	41.582
991.575	40.3203
993.233	39.0897
994.89	39.311
996.547	38.7574
998.204	39.1077
999.86	39.3558
1001.52	38.4551
1003.17	38.5134
1004.83	38.8733
1006.49	38.6737
1008.14	37.8026
1009.79	37.8913
1011.45	36.996
1013.1	36.3115
1014.76	36.1635
1016.41	35.948
1018.06	35.9725
1019.72	35.1831
1021.37	34.16
1023.02	33.7925
1024.67	33.0025
1026.32	32.2359
1027.97	32.4017
1029.62	32.6041
1031.27	31.9707
1032.92	31.3091
1034.57	30.0055
1036.22	28.4423
1037.87	26.9011
1039.52	25.3255
1041.17	24.7983
1042.82	24.323
1044.47	25.0723
1046.11	26.5227
1047.76	27.6378
1049.41	27.8337
1051.06	28.1513
1052.7	26.9272
1054.35	26.5732
1055.99	26.2957
1057.64	25.9663
1059.28	24.4392
1060.93	24.1674
1062.57	24.0497
1064.22	23.5052
1065.86	22.2044
1067.5	21.2903
1069.15	20.1142
1070.79	20.3579
1072.43	19.8253
1074.08	20.4654
1075.72	20.4699
1077.36	20.7481
1079	19.9294
1080.64	19.4008
1082.28	18.9885
1083.92	19.1278
1085.56	19.5823
1087.2	19.5994
1088.84	19.552
1090.48	19.459
1092.12	19.7562
1093.76	19.8348
1095.39	20.6748
1097.03	21.0477
1098.67	20.7211
1100.31	20.9956
1101.94	20.6629
1103.58	20.6909
1105.22	20.569
1106.85	20.2844
1108.49	20.6249
1110.12	20.3752
1111.76	18.9899
1113.39	18.7211
1115.03	18.0191
1116.66	17.0128
1118.29	16.3718
1119.93	15.8809
1121.56	14.899
1123.19	15.031
1124.82	14.6464
1126.46	13.2045
1128.09	12.1429
1129.72	10.4462
1131.35	9.90734
1132.98	8.64059
1134.61	8.11339
1136.24	7.87776
1137.87	7.03628
1139.5	6.69688
1141.13	7.22731
1142.76	7.5669
1144.39	6.8725
1146.01	6.35712
1147.64	5.59583
1149.27	4.7311
1150.9	4.49582
1152.53	4.77537
1154.15	4.35507
1155.78	4.26007
1157.4	3.10929
1159.03	2.84682
1160.65	2.47408
1162.28	1.98766
1163.9	2.77682
1165.53	2.86338
1167.15	2.74696
1168.78	3.2947
1170.4	3.81757
1172.02	4.24864
1173.65	5.36245
1175.27	6.76101
1176.89	7.62268
1178.51	8.03779
1180.14	9.03153
1181.76	9.96762
1183.38	10.4608
1185	11.1919
1186.62	12.0075
1188.24	12.6208
1189.86	13.4038
1191.48	13.7547
1193.1	14.7739
1194.71	15.6429
1196.33	15.4448
1197.95	15.6119
1199.57	16.4559
1201.19	16.9625
1202.8	18.0376
1204.42	19.0163
1206.04	19.7972
1207.65	20.3742
1209.27	23.0588
1210.88	25.4806
1212.5	27.8028
1214.12	29.1802
1215.73	30.8504
1217.35	32.8744
1218.96	35.6818
1220.57	38.1157
1222.19	39.8965
1223.8	41.242
1225.41	42.4065
1227.03	43.8532
1228.64	45.3475
1230.25	46.7838
1231.86	48.0546
1233.47	49.957
1235.08	50.3715
1236.69	51.8801
1238.31	52.3915
1239.92	53.5756
1241.52	53.7349
1243.13	54.5035
1244.74	55.8319
1246.35	56.1336
1247.96	57.0804
1249.57	58.1333
1251.18	58.8815
1252.78	58.8445
1254.39	58.797
1256	58.3685
1257.6	58.3309
1259.21	58.342
1260.82	58.1009
1262.42	56.8964
1264.03	56.7406
1265.63	56.4576
1267.24	55.6525
1268.84	54.7787
1270.45	53.8397
1272.05	52.4482
1273.65	51.4294
1275.26	50.736
1276.86	50.6512
1278.46	50.517
1280.06	50.8118
1281.67	51.2548
1283.27	52.5821
1284.87	52.7676
1286.47	53.419
1288.07	54.1543
1289.67	55.0151
1291.27	55.4603
1292.87	55.4009
1294.47	55.8684
1296.07	56.3833
1297.67	58.4731
1299.27	59.3138
1300.87	60.1541
1302.47	61.5896
1304.06	63.5634
1305.66	65.2374
1307.26	66.9692
1308.85	69.2619
1310.45	70.4531
1312.05	72.4911
1313.64	73.8331
1315.24	75.4747
1316.83	78.011
1318.43	79.3384
1320.02	81.242
1321.62	82.1603
1323.21	83.118
1324.8	84.0246
1326.4	83.4715
1327.99	83.9252
1329.59	83.6145
1331.18	83.2179
1332.77	83.1157
1334.36	83.1628
1335.95	82.1733
1337.54	81.6367
1339.14	80.3477
1340.73	79.1188
1342.32	78.1095
1343.91	77.202
1345.5	75.7442
1347.09	74.0931
1348.67	72.8908
1350.26	70.8358
1351.85	69.5627
1353.44	68.4768
1355.03	66.7571
1356.62	66.4358
1358.2	64.547
1359.79	62.4898
1361.38	60.3786
1362.96	58.174
1364.55	56.0609
1366.14	54.0018
1367.72	52.0745
1369.31	50.3069
1370.89	48.8472
1372.48	47.0733
1374.06	46.0084
1375.64	45.3206
1377.23	45.077
1378.81	44.5869
1380.39	44.687
1381.98	44.8194
1383.56	44.6468
1385.14	44.1581
1386.72	44.1804
1388.3	44.2026
1389.89	43.2254
1391.47	43.2878
1393.05	43.455
1394.63	43.9506
1396.21	44.0556
1397.79	43.5997
1399.37	43.3998
1400.95	42.4056
1402.52	41.6638
1404.1	41.3994
1405.68	41.394
1407.26	42.6774
1408.84	42.8843
1410.42	43.8659
1411.99	44.4505
1413.57	44.777
1415.15	45.8889
1416.72	47.946
1418.3	49.7159
1419.87	52.1088
1421.45	54.7221
1423.02	57.4274
1424.6	60.2969
1426.17	63.5704
1427.75	66.4942
1429.32	69.2171
1430.89	72.6515
1432.47	75.7201
1434.04	79.0893
1435.61	82.1586
1437.18	83.551
1438.76	86.4246
1440.33	89.3746
1441.9	91.1102
1443.47	93.2404
1445.04	94.2812
1446.61	95.2892
1448.18	95.8289
1449.75	95.9895
1451.32	95.9577
1452.89	96.0345
1454.46	96.0817
1456.03	95.719
1457.6	94.8186
1459.16	93.47
1460.73	91.0259
1462.3	88.2162
1463.87	85.1441
1465.43	82.2035
1467	78.8997
1468.56	75.6269
1470.13	71.9433
1471.7	68.3957
1473.26	64.1194
1474.83	60.1289
1476.39	56.0331
1477.96	52.0772
1479.52	47.75
1481.08	44.6556
1482.65	41.9952
1484.21	39.0231
1485.77	35.5468
1487.34	31.921
1488.9	29.3161
1490.46	26.2057
1492.02	23.6537
1493.58	21.8098
1495.15	19.9042
1496.71	18.1188
1498.27	17.0323
1499.83	15.9998
1501.39	14.7673
1502.95	13.6208
1504.51	13.6081
1506.07	13.356
1507.63	14.0473
1509.18	14.2048
1510.74	14.2217
1512.3	14.8591
1513.86	14.1776
1515.41	14.7523
1516.97	14.9642
1518.53	15.1655
1520.08	15.3648
1521.64	16.1426
1523.2	16.0546
1524.75	16.5197
1526.31	16.8597
1527.86	18.0981
1529.42	19.222
1530.97	19.9821
1532.52	21.3129
1534.08	21.6723
1535.63	21.871
1537.19	22.7346
1538.74	23.4866
1540.29	24.4248
1541.84	25.6357
1543.4	27.3138
1544.95	28.5501
1546.5	30.0161
1548.05	31.1202
1549.6	33.6805
1551.15	34.8258
1552.7	36.8145
1554.25	37.9017
1555.8	38.7544
1557.35	39.437
1558.9	40.6809
1560.45	41.0854
1562	40.4605
1563.54	41.1599
1565.09	42.1338
1566.64	43.3467
1568.19	43.3631
1569.73	44.4164
1571.28	45.2476
1572.83	45.291
1574.37	46.3261
1575.92	47.0874
1577.47	48.0736
1579.01	49.3544
1580.56	50.0998
1582.1	51.7707
1583.64	53.2464
1585.19	55.4009
1586.73	55.7629
1588.28	56.2156
1589.82	56.9202
1591.36	57.0214
1592.9	57.8438
1594.45	58.678
1595.99	59.1668
1597.53	59.3559
1599.07	58.9728
1600.61	59.6363
1602.15	60.1284
1603.69	59.5351
1605.23	59.8036
1606.77	60.2276
1608.31	59.7752
1609.85	60.7539
1611.39	60.0431
1612.93	60.0029
1614.47	59.5438
1616.01	59.5986
1617.55	60.3813
1619.08	60.945
1620.62	61.4671
1622.16	62.4084
1623.7	63.8879
1625.23	63.9271
1626.77	65.1598
1628.3	64.8825
1629.84	65.7954
1631.37	65.6505
1632.91	65.8133
1634.44	66.1108
1635.98	66.9548
1637.51	68.4914
1639.05	70.2814
1640.58	73.4585
1642.11	75.1813
1643.65	76.5211
1645.18	78.0291
1646.71	80.9707
1648.24	82.4245
1649.78	84.3069
1651.31	86.613
1652.84	87.6624
1654.37	88.6897
1655.9	89.3746
1657.43	90.2066
1658.96	92.0471
1660.49	92.4075
1662.02	92.274
1663.55	91.2155
1665.08	90.5207
1666.61	90.3432
1668.14	89.6095
1669.66	88.5238
1671.19	87.1661
1672.72	85.4139
1674.25	84.3424
1675.77	82.1049
1677.3	80.7532
1678.83	79.0921
1680.35	76.6714
1681.88	74.8654
1683.4	72.5856
1684.93	68.8104
1686.45	65.7863
1687.98	62.3892
1689.5	60.1428
1691.03	57.5521
1692.55	55.9158
1694.07	54.0275
1695.6	50.8014
1697.12	48.3918
1698.64	46.7097
1700.17	44.3244
1701.69	41.4278
1703.21	39.6918
1704.73	37.0613
1706.25	35.0964
1707.77	32.5682
1709.29	30.6702
1710.81	29.6199
1712.33	28.662
1713.85	28.0401
1715.37	27.0346
1716.89	26.2693
1718.41	25.3023
1719.93	24.3662
1721.45	23.765
1722.97	22.8619
1724.49	21.4776
1726	20.8118
1727.52	20.126
1729.04	19.4467
1730.55	18.6053
1732.07	18.2096
1733.59	18.2282
1735.1	17.6032
1736.62	16.7428
1738.13	16.0893
1739.65	15.5162
1741.16	14.987
1742.68	14.7133
1744.19	14.1621
1745.7	13.7973
1747.22	13.6649
1748.73	13.9998
1750.24	13.9069
1751.76	13.5061
1753.27	13.9184
1754.78	13.3366
1756.29	11.8589
1757.8	11.545
1759.31	10.806
1760.83	10.239
1762.34	10.0775
1763.85	10.0725
1765.36	9.52701
1766.87	8.89488
1768.38	8.69808
1769.89	7.87084
1771.39	7.45948
1772.9	7.0773
1774.41	6.93592
1775.92	6.22837
1777.43	6.17343
1778.94	5.80484
1780.44	5.93478
1781.95	5.94465
1783.46	5.13892
1784.96	4.78873
1786.47	4.62713
1787.97	4.53343
1789.48	4.38413
1790.99	4.40626
1792.49	3.81344
1794	3.92853
1795.5	3.30244
1797	3.33939
1798.51	3.4473
1800.01	3.46335
1801.51	3.36269
1803.02	3.47571
1804.52	3.15505
1806.02	2.78024
1807.53	2.40003
1809.03	2.45353
1810.53	1.99872
1812.03	2.1342
1813.53	1.59542
1815.03	1.86853
1816.53	2.09162
1818.03	2.05996
1819.53	2.53596
1821.03	2.44365
1822.53	2.44166
1824.03	2.41638
1825.53	2.37837
1827.03	2.83242
1828.53	2.96252
1830.02	2.72789
1831.52	2.48025
1833.02	2.72558
1834.52	2.2213
1836.01	2.51848
1837.51	2.64328
1839.01	2.94412
1840.5	3.186
1842	3.30398
1843.49	3.74446
1844.99	4.17484
1846.48	4.80347
1847.98	5.03923
1849.47	5.54827
1850.97	5.40375
1852.46	5.53635
1853.95	5.06632
1855.45	5.76565
1856.94	4.94685
1858.43	3.70018
1859.93	3.50871
1861.42	3.94239
1862.91	3.93211
1864.4	3.71804
1865.89	3.57574
1867.38	3.4275
1868.87	4.11373
1870.36	3.37628
1871.85	3.49864
1873.34	4.06319
1874.83	4.17384
1876.32	4.28722
1877.81	4.55444
1879.3	4.68787
1880.79	4.83212
1882.28	5.1999
1882.52	5.79711
1884.02	5.82881
1885.51	5.73719
1887.01	5.5116
1888.5	5.83176
1889.99	6.07677
1891.49	6.11128
1892.98	6.63978
1894.47	6.20149
1895.97	5.79028
1897.46	5.98756
1898.95	5.56495
1900.44	5.05961
1901.93	4.07527
1903.42	3.85124
1904.91	3.55835
1906.4	4.20909
1907.89	4.34677
1909.38	4.90031
1910.87	5.06114
1912.36	5.48453
1913.85	5.24377
1915.34	4.71793
1916.83	4.44042
1918.32	4.62269
1919.8	4.00874
1921.29	4.11897
1922.78	3.80979
1924.27	3.31443
1925.75	3.92605
1927.24	3.95747
1928.73	4.06723
1930.21	3.15237
1931.7	3.38343
1933.18	3.93527
1934.67	4.09054
1936.15	3.78196
1937.64	3.98277
1939.12	4.10672
1940.61	4.08828
1942.09	4.55215
1943.57	4.80586
1945.06	5.95835
1946.54	6.57775
1948.02	6.55096
1949.51	7.14393
1950.99	8.15783
1952.47	8.40211
1953.95	7.91461
1955.43	7.8923
1956.91	8.27814
1958.4	8.35462
1959.88	8.54707
1961.36	8.96321
1962.84	8.97103
1964.32	9.15152
1965.8	9.0121
1967.27	8.17691
1968.75	7.13988
1970.23	6.40686
1971.71	7.10049
1973.19	6.2478
1974.67	6.72619
1976.14	6.74979
1977.62	6.97259
1979.1	6.85815
1980.58	7.64097
1982.05	7.72038
1983.53	7.53857
1985	7.92665
1986.48	7.89183
1987.95	7.45107
1989.43	7.96321
1990.9	9.17111
1992.38	9.80163
1993.85	9.01315
1995.33	9.76362
1996.8	9.62393
1998.27	8.90593
1999.75	9.46458
2001.22	9.31061
2002.69	9.31691
2004.16	9.16241
2005.64	8.99722
2007.11	8.55741
2008.58	8.74281
2010.05	8.55585
2011.52	8.61854
2012.99	8.86227
2014.46	7.75648
2015.93	8.5675
2017.4	8.62302
2018.87	8.43027
2020.34	8.6347
2021.81	8.08791
2023.28	7.39778
2024.75	6.80203
2026.22	6.45793
2027.69	6.28911
2029.15	6.93865
2030.62	7.39481
2032.09	6.87608
2033.56	6.87378
2035.02	6.68747
2036.49	5.95149
2037.96	5.80908
2039.42	5.87044
2040.89	5.19398
2042.35	5.43685
2043.82	5.35001
2045.28	5.88486
2046.75	5.42806
2048.21	5.58887
2049.67	5.02422
2051.14	5.09825
2052.6	5.77292
2054.07	5.96147
2055.53	5.74016
2056.99	6.10255
2058.45	6.58859
2059.92	6.26692
2061.38	6.74816
2062.84	7.21143
2064.3	7.08121
2065.76	6.53989
2067.22	6.4674
2068.68	7.90467
2070.14	8.07004
2071.6	7.93381
2073.06	9.08202
2074.52	9.26608
2075.98	9.27055
2077.44	9.54433
2078.9	9.56266
2080.36	9.44689
2081.82	9.56643
2083.27	9.19615
2084.73	9.67354
2086.19	10.0754
2087.65	9.74738
2089.1	10.7204
2090.56	10.3246
2092.02	9.82619
2093.47	10.7669
2094.93	10.3924
2096.38	10.784
2097.84	11.2702
2099.29	11.4571
2100.75	12.4455
2102.2	12.9846
2103.66	12.9626
2105.11	12.3351
2106.56	12.3753
2108.02	11.9956
2109.47	11.8359
2110.92	11.5945
2112.38	11.3604
2113.83	10.4266
2115.28	9.97226
2116.73	9.79524
2118.18	9.49722
2119.63	8.90409
2121.09	8.1044
2122.54	8.11314
2123.99	8.24006
2125.44	8.6098
2126.89	7.79815
2128.34	6.99556
2129.79	6.63152
2131.23	6.09334
2132.68	5.83189
2134.13	6.03289
2135.58	5.92438
2137.03	6.39996
