#Acq. time (s)=	45
#Accumulations=	2
#Range (cm-¹)=	200...3150
#Windows=	2
#Auto scanning=	Off
#Autofocus=	Off
#Macrospot=	Off
#AutoExposure=	Off
#Spike filter=	Multiple accum.
#Delay time (s)=	0
#Binning=	1
#Readout mode=	Signal
#DeNoise=	Off
#ICS correction=	On
#Dark correction=	Off
#Inst. Process=	Off
#Detector Gain=	Best Dynamic Range
#Detector ADC=	20 kHz       
#Detector temperature (°C)=	-69.85
#Instrument=	LabRAM HR Evol
#Detector=	Synapse
#Objective=	x100
#Grating=	600 gr/mm
#ND Filter=	100%
#Laser (nm)=	532 
#Hole=	100.021
#Range=	Auto
#Laser Pol.=	No
#Raman. Pol.=	No
#Laser Pol. (°)=	-0.0007625
#Raman Pol. (°)=	89.9995
#Collection=	Microscope
#StageXY=	Marzhauser
#StageZ=	Marzhauser
#X (µm)=	-5935.5
#Y (µm)=	2871.1
#Z (µm)=	-223.3
#Full time(mm:ss)=	3:19
#Project=	
#Sample=	
#Site=	
#Title=	Thy_20_09_50_2x_45s_532 nm_x100_100%_600 gr_mm
#Remark=	
#Date=	29.06.2022 14:08
#Acquired=	29.06.2022 14:08:00
#Base:Fit=	10.08.2022 09:52:02
#Base:Fit=	10.08.2022 09:52:12
#Base:Sub=	10.08.2022 09:54:21
#Filter:Polynom=	16.08.2022 10:24:04
#AxisType[0]=Intens
#AxisUnit[0]=Cnt
#AxisType[1]=Spectr
#AxisUnit[1]=1/cm
200.523	38.0297
202.339	37.6524
204.154	36.4959
205.967	34.6011
207.781	32.5007
209.596	30.3931
211.409	28.5439
213.222	25.8149
215.034	23.8317
216.848	22.0886
218.659	21.137
220.47	18.9521
222.281	17.6401
224.091	15.7636
225.903	14.4313
227.713	13.1352
229.522	11.713
231.331	9.88849
233.14	8.76765
234.948	7.39456
236.756	7.1397
238.566	5.28216
240.373	4.17178
242.18	3.55132
243.986	3.06497
245.792	2.61384
247.598	1.45574
249.403	0.803251
251.208	0.619905
253.013	0.269561
254.818	-0.297692
256.624	0.146716
258.427	1.30189
260.231	2.90241
262.034	5.03327
263.836	7.71276
265.638	9.93852
267.44	9.77295
269.242	9.993
271.043	9.55149
272.844	9.05059
274.645	9.30919
276.445	9.49801
278.245	9.88923
280.044	11.2844
281.843	11.3232
283.642	12.2332
285.44	12.7499
287.238	13.6804
289.036	12.7322
290.833	11.4832
292.63	11.7014
294.425	12.0016
296.221	11.8567
298.017	11.8004
299.813	12.4098
301.608	12.2538
303.403	11.5806
305.198	12.4608
306.992	12.9263
308.786	11.7521
310.579	11.5661
312.371	11.8152
314.163	10.8227
315.956	11.0413
317.748	10.9405
319.54	11.1719
321.331	10.8854
323.122	10.7533
324.911	10.4532
326.701	10.9556
328.491	10.5061
330.281	10.7558
332.071	11.389
333.857	10.8885
335.646	10.1761
337.434	10.9456
339.222	11.6154
341.008	11.804
342.795	11.6072
344.582	12.5195
346.369	13.6329
348.153	14.5125
349.939	13.3494
351.724	13.3443
353.51	13.1434
355.292	12.6752
357.077	11.8003
358.861	11.3797
360.643	10.2256
362.426	9.56394
364.21	9.54479
365.99	9.87513
367.773	9.62043
369.555	10.0411
371.335	8.66887
373.116	9.35822
374.897	8.7337
376.676	7.48144
378.456	6.15189
380.236	6.03213
382.014	6.62384
383.793	6.61323
385.57	5.97703
387.349	6.29761
389.127	5.90004
390.903	5.79971
392.681	5.65871
394.456	6.0085
396.233	5.64717
398.007	5.05201
399.784	6.30584
401.56	5.6637
403.333	5.39502
405.108	6.54789
406.881	6.33352
408.656	6.0038
410.428	6.34267
412.202	6.60789
413.973	7.57819
415.746	7.58785
417.517	6.66599
419.29	5.97772
421.06	6.5269
422.831	6.03893
424.601	6.48242
426.37	7.75696
428.141	6.95974
429.909	7.28146
431.679	7.70246
433.447	8.57944
435.216	7.32762
436.983	6.96066
438.75	6.20332
440.519	6.19806
442.285	5.93619
444.052	5.90214
445.818	5.35668
447.583	4.24513
449.349	4.06641
451.114	4.09332
452.878	5.34583
454.643	5.57244
456.407	5.75211
458.169	5.53429
459.934	4.12966
461.696	4.27106
463.458	4.58035
465.222	4.57057
466.983	4.82323
468.744	5.11162
470.507	5.85143
472.267	6.92307
474.027	6.99286
475.787	7.35256
477.548	8.83609
479.307	10.3776
481.065	10.7954
482.823	11.3628
484.583	12.4125
486.341	13.5302
488.098	14.0943
489.855	14.5639
491.612	15.6235
493.37	16.9185
495.126	17.5726
496.881	19.7086
498.636	22.0444
500.391	22.6977
502.148	23.2554
503.902	23.7951
505.656	24.0987
507.409	25.3983
509.162	26.1678
510.915	26.1107
512.668	25.6539
514.42	26.3504
516.174	25.9612
517.925	26.3628
519.676	25.9432
521.427	24.7328
523.178	22.9803
524.928	22.879
526.678	22.5576
528.427	21.6428
530.176	21.3102
531.925	20.704
533.673	19.7
535.422	19.4905
537.169	18.6598
538.917	17.2833
540.664	16.4359
542.411	15.423
544.157	14.8221
545.903	13.0335
547.649	13.2091
549.395	12.7193
551.14	12.4596
552.884	10.6959
554.629	10.1524
556.373	9.99297
558.117	10.1627
559.86	9.49374
561.603	8.54175
563.346	7.71772
565.089	7.52533
566.831	6.1941
568.573	5.62719
570.314	5.21374
572.053	5.54312
573.794	4.79086
575.534	4.9269
577.274	5.0858
579.014	5.42329
580.754	5.46223
582.493	5.70708
584.23	6.29398
585.968	5.97189
587.706	5.05876
589.444	4.31479
591.181	3.67613
592.919	2.89175
594.653	3.07192
596.39	2.46334
598.126	2.093
599.862	1.51895
601.595	1.33813
603.33	0.305407
605.065	0.172159
606.8	-1.04618
608.532	-0.774821
610.266	-0.507348
611.999	-0.397799
613.732	1.16009
615.463	1.99178
617.196	2.767
618.928	3.34443
620.66	4.44139
622.389	4.60944
624.12	5.15544
625.851	6.09589
627.58	6.99471
629.31	8.13464
631.04	9.30091
632.767	9.99473
634.497	10.9096
636.223	10.4262
637.952	11.049
639.68	11.5902
641.406	11.9705
643.134	12.7443
644.861	13.1853
646.586	13.7857
648.312	14.7467
650.037	14.7238
651.762	16.506
653.486	17.5085
655.211	17.9975
656.936	19.7822
658.659	20.8288
660.383	21.8706
662.105	21.7209
663.829	22.1051
665.55	22.0385
667.273	22.6895
668.994	22.8232
670.716	22.4883
672.436	22.8359
674.158	22.9889
675.877	22.4744
677.598	21.9264
679.317	22.2992
681.035	22.8507
682.755	23.0907
684.473	22
686.192	21.5053
687.909	21.0323
689.628	21.7634
691.344	23.14
693.06	22.5886
694.778	24.5667
696.493	26.2292
698.211	27.5887
699.925	28.8502
701.64	29.1246
703.356	29.7352
705.07	30.9497
706.783	32.5337
708.498	33.6273
710.211	36.1882
711.924	37.8479
713.638	39.0109
715.35	41.254
717.061	42.5754
718.774	43.355
720.485	44.6585
722.196	45.7324
723.906	46.8361
725.618	48.2561
727.328	48.4008
729.037	49.4903
730.746	51.2116
732.456	51.9866
734.165	53.2044
735.873	55.0833
737.58	57.0477
739.289	57.9099
740.997	59.3914
742.703	60.9729
744.41	60.9296
746.116	62.621
747.823	63.1246
749.529	64.4451
751.234	64.9258
752.938	66.2901
754.643	67.0807
756.347	67.5743
758.051	68.0792
759.756	68.5228
761.459	69.3983
763.162	70.2642
764.865	71.7002
766.567	72.1691
768.269	73.3021
769.97	72.3088
771.671	72.9389
773.372	73.2595
775.073	74.0736
776.773	73.5577
778.473	72.1337
780.174	73.2501
781.874	74.5455
783.573	73.906
785.271	74.3674
786.97	75.5719
788.668	76.5182
790.365	76.8572
792.063	76.6907
793.76	76.32
795.456	77.6074
797.153	77.5707
798.847	76.5778
800.543	77.4415
802.238	76.5758
803.933	76.4285
805.628	75.607
807.322	74.782
809.017	74.6942
810.71	73.9694
812.404	74.283
814.097	74.9358
815.79	75.6404
817.483	75.7517
819.173	77.129
820.865	77.2027
822.556	75.6702
824.248	76.0635
825.939	75.2246
827.629	75.905
829.318	76.17
831.008	76.0993
832.697	75.2164
834.387	74.231
836.076	74.1486
837.765	74.036
839.451	73.8972
841.139	72.7699
842.827	72.4634
844.514	72.8979
846.2	71.9096
847.886	69.1678
849.573	69.2091
851.259	69.0616
852.943	68.2701
854.629	65.9892
856.314	65.0951
857.997	63.6208
859.682	62.7261
861.366	61.7125
863.05	61.4525
864.732	61.8035
866.415	61.4209
868.098	59.5934
869.779	58.685
871.461	58.3207
873.141	56.2698
874.823	55.1895
876.505	54.5604
878.184	54.4454
879.865	54.5183
881.545	53.0566
883.223	52.9924
884.903	53.3529
886.581	52.8131
888.26	53.0414
889.937	52.5494
891.616	53.1512
893.294	53.555
894.97	53.1287
896.648	53.463
898.323	52.3628
900	52.0729
901.675	52.4003
903.351	51.8396
905.026	50.5568
906.701	49.7449
908.375	50.1383
910.05	49.1331
911.723	49.3489
913.398	48.6032
915.07	47.5922
916.742	46.9288
918.415	46.71
920.087	46.5304
921.76	46.3716
923.43	45.091
925.103	43.8433
926.773	43.5259
928.443	43.1464
930.114	42.764
931.783	42.6175
933.454	44.6368
935.123	44.1161
936.791	43.3828
938.461	43.1102
940.128	42.026
941.796	40.9032
943.464	41.1996
945.131	39.8606
946.797	38.9338
948.465	37.7895
950.131	36.5567
951.797	36.2753
953.462	36.7544
955.128	35.8195
956.793	34.7031
958.457	33.4208
960.121	32.49
961.786	32.7145
963.45	33.1712
965.113	34.2839
966.775	34.7981
968.44	35.299
970.102	36.5359
971.763	37.334
973.425	37.9073
975.086	39.0569
976.748	39.0844
978.409	39.3908
980.069	40.2601
981.729	40.3091
983.388	40.5444
985.048	41.2408
986.708	40.6994
988.367	40.2916
990.025	40.4549
991.683	40.9382
993.341	40.5817
994.998	40.2035
996.655	40.7626
998.312	40.0518
999.969	40.3525
1001.62	40.6306
1003.28	40.5495
1004.94	40.8838
1006.59	40.3362
1008.25	40.8687
1009.9	41.5143
1011.56	40.7456
1013.21	40.2405
1014.86	40.0974
1016.52	39.5854
1018.17	38.4773
1019.82	37.022
1021.48	35.869
1023.13	34.4919
1024.78	32.8054
1026.43	32.0779
1028.08	30.1175
1029.73	28.7467
1031.38	27.3974
1033.03	26.449
1034.68	25.1543
1036.33	23.7486
1037.98	21.7977
1039.63	20.827
1041.28	19.3291
1042.93	19.7548
1044.57	20.3424
1046.22	19.6702
1047.87	18.6394
1049.52	17.5406
1051.16	17.4627
1052.81	16.5534
1054.45	16.2398
1056.1	15.6495
1057.75	15.0273
1059.39	13.8118
1061.04	14.4021
1062.68	14.536
1064.32	14.3614
1065.97	14.7417
1067.61	14.7098
1069.25	14.5261
1070.9	15.2209
1072.54	16.3707
1074.18	17.092
1075.82	17.7806
1077.47	19.6832
1079.11	20.7624
1080.75	21.0393
1082.39	21.4371
1084.03	22.4028
1085.67	23.5583
1087.31	23.9059
1088.95	23.8802
1090.59	24.5356
1092.22	25.4744
1093.86	25.495
1095.5	25.6849
1097.14	26.4832
1098.78	27.1752
1100.41	27.4838
1102.05	27.0625
1103.69	28.221
1105.32	27.4419
1106.96	27.4546
1108.59	28.1641
1110.23	27.891
1111.86	28.4884
1113.5	28.5678
1115.13	27.7869
1116.77	26.6046
1118.4	25.4231
1120.03	23.7351
1121.67	22.9633
1123.3	21.6437
1124.93	20.1833
1126.56	17.6576
1128.19	16.5266
1129.83	15.6186
1131.46	15.3929
1133.09	14.8977
1134.72	15.1286
1136.35	15.3633
1137.98	14.1486
1139.61	14.0667
1141.24	13.621
1142.86	14.1853
1144.49	14.2135
1146.12	13.0309
1147.75	12.1675
1149.38	12.1572
1151	12.1216
1152.63	12.1916
1154.26	11.6079
1155.88	11.2316
1157.51	11.4508
1159.14	10.2184
1160.76	8.4919
1162.39	7.7198
1164.01	7.43816
1165.63	7.33986
1167.26	6.52466
1168.88	6.30302
1170.51	6.77973
1172.13	6.85043
1173.75	6.98006
1175.38	6.44073
1177	6.55442
1178.62	7.78936
1180.24	8.43806
1181.86	8.24402
1183.48	8.41446
1185.1	9.79378
1186.72	10.2399
1188.34	10.8278
1189.96	11.4024
1191.58	12.0462
1193.2	12.1089
1194.82	11.3778
1196.44	12.0041
1198.06	12.399
1199.68	13.4505
1201.29	14.1312
1202.91	15.2393
1204.53	15.7455
1206.14	17.1935
1207.76	18.3399
1209.38	20.8611
1210.99	22.5954
1212.61	25.2992
1214.22	26.6671
1215.84	28.3641
1217.45	30.0712
1219.07	31.2799
1220.68	33.3404
1222.29	34.8437
1223.91	36.9389
1225.52	38.9134
1227.13	39.7326
1228.74	42.2545
1230.36	43.6627
1231.97	45.0795
1233.58	46.3888
1235.19	47.0728
1236.8	48.86
1238.41	50.1147
1240.02	50.5381
1241.63	50.4636
1243.24	50.2246
1244.85	50.5201
1246.46	51.2604
1248.07	52.3946
1249.67	55.0012
1251.28	57.1274
1252.89	59.0375
1254.5	60.6476
1256.1	62.7945
1257.71	64.424
1259.32	65.8688
1260.92	67.5442
1262.53	68.6088
1264.13	69.5831
1265.74	71.8238
1267.34	73.5138
1268.95	74.4064
1270.55	76.1324
1272.15	77.3734
1273.76	77.0025
1275.36	78.3717
1276.97	80.5555
1278.57	81.1672
1280.17	81.9827
1281.77	82.3372
1283.37	83.5742
1284.97	84.1942
1286.58	84.469
1288.18	84.7162
1289.78	85.8749
1291.38	87.8217
1292.98	88.1237
1294.58	87.775
1296.18	89.4781
1297.78	89.8756
1299.37	90.0169
1300.97	89.8202
1302.57	89.8572
1304.17	90.1822
1305.77	90.3947
1307.36	89.5333
1308.96	89.7081
1310.55	88.8274
1312.15	88.2248
1313.75	87.1542
1315.34	86.3826
1316.94	85.7736
1318.53	84.7439
1320.13	83.5189
1321.72	81.0768
1323.32	81.3932
1324.91	82.0795
1326.5	83.6855
1328.1	84.8396
1329.69	85.7469
1331.28	84.6519
1332.87	84.8537
1334.47	84.237
1336.06	83.4944
1337.65	82.2548
1339.24	82.3478
1340.83	82.3353
1342.42	81.4098
1344.01	81.265
1345.6	80.4917
1347.19	79.6295
1348.78	78.508
1350.37	77.1276
1351.96	75.714
1353.54	73.6068
1355.13	73.6275
1356.72	72.8739
1358.31	70.2323
1359.89	68.6874
1361.48	68.0196
1363.07	66.8029
1364.65	65.4743
1366.24	63.6307
1367.82	63.2639
1369.41	62.3803
1370.99	62.0856
1372.58	60.5625
1374.16	59.414
1375.75	59.2379
1377.33	57.8898
1378.91	56.7769
1380.5	55.797
1382.08	55.5113
1383.66	55.1052
1385.25	54.4318
1386.83	53.0607
1388.41	52.7088
1389.99	51.3727
1391.57	50.2566
1393.15	49.3938
1394.73	48.5377
1396.31	47.7169
1397.89	46.8481
1399.47	45.7227
1401.05	44.9674
1402.63	45.5795
1404.21	45.5542
1405.78	44.9297
1407.36	44.2096
1408.94	44.1585
1410.52	44.9214
1412.1	46.5008
1413.67	46.1517
1415.25	47.1789
1416.82	49.0674
1418.4	51.6779
1419.98	53.5023
1421.55	55.0782
1423.13	56.4209
1424.7	58.2134
1426.28	60.6122
1427.85	62.1603
1429.42	63.4
1431	65.0548
1432.57	66.5112
1434.14	69.6784
1435.71	71.6307
1437.29	72.6613
1438.86	75.1909
1440.43	76.5224
1442	77.4726
1443.57	78.4612
1445.14	79.1956
1446.71	80.1407
1448.28	80.1702
1449.85	81.1164
1451.42	80.3466
1452.99	79.8343
1454.56	80.5862
1456.13	79.6213
1457.7	78.1578
1459.26	76.6343
1460.83	75.0517
1462.4	72.8042
1463.97	69.4592
1465.54	67.0171
1467.1	63.8184
1468.67	60.7321
1470.23	57.8481
1471.8	55.0797
1473.36	51.213
1474.93	48.6194
1476.49	45.4573
1478.06	43.0702
1479.62	40.9636
1481.19	38.4671
1482.75	36.0592
1484.31	33.4745
1485.88	31.7144
1487.44	30.1557
1489	27.6606
1490.56	25.5289
1492.13	24.5436
1493.69	24.1428
1495.25	23.2547
1496.81	22.4999
1498.37	21.8681
1499.93	21.6992
1501.49	21.3576
1503.05	21.3526
1504.61	22.0237
1506.17	22.327
1507.73	22.3225
1509.28	22.2796
1510.84	22.9625
1512.4	24.0618
1513.96	23.7832
1515.52	23.7143
1517.07	24.5312
1518.63	24.4415
1520.19	26.1752
1521.74	26.7538
1523.3	28.2799
1524.85	28.625
1526.41	30.868
1527.96	32.7162
1529.52	33.6035
1531.07	35.4299
1532.63	37.7283
1534.18	38.2506
1535.73	39.7726
1537.29	40.8742
1538.84	42.7913
1540.39	43.7326
1541.94	44.794
1543.5	47.6511
1545.05	49.0843
1546.6	51.8837
1548.15	54.2029
1549.7	56.661
1551.25	57.7271
1552.8	60.7946
1554.35	62.544
1555.9	64.8969
1557.45	66.7869
1559	67.609
1560.55	69.1391
1562.1	70.2098
1563.65	72.1141
1565.19	74.2775
1566.74	75.7814
1568.29	77.2917
1569.83	79.5642
1571.38	81.0053
1572.93	83.1481
1574.47	84.5445
1576.02	86.1219
1577.56	87.4738
1579.11	88.343
1580.66	89.687
1582.2	90.6593
1583.74	89.9169
1585.29	89.017
1586.83	88.3451
1588.38	88.6497
1589.92	88.1318
1591.46	87.5966
1593.01	86.589
1594.55	85.9897
1596.09	85.2897
1597.63	85.6574
1599.17	84.398
1600.71	83.7667
1602.25	82.2759
1603.79	82.6194
1605.34	81.3812
1606.88	80.7405
1608.41	80.5364
1609.95	79.6129
1611.49	76.6659
1613.03	76.1489
1614.57	74.5748
1616.11	73.8499
1617.65	73.0502
1619.18	72.2254
1620.72	72.6025
1622.26	72.133
1623.79	72.4616
1625.33	72.2315
1626.87	71.5562
1628.4	71.3711
1629.94	72.1587
1631.48	72.1839
1633.01	72.0789
1634.55	71.9045
1636.08	72.0031
1637.61	72.7459
1639.15	73.1965
1640.68	73.249
1642.21	72.4324
1643.75	72.2613
1645.28	73.139
1646.81	74.8582
1648.34	75.4472
1649.88	76.4681
1651.41	76.5181
1652.94	76.5153
1654.47	77.0628
1656	76.4978
1657.53	76.1178
1659.06	74.6761
1660.59	73.8003
1662.12	72.5593
1663.65	71.4346
1665.18	70.3918
1666.71	68.5573
1668.24	66.9608
1669.76	65.3232
1671.29	63.7085
1672.82	61.4903
1674.35	59.1873
1675.87	56.6269
1677.4	54.8897
1678.93	53.0801
1680.45	50.989
1681.98	48.3509
1683.5	46.4824
1685.03	43.5987
1686.55	40.8416
1688.08	37.6864
1689.6	36.922
1691.13	33.8904
1692.65	32.0939
1694.17	30.1307
1695.7	28.0793
1697.22	26.7956
1698.74	25.1527
1700.27	23.8676
1701.79	21.5505
1703.31	20.6088
1704.83	19.6027
1706.35	17.6675
1707.87	15.4015
1709.39	14.1042
1710.91	13.299
1712.43	11.8114
1713.95	10.6152
1715.47	9.71397
1716.99	8.73456
1718.51	8.52177
1720.03	9.09847
1721.55	9.52948
1723.07	8.94604
1724.58	8.39622
1726.1	8.17192
1727.62	7.77739
1729.13	7.20798
1730.65	7.80439
1732.17	7.20261
1733.68	7.10691
1735.2	5.97772
1736.72	5.77951
1738.23	5.20501
1739.74	3.95506
1741.26	3.49891
1742.77	3.28628
1744.29	3.24218
1745.8	3.08166
1747.32	2.18222
1748.83	1.80848
1750.34	1.38659
1751.85	1.49466
1753.37	1.29021
1754.88	0.941767
1756.39	0.807879
1757.9	0.664744
1759.41	0.756844
1760.92	0.244895
1762.44	0.350615
1763.95	-0.327515
1765.46	0.332417
1766.96	-0.442636
1768.47	0.410278
1769.98	0.695272
1771.49	0.426942
1773	0.776491
1774.51	0.709952
1776.02	0.973418
1777.53	0.681308
1779.03	1.2173
1780.54	0.834571
1782.05	0.747505
1783.55	0.741454
1785.06	1.30774
1786.57	1.28502
1788.07	1.28855
1789.58	2.29926
1791.08	2.25646
1792.59	2.46449
1794.09	2.70381
1795.6	2.91196
1797.1	3.39103
1798.61	3.53611
1800.11	3.84689
1801.61	3.88171
1803.12	3.59406
1804.62	3.32139
1806.12	3.61492
1807.62	3.38066
1809.12	3.59449
1810.63	3.35653
1812.13	3.53666
1813.63	3.25601
1815.13	2.69515
1816.63	3.32822
1818.13	3.2729
1819.63	3.74829
1821.13	3.74415
1822.63	3.55666
1824.13	3.45382
1825.63	3.15173
1827.13	2.86108
1828.62	2.46696
1830.12	2.77488
1831.62	2.65141
1833.12	2.36014
1834.61	2.42454
1836.11	1.49066
1837.61	1.16699
1839.1	1.39444
1840.6	1.95357
1842.09	1.54711
1843.59	1.688
1845.09	1.41731
1846.58	1.18306
1848.08	1.15201
1849.57	1.37621
1851.06	1.25923
1852.56	0.994806
1854.05	1.08862
1855.54	1.42058
1857.04	1.13874
1858.53	1.11249
1860.02	1.34935
1861.51	1.16571
1863.01	1.69252
1864.5	1.59394
1865.99	1.30702
1867.48	1.75659
1868.97	2.00006
1870.46	2.13052
1871.95	2.32155
1873.44	2.39993
1874.93	2.17711
1876.42	2.19142
1877.91	1.95107
1879.4	2.81477
1880.89	3.42633
1882.37	3.27247
1882.46	3.18427
1883.95	2.95648
1885.45	3.0747
1886.94	3.37717
1888.43	3.62718
1889.93	4.16182
1891.42	4.3327
1892.91	4.43218
1894.41	4.13032
1895.9	3.87282
1897.39	3.43902
1898.88	3.16598
1900.37	3.2456
1901.86	3.6785
1903.36	4.44227
1904.85	4.38695
1906.34	4.46769
1907.83	4.58424
1909.32	4.62342
1910.81	4.91577
1912.29	5.27067
1913.78	4.88578
1915.27	4.82713
1916.76	4.83341
1918.25	5.01825
1919.74	5.13264
1921.23	4.73126
1922.71	4.73595
1924.2	4.28333
1925.69	5.31624
1927.17	5.18487
1928.66	5.35548
1930.15	5.38026
1931.63	5.36328
1933.12	5.26888
1934.6	5.83974
1936.09	5.97325
1937.57	6.24018
1939.06	6.66365
1940.54	6.69256
1942.02	6.22415
1943.51	6.7868
1944.99	6.96096
1946.47	7.36045
1947.96	7.19438
1949.44	6.61862
1950.92	6.07571
1952.4	6.33711
1953.88	6.20339
1955.37	5.53952
1956.85	5.37755
1958.33	4.88204
1959.81	4.38611
1961.29	4.76894
1962.77	4.70891
1964.25	4.76902
1965.73	4.837
1967.21	5.04482
1968.69	5.16828
1970.16	5.29439
1971.64	5.84785
1973.12	6.40824
1974.6	6.67779
1976.08	6.18025
1977.55	6.55638
1979.03	6.15181
1980.51	6.4478
1981.98	6.73524
1983.46	6.29665
1984.94	6.30192
1986.41	6.1629
1987.89	6.63043
1989.36	6.64256
1990.84	6.78943
1992.31	7.50518
1993.79	7.69815
1995.26	8.309
1996.73	8.57386
1998.21	8.64488
1999.68	9.0482
2001.15	8.48096
2002.63	8.27652
2004.1	8.02154
2005.57	7.76583
2007.04	8.16146
2008.51	8.67833
2009.99	7.61204
2011.46	8.25461
2012.93	7.80297
2014.4	7.6046
2015.87	7.26914
2017.34	7.77819
2018.81	7.44165
2020.28	7.07482
2021.75	6.35626
2023.21	5.74187
2024.68	6.08799
2026.15	6.50633
2027.62	6.40268
2029.09	6.09514
2030.56	6.64306
2032.02	7.34648
2033.49	7.99359
2034.96	8.98502
2036.42	9.35962
2037.89	9.47037
2039.36	9.71355
2040.82	10.153
2042.29	10.2557
2043.75	10.5765
2045.22	11.6277
2046.68	11.7062
2048.14	11.9053
2049.61	12.2755
2051.07	13.7252
2052.54	13.6935
2054	14.8259
2055.46	14.8261
2056.93	14.8504
2058.39	16.081
2059.85	15.9281
2061.31	17.0245
2062.77	17.6643
2064.23	18.2095
2065.7	18.3326
2067.16	18.1563
2068.62	18.7969
2070.08	17.3925
2071.54	17.4395
2073	17.3363
2074.46	16.9328
2075.92	15.8855
2077.38	15.9334
2078.83	15.9692
2080.29	15.3778
2081.75	15.1692
2083.21	14.7323
2084.67	15.2784
2086.12	14.8524
2087.58	15.0053
2089.04	14.8441
2090.49	14.5168
2091.95	14.4768
2093.41	13.9964
2094.86	13.4084
2096.32	13.5507
2097.77	13.9223
2099.23	13.6895
2100.68	13.897
2102.14	14.5234
2103.59	15.2625
2105.05	15.0621
2106.5	14.8497
2107.95	15.1847
2109.41	15.8351
2110.86	15.8498
2112.31	16.9724
2113.76	17.2409
2115.21	17.3454
2116.67	18.2795
2118.12	19.9624
2119.57	20.262
2121.02	21.2939
2122.47	22.1198
2123.92	23.3866
2125.37	24.2205
2126.82	26.2962
2128.27	27.0199
2129.72	28.3874
2131.17	29.3677
