#Acq. time (s)=	45
#Accumulations=	2
#Range (cm-¹)=	200...3150
#Windows=	2
#Auto scanning=	Off
#Autofocus=	Off
#Macrospot=	Off
#AutoExposure=	Off
#Spike filter=	Multiple accum.
#Delay time (s)=	0
#Binning=	1
#Readout mode=	Signal
#DeNoise=	Off
#ICS correction=	On
#Dark correction=	Off
#Inst. Process=	Off
#Detector Gain=	Best Dynamic Range
#Detector ADC=	20 kHz       
#Detector temperature (°C)=	-69.85
#Instrument=	LabRAM HR Evol
#Detector=	Synapse
#Objective=	x100
#Grating=	600 gr/mm
#ND Filter=	100%
#Laser (nm)=	532 
#Hole=	100.021
#Range=	Auto
#Laser Pol.=	No
#Raman. Pol.=	No
#Laser Pol. (°)=	-0.0007625
#Raman Pol. (°)=	89.9995
#Collection=	Microscope
#StageXY=	Marzhauser
#StageZ=	Marzhauser
#X (µm)=	-5927.4
#Y (µm)=	2836.4
#Z (µm)=	-223.85
#Full time(mm:ss)=	3:18
#Project=	
#Sample=	
#Site=	
#Title=	Thy_20_09_02_2x_45s_532 nm_x100_100%_600 gr_mm
#Remark=	
#Date=	29.06.2022 10:42
#Acquired=	29.06.2022 10:42:41
#Base:Fit=	10.08.2022 09:49:32
#Base:Fit=	10.08.2022 09:49:42
#Base:Fit=	10.08.2022 09:49:53
#Base:Fit=	10.08.2022 09:50:12
#Base:Fit=	10.08.2022 09:50:26
#Base:Fit=	10.08.2022 09:50:30
#Base:Fit=	10.08.2022 09:50:43
#Base:Fit=	10.08.2022 09:52:02
#Base:Fit=	10.08.2022 09:52:12
#Base:Sub=	10.08.2022 09:54:21
#Filter:Polynom=	16.08.2022 10:24:04
#AxisType[0]=Intens
#AxisUnit[0]=Cnt
#AxisType[1]=Spectr
#AxisUnit[1]=1/cm
200.523	9.37964
202.339	10.0679
204.154	8.27156
205.967	7.63887
207.781	6.71482
209.596	5.92431
211.409	5.40006
213.222	4.49693
215.034	3.44114
216.848	2.60545
218.659	2.90831
220.47	3.93998
222.281	4.06654
224.091	4.31971
225.903	4.71826
227.713	4.58305
229.522	4.54531
231.331	4.9752
233.14	5.16477
234.948	5.80296
236.756	5.87573
238.566	6.72509
240.373	7.16861
242.18	7.99319
243.986	8.30093
245.792	8.87635
247.598	8.88163
249.403	9.32335
251.208	10.4432
253.013	10.3553
254.818	10.4085
256.624	11.8557
258.427	12.2165
260.231	12.6597
262.034	13.6233
263.836	14.9123
265.638	14.974
267.44	15.4016
269.242	15.9285
271.043	15.3102
272.844	15.8425
274.645	15.8957
276.445	15.4671
278.245	16.3789
280.044	15.7594
281.843	15.2893
283.642	14.9934
285.44	14.8611
287.238	15.0655
289.036	15.5285
290.833	15.0812
292.63	14.19
294.425	14.6387
296.221	14.2303
298.017	14.651
299.813	14.8579
301.608	15.0362
303.403	14.9209
305.198	15.413
306.992	16.9246
308.786	18.6099
310.579	19.3566
312.371	18.6432
314.163	18.176
315.956	18.7478
317.748	18.2274
319.54	18.1952
321.331	19.0111
323.122	19.6984
324.911	20.0977
326.701	20.2222
328.491	20.4763
330.281	20.7528
332.071	21.4234
333.857	21.4785
335.646	21.4825
337.434	21.5154
339.222	21.6089
341.008	21.4536
342.795	20.8158
344.582	20.7048
346.369	20.3618
348.153	19.1116
349.939	18.3935
351.724	18.655
353.51	17.3537
355.292	15.7214
357.077	14.7716
358.861	13.5536
360.643	13.5907
362.426	13.3733
364.21	12.6604
365.99	12.4071
367.773	12.2552
369.555	10.554
371.335	10.7962
373.116	10.0231
374.897	9.93452
376.676	9.15042
378.456	9.28447
380.236	8.24536
382.014	7.70309
383.793	7.87771
385.57	7.5553
387.349	7.26202
389.127	7.17121
390.903	8.04098
392.681	7.13417
394.456	6.81275
396.233	7.47854
398.007	6.96601
399.784	6.51872
401.56	5.71403
403.333	6.05896
405.108	7.3743
406.881	7.30708
408.656	8.1296
410.428	8.364
412.202	8.37493
413.973	7.93542
415.746	8.63403
417.517	8.75296
419.29	9.02319
421.06	8.73563
422.831	8.31401
424.601	8.4658
426.37	8.28372
428.141	7.89535
429.909	7.79966
431.679	6.89851
433.447	5.95845
435.216	6.16843
436.983	5.82022
438.75	7.15678
440.519	7.31632
442.285	6.29655
444.052	7.61385
445.818	8.15184
447.583	9.3558
449.349	10.7854
451.114	11.7868
452.878	12.2012
454.643	13.1337
456.407	13.3994
458.169	13.3311
459.934	13.6723
461.696	12.8202
463.458	13.1689
465.222	12.7852
466.983	12.7932
468.744	12.3205
470.507	12.2555
472.267	11.8229
474.027	11.807
475.787	11.8651
477.548	12.0988
479.307	11.4526
481.065	10.8373
482.823	11.5847
484.583	12.4153
486.341	12.1403
488.098	12.9677
489.855	13.8421
491.612	14.0602
493.37	14.6028
495.126	13.9328
496.881	14.0226
498.636	13.7799
500.391	14.464
502.148	14.3216
503.902	14.4157
505.656	13.7854
507.409	12.9429
509.162	12.4057
510.915	12.3795
512.668	12.455
514.42	11.723
516.174	11.5855
517.925	11.0907
519.676	11.4612
521.427	11.7004
523.178	11.3843
524.928	10.6901
526.678	11.0079
528.427	9.5511
530.176	9.30005
531.925	9.63346
533.673	9.75469
535.422	9.17904
537.169	8.29336
538.917	8.29599
540.664	7.28918
542.411	6.73565
544.157	5.67731
545.903	4.63377
547.649	3.73446
549.395	3.5275
551.14	3.77784
552.884	3.50106
554.629	3.12386
556.373	2.93655
558.117	2.76442
559.86	1.9739
561.603	2.04168
563.346	2.3527
565.089	2.65047
566.831	3.22086
568.573	3.93015
570.314	4.87521
572.053	4.41574
573.794	5.02932
575.534	5.82378
577.274	6.23707
579.014	6.1466
580.754	6.58983
582.493	6.15129
584.23	6.57755
585.968	5.82053
587.706	5.70682
589.444	4.78224
591.181	4.53358
592.919	4.96134
594.653	4.07483
596.39	4.26581
598.126	4.63977
599.862	4.95206
601.595	5.73595
603.33	5.46585
605.065	5.56912
606.8	6.03659
608.532	5.06838
610.266	5.10966
611.999	5.15041
613.732	5.77822
615.463	6.16854
617.196	7.22602
618.928	7.7511
620.66	8.20046
622.389	7.65276
624.12	8.38362
625.851	8.90403
627.58	9.04003
629.31	9.29887
631.04	10.2445
632.767	10.3684
634.497	11.1674
636.223	12.4299
637.952	13.0666
639.68	13.3902
641.406	14.1784
643.134	15.1559
644.861	14.9253
646.586	15.0525
648.312	15.914
650.037	17.128
651.762	17.5702
653.486	17.2862
655.211	17.0472
656.936	18.168
658.659	18.2564
660.383	19.1859
662.105	19.3672
663.829	19.3028
665.55	19.2498
667.273	18.8417
668.994	18.4054
670.716	18.2117
672.436	17.5299
674.158	17.6395
675.877	17.6025
677.598	18.3428
679.317	19.1617
681.035	18.0402
682.755	18.7078
684.473	19.3352
686.192	20.0483
687.909	19.9909
689.628	19.6155
691.344	20.0909
693.06	21.0526
694.778	21.4673
696.493	22.8384
698.211	23.4664
699.925	24.7471
701.64	25.0843
703.356	25.0453
705.07	25.2252
706.783	25.26
708.498	25.8079
710.211	26.3144
711.924	27.0153
713.638	27.8748
715.35	28.8254
717.061	30.4564
718.774	31.0382
720.485	31.945
722.196	33.0522
723.906	33.6667
725.618	35.2418
727.328	36.2911
729.037	35.8551
730.746	36.7217
732.456	38.2401
734.165	39.6819
735.873	41.3584
737.58	42.1147
739.289	42.7844
740.997	44.3512
742.703	45.3741
744.41	45.6961
746.116	46.6586
747.823	47.0093
749.529	47.576
751.234	48.0504
752.938	48.1808
754.643	47.9912
756.347	48.8529
758.051	49.8689
759.756	51.1758
761.459	51.9975
763.162	52.7046
764.865	52.976
766.567	52.5049
768.269	53.8
769.97	54.6301
771.671	54.5652
773.372	55.5797
775.073	57.0704
776.773	57.8969
778.473	59.5663
780.174	59.4885
781.874	60.1887
783.573	60.9303
785.271	61.5341
786.97	62.4806
788.668	64.2219
790.365	65.221
792.063	65.8931
793.76	67.4682
795.456	68.3978
797.153	69.1462
798.847	69.4762
800.543	70.1139
802.238	69.7973
803.933	69.6013
805.628	70.1463
807.322	70.7693
809.017	71.0478
810.71	71.036
812.404	70.7096
814.097	71.1179
815.79	72.1705
817.483	71.5905
819.173	71.6316
820.865	72.1888
822.556	71.5869
824.248	70.7343
825.939	71.0593
827.629	70.6153
829.318	70.1057
831.008	69.6999
832.697	68.8242
834.387	67.8651
836.076	66.6195
837.765	65.4799
839.451	65.1253
841.139	65.2413
842.827	64.4718
844.514	64.312
846.2	62.7895
847.886	61.528
849.573	60.6392
851.259	59.9584
852.943	59.4588
854.629	58.9094
856.314	58.0849
857.997	58.1823
859.682	56.9178
861.366	55.5266
863.05	55.1944
864.732	54.3378
866.415	54.7131
868.098	53.6202
869.779	52.6387
871.461	52.4337
873.141	51.2818
874.823	50.8224
876.505	50.361
878.184	49.6362
879.865	49.0933
881.545	47.7385
883.223	46.9848
884.903	46.1714
886.581	45.6897
888.26	45.7185
889.937	45.271
891.616	44.1999
893.294	43.7904
894.97	43.0404
896.648	43.6677
898.323	44.0988
900	42.9381
901.675	41.9829
903.351	42.7653
905.026	42.8722
906.701	40.9959
908.375	40.4927
910.05	41.2846
911.723	40.0063
913.398	39.9418
915.07	39.9996
916.742	39.6151
918.415	39.847
920.087	39.9165
921.76	39.7365
923.43	40.0549
925.103	39.7247
926.773	39.4076
928.443	38.4027
930.114	36.7405
931.783	36.8643
933.454	37.1294
935.123	36.3403
936.791	36.0776
938.461	35.8778
940.128	34.9896
941.796	33.6887
943.464	32.353
945.131	31.2456
946.797	31.2305
948.465	30.4317
950.131	30.1257
951.797	29.5202
953.462	29.5561
955.128	29.2084
956.793	28.4669
958.457	28.2017
960.121	26.9749
961.786	26.1571
963.45	25.209
965.113	23.8487
966.775	24.4235
968.44	23.9741
970.102	23.9943
971.763	23.9115
973.425	23.9893
975.086	23.072
976.748	23.1486
978.409	22.9177
980.069	23.2086
981.729	23.5599
983.388	22.8242
985.048	23.2122
986.708	23.4776
988.367	23.2945
990.025	22.5629
991.683	23.9556
993.341	24.2644
994.998	24.2152
996.655	24.7948
998.312	25.4076
999.969	25.9299
1001.62	26.0023
1003.28	24.4893
1004.94	24.3553
1006.59	24.0409
1008.25	23.4343
1009.9	21.8062
1011.56	20.48
1013.21	20.5814
1014.86	20.7896
1016.52	19.81
1018.17	18.3276
1019.82	17.973
1021.48	16.6429
1023.13	15.5022
1024.78	14.2384
1026.43	13.5008
1028.08	13.6649
1029.73	14.4694
1031.38	12.8328
1033.03	12.2937
1034.68	11.2492
1036.33	10.1039
1037.98	8.68383
1039.63	8.20396
1041.28	7.35521
1042.93	8.09647
1044.57	8.58914
1046.22	8.964
1047.87	9.93687
1049.52	10.9394
1051.16	10.4661
1052.81	10.4678
1054.45	10.6935
1056.1	11.0768
1057.75	10.6883
1059.39	11.6342
1061.04	11.2715
1062.68	11.6943
1064.32	11.5966
1065.97	10.9939
1067.61	11.307
1069.25	12.3698
1070.9	12.8389
1072.54	13.0367
1074.18	14.0853
1075.82	14.5172
1077.47	15.5413
1079.11	15.9444
1080.75	17.2551
1082.39	17.2975
1084.03	16.6219
1085.67	16.3939
1087.31	16.8976
1088.95	16.7801
1090.59	16.4929
1092.22	16.6368
1093.86	18.2979
1095.5	18.7143
1097.14	18.2323
1098.78	17.9777
1100.41	17.6941
1102.05	17.7792
1103.69	16.9576
1105.32	16.4422
1106.96	15.6338
1108.59	16.0578
1110.23	15.8323
1111.86	14.8879
1113.5	13.7261
1115.13	14.4363
1116.77	14.4126
1118.4	14.7633
1120.03	15.4235
1121.67	16.3492
1123.3	15.9264
1124.93	16.4906
1126.56	15.6776
1128.19	15.3835
1129.83	14.9842
1131.46	15.3836
1133.09	14.8107
1134.72	14.8538
1136.35	14.5197
1137.98	14.4727
1139.61	13.4387
1141.24	13.5726
1142.86	12.8712
1144.49	12.814
1146.12	13.191
1147.75	14.0894
1149.38	15.1381
1151	15.7253
1152.63	14.9052
1154.26	16.2021
1155.88	17.0685
1157.51	17.8543
1159.14	18.5006
1160.76	18.7196
1162.39	19.2588
1164.01	19.9034
1165.63	20.1521
1167.26	21.1401
1168.88	21.7688
1170.51	22.4452
1172.13	22.6936
1173.75	23.6773
1175.38	23.5101
1177	22.8031
1178.62	21.8344
1180.24	21.5489
1181.86	20.4351
1183.48	19.8813
1185.1	18.7387
1186.72	17.8243
1188.34	18.5659
1189.96	18.5544
1191.58	18.2732
1193.2	19.299
1194.82	19.6691
1196.44	20.7256
1198.06	21.676
1199.68	22.7536
1201.29	22.9485
1202.91	22.4419
1204.53	22.4432
1206.14	22.423
1207.76	23.3911
1209.38	24.7952
1210.99	25.6452
1212.61	26.6082
1214.22	26.8074
1215.84	26.8827
1217.45	26.6525
1219.07	26.8596
1220.68	27.774
1222.29	28.5547
1223.91	28.8838
1225.52	29.4064
1227.13	30.7913
1228.74	32.4228
1230.36	34.1105
1231.97	34.6628
1233.58	35.4046
1235.19	36.6791
1236.8	37.5438
1238.41	37.7896
1240.02	38.6011
1241.63	39.0259
1243.24	39.9809
1244.85	40.044
1246.46	39.2405
1248.07	39.0975
1249.67	39.1531
1251.28	38.7581
1252.89	38.5603
1254.5	38.5424
1256.1	37.3676
1257.71	36.7934
1259.32	35.7679
1260.92	35.6513
1262.53	35.839
1264.13	35.6154
1265.74	35.6218
1267.34	36.5178
1268.95	37.4291
1270.55	36.9568
1272.15	37.8134
1273.76	38.6091
1275.36	39.4917
1276.97	41.3419
1278.57	41.8494
1280.17	42.6594
1281.77	43.6553
1283.37	44.3805
1284.97	45.4767
1286.58	46.023
1288.18	47.4921
1289.78	47.5948
1291.38	47.7786
1292.98	46.6654
1294.58	47.5445
1296.18	48.0397
1297.78	48.8263
1299.37	49.819
1300.97	50.6425
1302.57	51.0684
1304.17	51.854
1305.77	53.7244
1307.36	55.2903
1308.96	56.65
1310.55	57.3187
1312.15	57.5926
1313.75	58.262
1315.34	58.4441
1316.94	59.2268
1318.53	59.8093
1320.13	60.8467
1321.72	61.4123
1323.32	60.7696
1324.91	60.4916
1326.5	61.6298
1328.1	62.495
1329.69	62.6962
1331.28	62.3351
1332.87	62.8813
1334.47	63.808
1336.06	63.846
1337.65	63.885
1339.24	64.1159
1340.83	63.6498
1342.42	64.11
1344.01	63.5966
1345.6	64.0985
1347.19	64.1308
1348.78	63.857
1350.37	64.3478
1351.96	65.6396
1353.54	66.1575
1355.13	66.4495
1356.72	66.0715
1358.31	64.7306
1359.89	64.4215
1361.48	63.757
1363.07	62.6125
1364.65	61.8335
1366.24	61.3631
1367.82	61.0693
1369.41	60.3206
1370.99	60.0425
1372.58	58.5852
1374.16	59.174
1375.75	58.5987
1377.33	56.8746
1378.91	55.6728
1380.5	54.7107
1382.08	54.0351
1383.66	53.5855
1385.25	53.3481
1386.83	52.2803
1388.41	51.8873
1389.99	50.72
1391.57	50.2308
1393.15	49.335
1394.73	47.8383
1396.31	48.0732
1397.89	47.5338
1399.47	46.3121
1401.05	45.2236
1402.63	44.5448
1404.21	44.3274
1405.78	44.7297
1407.36	43.7709
1408.94	42.5615
1410.52	42.4772
1412.1	43.4601
1413.67	42.9679
1415.25	42.2178
1416.82	41.4563
1418.4	41.6046
1419.98	41.2315
1421.55	42.0547
1423.13	42.4421
1424.7	43.6876
1426.28	44.4651
1427.85	45.7184
1429.42	46.3674
1431	47.8133
1432.57	48.6064
1434.14	49.4589
1435.71	49.9731
1437.29	50.7107
1438.86	51.7959
1440.43	53.1795
1442	55.0627
1443.57	55.9784
1445.14	56.788
1446.71	56.7338
1448.28	57.1395
1449.85	57.0874
1451.42	56.9916
1452.99	57.2573
1454.56	56.858
1456.13	55.2873
1457.7	55.3032
1459.26	54.2568
1460.83	53.3616
1462.4	53.2732
1463.97	51.9011
1465.54	51.3017
1467.1	50.4603
1468.67	49.4569
1470.23	48.3191
1471.8	46.4589
1473.36	44.0245
1474.93	43.275
1476.49	41.1337
1478.06	40.6293
1479.62	39.5182
1481.19	38.3856
1482.75	37.3874
1484.31	36.6342
1485.88	34.6313
1487.44	33.3923
1489	32.8144
1490.56	31.7634
1492.13	30.4487
1493.69	30.9374
1495.25	30.5116
1496.81	29.98
1498.37	29.9259
1499.93	30.4491
1501.49	30.9303
1503.05	30.6087
1504.61	30.3541
1506.17	30.6646
1507.73	30.3296
1509.28	30.8823
1510.84	30.3013
1512.4	29.4926
1513.96	29.5866
1515.52	29.9922
1517.07	30.0515
1518.63	30.4446
1520.19	30.8415
1521.74	30.7852
1523.3	31.1475
1524.85	31.9439
1526.41	32.3616
1527.96	32.854
1529.52	33.2459
1531.07	33.2938
1532.63	33.0612
1534.18	34.0638
1535.73	35.5446
1537.29	35.0729
1538.84	36.8344
1540.39	37.8534
1541.94	39.2493
1543.5	40.5332
1545.05	42.1328
1546.6	44.0899
1548.15	44.9829
1549.7	46.4535
1551.25	47.9319
1552.8	51.3121
1554.35	52.9917
1555.9	55.7564
1557.45	56.9046
1559	58.7433
1560.55	60.8807
1562.1	61.805
1563.65	63.0063
1565.19	64.6489
1566.74	66.5229
1568.29	67.8322
1569.83	69.4503
1571.38	70.6095
1572.93	71.2281
1574.47	72.1654
1576.02	73.2694
1577.56	73.4489
1579.11	73.4132
1580.66	73.5948
1582.2	74.3545
1583.74	74.1649
1585.29	73.6859
1586.83	73.5647
1588.38	72.9763
1589.92	72.412
1591.46	71.6471
1593.01	70.4473
1594.55	69.044
1596.09	67.6228
1597.63	66.9312
1599.17	65.4698
1600.71	64.0616
1602.25	62.8956
1603.79	61.214
1605.34	60.9076
1606.88	59.0737
1608.41	57.9841
1609.95	57.4598
1611.49	57.8369
1613.03	56.146
1614.57	55.0704
1616.11	55.7977
1617.65	55.335
1619.18	55.3474
1620.72	54.1774
1622.26	54.3304
1623.79	53.4935
1625.33	52.8676
1626.87	53.0409
1628.4	52.9282
1629.94	53.1645
1631.48	51.7994
1633.01	51.9198
1634.55	51.627
1636.08	51.5706
1637.61	51.9208
1639.15	51.7891
1640.68	51.6535
1642.21	51.5177
1643.75	51.2281
1645.28	50.7902
1646.81	50.5186
1648.34	50.6404
1649.88	50.3605
1651.41	50.1487
1652.94	49.3469
1654.47	48.8561
1656	48.7825
1657.53	48.7332
1659.06	47.8168
1660.59	46.6164
1662.12	45.7927
1663.65	44.9163
1665.18	42.5098
1666.71	41.4689
1668.24	40.7599
1669.76	39.2307
1671.29	37.1854
1672.82	35.5167
1674.35	35.4437
1675.87	34.5646
1677.4	34.0401
1678.93	33.3604
1680.45	32.5813
1681.98	32.4064
1683.5	31.044
1685.03	30.3324
1686.55	29.3766
1688.08	28.0743
1689.6	26.7339
1691.13	26.0077
1692.65	25.7285
1694.17	24.7827
1695.7	23.8171
1697.22	22.7106
1698.74	21.7111
1700.27	21.5304
1701.79	20.8676
1703.31	19.7189
1704.83	18.3171
1706.35	17.6888
1707.87	16.0899
1709.39	15.6731
1710.91	14.9679
1712.43	13.7362
1713.95	12.7527
1715.47	11.2821
1716.99	9.66105
1718.51	8.90818
1720.03	7.89384
1721.55	7.66409
1723.07	7.53201
1724.58	7.77838
1726.1	6.89244
1727.62	6.72873
1729.13	5.61497
1730.65	4.94456
1732.17	4.65723
1733.68	4.33147
1735.2	3.32173
1736.72	2.78308
1738.23	1.91861
1739.74	1.2264
1741.26	0.653574
1742.77	1.19393
1744.29	0.852508
1745.8	0.0189138
1747.32	-0.15987
1748.83	0.991342
1750.34	1.9649
1751.85	1.44121
1753.37	1.64941
1754.88	1.62256
1756.39	1.73006
1757.9	1.86601
1759.41	1.76361
1760.92	1.71716
1762.44	2.02955
1763.95	2.50041
1765.46	2.90031
1766.96	3.18246
1768.47	3.99498
1769.98	3.6636
1771.49	3.70909
1773	3.41772
1774.51	3.62049
1776.02	4.49361
1777.53	4.32242
1779.03	4.35698
1780.54	4.0539
1782.05	4.28406
1783.55	3.93726
1785.06	4.35132
1786.57	4.13237
1788.07	3.98084
1789.58	4.1472
1791.08	4.45722
1792.59	4.63211
1794.09	5.10968
1795.6	5.3944
1797.1	6.04398
1798.61	6.00761
1800.11	5.54961
1801.61	4.62957
1803.12	4.4121
1804.62	3.99739
1806.12	4.5099
1807.62	4.3216
1809.12	4.05955
1810.63	3.80793
1812.13	3.79182
1813.63	3.53609
1815.13	3.92673
1816.63	3.80484
1818.13	3.91931
1819.63	4.06917
1821.13	4.04972
1822.63	4.21206
1824.13	4.00932
1825.63	3.85249
1827.13	3.69863
1828.62	3.75051
1830.12	3.69109
1831.62	3.64132
1833.12	2.79247
1834.61	2.73818
1836.11	2.66506
1837.61	2.51497
1839.1	2.31698
1840.6	2.16221
1842.09	1.97841
1843.59	2.0215
1845.09	1.58958
1846.58	1.65647
1848.08	2.0168
1849.57	2.66603
1851.06	2.65481
1852.56	2.99537
1854.05	3.18769
1855.54	3.55545
1857.04	3.9263
1858.53	4.27252
1860.02	4.17665
1861.51	4.04747
1863.01	4.17001
1864.5	4.32364
1865.99	4.06055
1867.48	3.84831
1868.97	4.3891
1870.46	4.55741
1871.95	4.45906
1873.44	4.63299
1874.93	4.63645
1876.42	4.62015
1877.91	5.03396
1879.4	5.17716
1880.89	5.73337
1882.37	5.13408
1882.46	5.62847
1883.95	6.75782
1885.45	6.25469
1886.94	6.62812
1888.43	6.92011
1889.93	6.80257
1891.42	7.38554
1892.91	7.71641
1894.41	7.88582
1895.9	7.94834
1897.39	7.26873
1898.88	7.51529
1900.37	7.39535
1901.86	7.02974
1903.36	6.89522
1904.85	5.59213
1906.34	5.74332
1907.83	5.93925
1909.32	6.25213
1910.81	6.19584
1912.29	6.46855
1913.78	5.98249
1915.27	5.71287
1916.76	5.79011
1918.25	5.82023
1919.74	6.63878
1921.23	7.07681
1922.71	6.82781
1924.2	6.55175
1925.69	6.41748
1927.17	5.61124
1928.66	5.83429
1930.15	5.33382
1931.63	5.63353
1933.12	5.29985
1934.6	4.72677
1936.09	3.8347
1937.57	3.44805
1939.06	2.9173
1940.54	2.66746
1942.02	2.79686
1943.51	2.59317
1944.99	3.1589
1946.47	3.22845
1947.96	3.00089
1949.44	2.61247
1950.92	2.20883
1952.4	2.19072
1953.88	2.74923
1955.37	2.58604
1956.85	3.11715
1958.33	2.77529
1959.81	2.26991
1961.29	2.68152
1962.77	2.63485
1964.25	2.73259
1965.73	3.46144
1967.21	3.81519
1968.69	3.59359
1970.16	3.1112
1971.64	2.46603
1973.12	3.19806
1974.6	3.0764
1976.08	3.1041
1977.55	2.62228
1979.03	2.1907
1980.51	3.28815
1981.98	3.32565
1983.46	3.44517
1984.94	3.04121
1986.41	2.64347
1987.89	2.5284
1989.36	3.16309
1990.84	3.72759
1992.31	3.794
1993.79	3.52549
1995.26	2.80042
1996.73	2.22256
1998.21	2.33843
1999.68	3.0735
2001.15	3.53742
2002.63	4.02097
2004.1	3.28482
2005.57	3.9182
2007.04	2.73964
2008.51	2.1107
2009.99	2.06922
2011.46	2.83863
2012.93	2.38451
2014.4	2.58409
2015.87	2.95045
2017.34	2.99414
2018.81	2.48143
2020.28	2.04691
2021.75	1.97222
2023.21	2.38446
2024.68	2.25405
2026.15	2.72989
2027.62	2.21908
2029.09	2.19652
2030.56	2.3971
2032.02	2.52462
2033.49	3.02463
2034.96	2.97962
2036.42	3.54818
2037.89	4.07288
2039.36	4.26679
2040.82	3.65164
2042.29	3.39212
2043.75	2.79054
2045.22	3.00194
2046.68	3.81095
2048.14	3.75048
2049.61	4.48344
2051.07	4.56971
2052.54	6.07709
2054	6.34786
2055.46	6.83346
2056.93	6.8791
2058.39	7.64747
2059.85	7.63504
2061.31	8.41277
2062.77	8.2657
2064.23	8.52627
2065.7	8.67599
2067.16	8.86168
2068.62	9.20638
2070.08	9.67112
2071.54	10.761
2073	11.2079
2074.46	10.3771
2075.92	10.4121
2077.38	10.6461
2078.83	11.3287
2080.29	10.9489
2081.75	11.6558
2083.21	11.7266
2084.67	12.3729
2086.12	11.8333
2087.58	11.9942
2089.04	12.2368
2090.49	12.254
2091.95	12.4201
2093.41	12.3323
2094.86	12.4146
2096.32	12.9088
2097.77	12.7731
2099.23	12.5286
2100.68	12.7099
2102.14	13.1457
2103.59	13.0872
2105.05	12.762
2106.5	12.8478
2107.95	12.9894
2109.41	13.505
2110.86	13.7852
2112.31	13.7647
2113.76	13.6653
