#Acq. time (s)=	45
#Accumulations=	2
#Range (cm-¹)=	200...3150
#Windows=	2
#Auto scanning=	Off
#Autofocus=	Off
#Macrospot=	Off
#AutoExposure=	Off
#Spike filter=	Multiple accum.
#Delay time (s)=	0
#Binning=	1
#Readout mode=	Signal
#DeNoise=	Off
#ICS correction=	On
#Dark correction=	Off
#Inst. Process=	Off
#Detector Gain=	Best Dynamic Range
#Detector ADC=	20 kHz       
#Detector temperature (°C)=	-69.85
#Instrument=	LabRAM HR Evol
#Detector=	Synapse
#Objective=	x100
#Grating=	600 gr/mm
#ND Filter=	100%
#Laser (nm)=	532 
#Hole=	100.021
#Range=	Auto
#Laser Pol.=	No
#Raman. Pol.=	No
#Laser Pol. (°)=	-0.0007625
#Raman Pol. (°)=	89.9995
#Collection=	Microscope
#StageXY=	Marzhauser
#StageZ=	Marzhauser
#X (µm)=	9000.9
#Y (µm)=	-3094.9
#Z (µm)=	-54.85
#Full time(mm:ss)=	3:18
#Project=	
#Sample=	
#Site=	
#Title=	Thy_00_07_4_2x_45s_532 nm_x100_100%_600 gr_mm
#Remark=	
#Date=	28.06.2022 10:11
#Acquired=	28.06.2022 10:11:40
#Base:Fit=	10.08.2022 10:07:56
#Base:Sub=	10.08.2022 10:08:40
#Filter:Polynom=	16.08.2022 10:26:06
#AxisType[0]=Intens
#AxisUnit[0]=Cnt
#AxisType[1]=Spectr
#AxisUnit[1]=1/cm
200.407	-0.577128
202.221	-0.787075
204.035	0.473632
205.849	1.24743
207.665	1.89743
209.478	2.08514
211.291	1.7111
213.104	1.45742
214.916	1.71687
216.73	2.55384
218.541	2.88469
220.352	2.40614
222.163	2.36135
223.973	1.8602
225.785	2.66164
227.595	3.40598
229.404	3.70834
231.213	3.13439
233.022	4.82068
234.83	5.11141
236.638	6.67264
238.448	7.4044
240.255	8.32192
242.062	9.17152
243.868	9.01696
245.675	9.8863
247.48	9.93657
249.286	10.0795
251.091	10.1279
252.896	10.7738
254.702	9.78237
256.506	9.175
258.31	9.05532
260.113	9.39082
261.916	9.21567
263.719	9.05349
265.521	8.31809
267.323	7.78731
269.125	8.28029
270.926	8.11209
272.727	7.90486
274.527	7.57237
276.328	8.09456
278.127	7.74034
279.927	7.75557
281.726	8.44576
283.525	9.22415
285.323	9.58949
287.121	9.9868
288.919	9.98503
290.716	11.5955
292.513	12.1468
294.31	11.8904
296.104	11.3015
297.9	12.0472
299.696	12.1336
301.491	13.5027
303.286	15.3378
305.081	16.684
306.875	17.9696
308.669	17.4379
310.463	18.1744
312.256	19.4547
314.047	20.354
315.839	21.8571
317.631	23.0774
319.423	23.076
321.215	24.1871
323.006	26.6335
324.794	26.9932
326.585	27.4748
328.375	26.725
330.165	26.8454
331.954	25.9997
333.741	25.064
335.53	25.1774
337.318	23.6394
339.106	23.7662
340.894	23.268
342.679	22.4245
344.466	19.9599
346.253	20.0363
348.039	20.4191
349.823	19.7972
351.608	18.659
353.393	18.9517
355.176	19.2327
356.961	19.6453
358.745	21.4706
360.529	23.1017
362.31	25.4743
364.093	26.5707
365.876	27.091
367.657	27.0277
369.439	27.6261
371.221	27.7133
373	28.2967
374.781	28.6692
376.56	29.3122
378.34	29.2024
380.12	29.7681
381.898	29.2312
383.677	28.8083
385.456	28.4653
387.233	30.1556
389.011	30.2893
390.787	30.3317
392.565	29.3541
394.34	27.8214
396.117	27.3229
397.894	26.9345
399.668	27.7954
401.444	26.0656
403.217	25.0198
404.993	24.8622
406.766	24.3563
408.54	22.8727
410.312	23.3305
412.086	21.9678
413.858	20.3505
415.631	19.4082
417.402	17.5437
419.174	16.9084
420.944	15.4255
422.716	15.2128
424.486	14.162
426.257	12.9453
428.025	12.3959
429.794	10.5289
431.564	9.2231
433.332	7.37631
435.101	7.06717
436.868	6.17766
438.637	5.97159
440.403	7.13017
442.169	7.67859
443.937	8.53318
445.703	9.46296
447.468	11.134
449.234	12.2693
450.999	13.8859
452.765	12.8417
454.528	12.7344
456.292	12.9186
458.057	12.5411
459.819	13.1025
461.582	12.7585
463.344	12.2627
465.107	12.9405
466.868	13.4318
468.629	14.4497
470.392	15.2809
472.152	16.1652
473.912	16.8051
475.672	18.8414
477.433	19.4424
479.192	19.4865
480.951	20.6652
482.709	22.5288
484.469	24.911
486.226	25.7304
487.984	26.6404
489.74	28.2618
491.499	30.7164
493.255	32.3809
495.011	33.8659
496.767	35.2178
498.522	36.7552
500.277	36.7294
502.033	37.6632
503.788	38.2084
505.541	38.2899
507.295	39.8577
509.048	40.023
510.801	39.4176
512.553	38.6283
514.308	38.0146
516.06	37.071
517.811	35.0344
519.562	33.6391
521.313	33.1358
523.063	33.3619
524.814	33.6873
526.563	33.8696
528.313	33.6453
530.062	32.851
531.811	32.5107
533.559	31.4178
535.308	30.49
537.055	29.4602
538.803	27.4355
540.55	25.5361
542.297	24.6811
544.043	22.6399
545.789	21.037
547.535	19.1781
549.281	17.3386
551.026	16.6007
552.771	16.3075
554.515	16.0301
556.259	14.7819
558.003	14.565
559.747	14.1399
561.49	13.7874
563.233	14.0015
564.975	13.6069
566.717	12.9949
568.459	12.3932
570.2	11.8344
571.942	11.5718
573.68	11.0353
575.421	11.0531
577.161	10.7628
578.901	9.62988
580.64	9.71153
582.379	10.8389
584.118	10.5722
585.855	10.6656
587.593	10.5505
589.331	10.3944
591.068	10.4474
592.805	10.2633
594.54	9.37409
596.277	8.56196
598.013	8.15657
599.749	7.78779
601.484	6.40467
603.217	5.79736
604.952	5.57475
606.687	5.90208
608.421	6.29746
610.153	6.14615
611.886	6.28335
613.619	5.58294
615.35	5.58715
617.083	5.21186
618.815	5.24438
620.547	5.60143
622.276	5.57601
624.008	5.96488
625.738	5.68843
627.467	6.50514
629.197	6.42783
630.927	6.88382
632.655	7.67083
634.384	8.0455
636.113	9.47011
637.839	9.60488
639.568	9.68477
641.293	10.1934
643.021	10.6024
644.748	12.0416
646.473	12.1193
648.2	12.7043
649.924	13.4169
651.65	13.3321
653.376	13.3738
655.099	13.3239
656.824	13.4176
658.546	13.8481
660.271	14.36
661.993	14.0457
663.716	15.2922
665.438	16.5147
667.161	17.5772
668.881	17.9091
670.604	17.9958
672.324	18.518
674.045	18.4966
675.765	18.1012
677.486	18.1527
679.204	18.1803
680.925	18.7924
682.643	19.3846
684.361	19.6651
686.08	20.0385
687.797	20.3297
689.516	21.3232
691.232	21.8592
692.95	22.4184
694.666	23.1933
696.382	24.1252
698.099	24.3614
699.813	24.5814
701.528	25.1839
703.244	25.3194
704.958	25.9242
706.673	26.5265
708.387	26.9492
710.099	28.2904
711.814	29.0729
713.526	30.4424
715.238	31.2428
716.949	31.5826
718.663	32.1451
720.374	32.7313
722.084	33.8254
723.796	33.8534
725.506	34.8054
727.216	36.338
728.925	36.9052
730.636	38.4407
732.345	39.5921
734.053	41.5718
735.761	42.3158
737.471	44.4754
739.178	46.6831
740.885	48.9719
742.592	51.6643
744.298	55.4377
746.006	57.8567
747.712	60.8452
749.417	65.681
751.122	68.8133
752.827	72.1741
754.532	75.6855
756.236	78.2827
757.942	79.4225
759.645	81.0669
761.348	83.2227
763.051	84.6473
764.753	85.679
766.456	87.7913
768.158	88.7123
769.859	89.6497
771.56	90.326
773.261	90.6106
774.964	90.5237
776.664	90.2812
778.364	90.3636
780.064	89.7507
781.763	88.5556
783.462	87.3623
785.16	87.3022
786.859	86.6601
788.557	86.1493
790.255	85.817
791.952	85.5809
793.649	84.319
795.346	82.3302
797.042	81.3125
798.738	79.5168
800.434	77.6928
802.127	75.7523
803.823	74.8079
805.517	72.3144
807.212	70.4556
808.906	68.5173
810.6	66.4424
812.293	65.5084
813.987	64.4405
815.68	64.865
817.372	64.3016
819.064	64.5099
820.754	64.4528
822.446	65.9078
824.137	65.6888
825.828	66.9436
827.519	68.2865
829.209	68.7558
830.897	68.716
832.587	68.7009
834.276	68.4954
835.966	67.6487
837.654	66.3622
839.341	64.6158
841.029	61.7598
842.717	59.5665
844.404	58.2266
846.091	56.7637
847.776	54.8684
849.463	52.756
851.149	51.5285
852.833	48.8699
854.519	46.5547
856.204	44.5789
857.889	43.4451
859.572	41.2115
861.256	40.4104
862.94	39.3701
864.622	37.9095
866.305	37.2232
867.988	36.72
869.669	36.0801
871.351	34.2005
873.033	33.2862
874.713	32.5273
876.395	30.6353
878.074	29.4267
879.755	28.4918
881.435	28.0868
883.114	26.8551
884.794	27.2297
886.471	26.3647
888.15	25.3748
889.829	24.5673
891.506	25.0573
893.184	25.5458
894.861	25.5242
896.538	26.6944
898.214	26.6652
899.891	27.391
901.566	28.7868
903.242	29.3712
904.916	30.0785
906.592	31.4338
908.266	32.0371
909.941	33.7763
911.614	34.1707
913.288	34.5217
914.961	34.925
916.635	34.8033
918.306	35.1956
919.979	34.1033
921.651	33.4612
923.321	33.8103
924.994	32.854
926.664	32.6977
928.336	33.5696
930.005	34.5218
931.674	34.0466
933.345	33.4464
935.014	33.1853
936.682	32.7205
938.352	33.0043
940.019	33.824
941.687	34.7323
943.356	33.7098
945.022	33.4392
946.689	33.1202
948.357	33.1763
950.022	33.5269
951.688	32.7101
953.355	32.4645
955.02	32.3322
956.684	32.0962
958.348	30.5623
960.014	29.552
961.678	29.2624
963.341	28.3191
965.004	27.9652
966.669	27.9296
968.331	28.0965
969.993	27.3566
971.655	27.6973
973.316	27.9663
974.979	28.0983
976.64	27.8715
978.3	28.3592
979.961	28.7536
981.62	28.4571
983.28	28.4938
984.941	28.3593
986.6	27.6799
988.259	26.566
989.917	26.1183
991.575	25.411
993.233	25.4061
994.89	25.8435
996.547	26.8474
998.204	26.8867
999.86	27.7691
1001.52	28.8709
1003.17	29.5588
1004.83	31.49
1006.49	32.8907
1008.14	33.298
1009.79	35.2315
1011.45	37.3936
1013.1	38.6022
1014.76	38.8426
1016.41	40.0321
1018.06	40.2183
1019.72	41.4973
1021.37	42.4587
1023.02	42.3093
1024.67	42.1542
1026.32	41.495
1027.97	42.4481
1029.62	43.048
1031.27	42.3394
1032.92	41.2779
1034.57	40.0003
1036.22	37.6806
1037.87	36.1763
1039.52	34.2116
1041.17	32.922
1042.82	32.0275
1044.47	30.7638
1046.11	29.3554
1047.76	28.9273
1049.41	27.9863
1051.06	27.5943
1052.7	27.4146
1054.35	27.1515
1055.99	26.1548
1057.64	25.4966
1059.28	25.5658
1060.93	25.7223
1062.57	24.0788
1064.22	22.3166
1065.86	21.6468
1067.5	21.0506
1069.15	20.4034
1070.79	19.5888
1072.43	21.3051
1074.08	22.409
1075.72	24.4166
1077.36	26.7864
1079	27.4797
1080.64	28.0663
1082.28	28.3895
1083.92	27.7289
1085.56	27.5554
1087.2	28.2681
1088.84	28.8103
1090.48	28.889
1092.12	29.9728
1093.76	30.4041
1095.39	30.4731
1097.03	29.8918
1098.67	30.3425
1100.31	29.5887
1101.94	29.2947
1103.58	29.4759
1105.22	28.8442
1106.85	28.2973
1108.49	28.4078
1110.12	26.9409
1111.76	24.629
1113.39	22.9379
1115.03	20.3759
1116.66	19.1443
1118.29	16.9073
1119.93	16.9266
1121.56	15.4833
1123.19	14.6568
1124.82	13.1687
1126.46	12.2249
1128.09	11.5654
1129.72	11.7523
1131.35	11.1646
1132.98	10.944
1134.61	11.795
1136.24	11.8519
1137.87	11.881
1139.5	11.804
1141.13	12.3459
1142.76	11.4975
1144.39	11.8373
1146.01	12.003
1147.64	12.547
1149.27	12.6086
1150.9	12.9697
1152.53	13.2619
1154.15	13.6311
1155.78	13.159
1157.4	12.9385
1159.03	12.1154
1160.65	10.1813
1162.28	8.93372
1163.9	7.77433
1165.53	6.96374
1167.15	6.86021
1168.78	7.06229
1170.4	6.97471
1172.02	7.03061
1173.65	8.10123
1175.27	8.69826
1176.89	9.89121
1178.51	10.5794
1180.14	11.433
1181.76	10.8809
1183.38	10.6088
1185	10.6971
1186.62	10.15
1188.24	9.89007
1189.86	10.7117
1191.48	9.68972
1193.1	10.668
1194.71	10.7084
1196.33	11.8183
1197.95	13.7411
1199.57	13.9052
1201.19	14.8969
1202.8	15.2084
1204.42	15.7212
1206.04	16.4925
1207.65	17.2171
1209.27	17.6638
1210.88	18.6111
1212.5	19.6766
1214.12	21.7568
1215.73	24.1333
1217.35	24.9286
1218.96	26.5974
1220.57	27.3803
1222.19	29.3264
1223.8	30.5538
1225.41	31.7059
1227.03	31.705
1228.64	32.5543
1230.25	33.7004
1231.86	33.9055
1233.47	33.8829
1235.08	34.6243
1236.69	34.758
1238.31	34.8725
1239.92	34.851
1241.52	33.9425
1243.13	32.2187
1244.74	32.6194
1246.35	32.564
1247.96	33.137
1249.57	33.7606
1251.18	33.047
1252.78	33.5549
1254.39	34.1991
1256	33.1076
1257.6	32.4024
1259.21	31.6133
1260.82	30.1245
1262.42	27.9485
1264.03	27.859
1265.63	28.3895
1267.24	28.3996
1268.84	28.574
1270.45	28.218
1272.05	28.0528
1273.65	28.3318
1275.26	28.2432
1276.86	30.2646
1278.46	31.0377
1280.06	31.9386
1281.67	32.877
1283.27	34.2885
1284.87	35.8084
1286.47	37.2161
1288.07	38.2932
1289.67	39.714
1291.27	41.5532
1292.87	44.1057
1294.47	46.0473
1296.07	48.1094
1297.67	49.8293
1299.27	52.527
1300.87	52.9372
1302.47	53.9277
1304.06	54.6446
1305.66	56.2862
1307.26	58.2084
1308.85	60.4668
1310.45	61.2271
1312.05	62.3658
1313.64	64.007
1315.24	65.3304
1316.83	66.3444
1318.43	67.1114
1320.02	67.7356
1321.62	68.234
1323.21	68.7296
1324.8	70.3638
1326.4	69.6824
1327.99	69.8372
1329.59	69.1157
1331.18	68.7486
1332.77	68.0881
1334.36	67.1836
1335.95	65.776
1337.54	65.5722
1339.14	65.0181
1340.73	63.693
1342.32	63.001
1343.91	63.4548
1345.5	62.342
1347.09	62.0713
1348.67	61.8143
1350.26	60.844
1351.85	60.602
1353.44	60.1817
1355.03	59.65
1356.62	59.5446
1358.2	59.5087
1359.79	57.6404
1361.38	56.5581
1362.96	56.9907
1364.55	55.6753
1366.14	53.9932
1367.72	53.1435
1369.31	53.3763
1370.89	53.758
1372.48	53.7727
1374.06	52.81
1375.64	52.4072
1377.23	51.6442
1378.81	49.8105
1380.39	48.262
1381.98	47.8725
1383.56	47.8133
1385.14	48.0719
1386.72	47.0981
1388.3	46.353
1389.89	44.4697
1391.47	44.2883
1393.05	42.8258
1394.63	42.4083
1396.21	42.1364
1397.79	41.0102
1399.37	39.3445
1400.95	38.7316
1402.52	38.4863
1404.1	38.4928
1405.68	38.1231
1407.26	39.5165
1408.84	40.0447
1410.42	40.9381
1411.99	42.0712
1413.57	42.1526
1415.15	43.6886
1416.72	45.837
1418.3	47.3487
1419.87	48.861
1421.45	50.5132
1423.02	52.9651
1424.6	53.9904
1426.17	56.2923
1427.75	58.7678
1429.32	60.3729
1430.89	62.756
1432.47	65.7599
1434.04	68.623
1435.61	71.8074
1437.18	73.4799
1438.76	74.6975
1440.33	77.7194
1441.9	79.3399
1443.47	80.2995
1445.04	81.3993
1446.61	83.6428
1448.18	84.9266
1449.75	86.0786
1451.32	84.6738
1452.89	80.4017
1454.46	77.7545
1456.03	78.6968
1457.6	78.362
1459.16	78.8406
1460.73	78.68
1462.3	77.3658
1463.87	77.1318
1465.43	76.0308
1467	74.695
1468.56	72.8314
1470.13	71.822
1471.7	69.2293
1473.26	67.2073
1474.83	64.8124
1476.39	62.6477
1477.96	60.5223
1479.52	59.7808
1481.08	57.8863
1482.65	55.5556
1484.21	52.8106
1485.77	51.2881
1487.34	47.8295
1488.9	45.849
1490.46	43.7619
1492.02	40.6844
1493.58	41.0911
1495.15	38.8548
1496.71	36.0721
1498.27	34.5427
1499.83	34.1361
1501.39	33.5095
1502.95	31.8949
1504.51	32.1736
1506.07	31.8539
1507.63	29.9446
1509.18	29.5654
1510.74	27.9712
1512.3	26.101
1513.86	23.6771
1515.41	21.6949
1516.97	21.0413
1518.53	20.8343
1520.08	19.4143
1521.64	19.2403
1523.2	17.9709
1524.75	17.3613
1526.31	16.398
1527.86	15.4964
1529.42	14.5622
1530.97	14.566
1532.52	19.1713
1534.08	23.3228
1535.63	24.4495
1537.19	26.0003
1538.74	27.6136
1540.29	28.2753
1541.84	30.2498
1543.4	31.6537
1544.95	33.0281
1546.5	33.7285
1548.05	34.1318
1549.6	35.3369
1551.15	37.2136
1552.7	39.9803
1554.25	42.2576
1555.8	44.0773
1557.35	46.0536
1558.9	46.8629
1560.45	47.6166
1562	49.3445
1563.54	51.2404
1565.09	52.0778
1566.64	54.0719
1568.19	55.5942
1569.73	57.1536
1571.28	58.8692
1572.83	60.1294
1574.37	61.724
1575.92	64.3719
1577.47	65.9115
1579.01	65.7953
1580.56	66.4417
1582.1	67.0132
1583.64	67.9019
1585.19	68.0577
1586.73	67.9705
1588.28	67.8723
1589.82	68.0471
1591.36	68.1101
1592.9	68.9599
1594.45	69.1209
1595.99	69.575
1597.53	68.524
1599.07	67.9955
1600.61	66.9142
1602.15	65.8602
1603.69	65.4846
1605.23	64.5322
1606.77	65.1869
1608.31	64.5742
1609.85	64.8448
1611.39	64.6456
1612.93	64.3021
1614.47	63.7055
1616.01	63.2178
1617.55	62.1119
1619.08	61.7798
1620.62	61.2096
1622.16	60.5999
1623.7	59.9393
1625.23	59.0009
1626.77	59.7769
1628.3	59.5886
1629.84	60.3364
1631.37	59.6109
1632.91	59.2761
1634.44	58.5422
1635.98	58.0019
1637.51	58.063
1639.05	59.5139
1640.58	59.6165
1642.11	59.1916
1643.65	59.7735
1645.18	60.1576
1646.71	60.3917
1648.24	61.1601
1649.78	61.8272
1651.31	62.3884
1652.84	62.5422
1654.37	62.6511
1655.9	62.3671
1657.43	62.5417
1658.96	62.5396
1660.49	62.3488
1662.02	61.1115
1663.55	59.7856
1665.08	59.2864
1666.61	58.0449
1668.14	56.1716
1669.66	54.8891
1671.19	52.8347
1672.72	50.2342
1674.25	47.9877
1675.77	45.293
1677.3	43.2741
1678.83	41.8495
1680.35	40.5184
1681.88	38.3773
1683.4	37.7295
1684.93	35.5769
1686.45	32.4576
1687.98	29.8957
1689.5	27.3617
1691.03	25.4849
1692.55	23.1895
1694.07	21.3448
1695.6	18.9291
1697.12	16.9262
1698.64	14.7657
1700.17	12.7374
1701.69	10.6139
1703.21	9.91293
1704.73	8.49187
1706.25	7.66435
1707.77	6.10785
1709.29	5.28294
1710.81	3.92969
1712.33	3.06674
1713.85	2.46834
1715.37	2.50165
1716.89	1.6369
1718.41	0.780056
1719.93	0.82211
1721.45	0.711349
1722.97	1.52555
1724.49	2.27754
1726	2.71697
1727.52	3.14794
1729.04	2.74595
1730.55	3.14937
1732.07	3.48121
1733.59	4.17401
1735.1	5.0757
1736.62	5.15728
1738.13	5.50099
1739.65	5.21459
1741.16	5.09508
1742.68	3.8748
1744.19	3.31474
1745.7	2.58556
1747.22	1.82147
1748.73	1.42991
1750.24	2.02404
1751.76	1.78534
1753.27	2.80364
1754.78	2.98639
1756.29	2.53188
1757.8	2.36547
1759.31	3.54099
1760.83	3.0494
1762.34	2.88472
1763.85	3.71208
1765.36	3.67948
1766.87	3.84076
1768.38	3.30021
1769.89	2.90931
1771.39	1.71812
1772.9	2.59774
1774.41	2.28149
1775.92	2.93282
1777.43	3.28157
1778.94	3.76063
1780.44	3.58555
1781.95	3.49534
1783.46	2.97646
1784.96	2.61017
1786.47	2.40274
1787.97	2.38607
1789.48	2.99952
1790.99	2.70605
1792.49	2.44544
1794	2.65018
1795.5	3.52656
1797	3.86625
1798.51	4.26158
1800.01	4.33546
1801.51	4.72123
1803.02	5.20823
1804.52	5.25267
1806.02	5.66239
1807.53	6.436
1809.03	6.3671
1810.53	6.44201
1812.03	5.43119
1813.53	4.30127
1815.03	3.65656
1816.53	3.69447
1818.03	3.59515
1819.53	3.94707
1821.03	3.68582
1822.53	4.08683
1824.03	4.25123
1825.53	4.44245
1827.03	4.16252
1828.53	4.67226
1830.02	4.65601
1831.52	4.53395
1833.02	4.70829
1834.52	4.71005
1836.01	4.3645
1837.51	4.36716
1839.01	4.28627
1840.5	3.56307
1842	4.23028
1843.49	4.51812
1844.99	5.30979
1846.48	6.10072
1847.98	6.44314
1849.47	6.30314
1850.97	7.10683
1852.46	6.70949
1853.95	6.25923
1855.45	5.90664
1856.94	5.86625
1858.43	6.07649
1859.93	5.8581
1861.42	5.51231
1862.91	5.3855
1864.4	5.47059
1865.89	5.14231
1867.38	5.82686
1868.87	6.53812
1870.36	6.24266
1871.85	5.59067
1873.34	6.17328
1874.83	6.21918
1876.32	6.16723
1877.81	5.43996
1879.3	4.91228
1880.79	4.73061
1882.28	4.4249
1882.52	4.18143
1884.02	3.8589
1885.51	3.87779
1887.01	4.26832
1888.5	4.76995
1889.99	5.05265
1891.49	5.48248
1892.98	5.48042
1894.47	5.57346
1895.97	5.39531
1897.46	5.40435
1898.95	5.62091
1900.44	5.76731
1901.93	6.87642
1903.42	6.8502
1904.91	7.22906
1906.4	8.24797
1907.89	7.69457
1909.38	8.75491
1910.87	9.76339
1912.36	10.0179
1913.85	10.8154
1915.34	12.7073
1916.83	13.1298
1918.32	13.2484
1919.8	12.9565
1921.29	12.7983
1922.78	13.0962
1924.27	12.5943
1925.75	11.6925
1927.24	12.0229
1928.73	12.0835
1930.21	11.8121
1931.7	11.7793
1933.18	11.391
1934.67	11.0215
1936.15	11.5603
1937.64	11.5294
1939.12	11.3508
1940.61	11.2204
1942.09	11.2695
1943.57	10.5119
1945.06	10.5585
1946.54	10.5507
1948.02	9.74356
1949.51	9.935
1950.99	10.5196
1952.47	11.4095
1953.95	11.4269
1955.43	11.7929
1956.91	12.0037
1958.4	11.7752
1959.88	12.0437
1961.36	11.8795
1962.84	12.2292
1964.32	12.2486
1965.8	13.1559
1967.27	13.0044
1968.75	12.4068
1970.23	12.5149
1971.71	12.4075
1973.19	12.2602
1974.67	12.1497
1976.14	12.254
1977.62	11.1944
1979.1	10.4377
1980.58	10.1886
1982.05	9.08367
1983.53	9.61301
1985	8.93766
1986.48	8.28818
1987.95	8.74918
1989.43	8.2327
1990.9	6.70007
1992.38	6.49049
1993.85	6.06881
1995.33	5.54963
1996.8	4.81183
1998.27	4.76992
1999.75	4.77534
2001.22	4.82613
2002.69	4.02076
2004.16	3.88779
2005.64	3.15167
2007.11	2.97479
2008.58	3.07624
2010.05	2.21525
2011.52	2.09279
2012.99	2.54686
2014.46	2.87716
2015.93	4.22266
2017.4	4.38189
2018.87	4.68243
2020.34	5.62414
2021.81	6.47989
2023.28	7.16744
2024.75	7.17752
2026.22	6.84199
2027.69	6.74214
2029.15	7.2829
2030.62	7.15349
2032.09	8.1375
2033.56	8.68463
2035.02	9.13885
2036.49	9.37657
2037.96	10.8671
2039.42	11.9172
2040.89	11.447
2042.35	11.9872
2043.82	12.6472
2045.28	12.2839
2046.75	12.1207
2048.21	12.882
2049.67	13.3869
2051.14	13.1424
2052.6	13.9957
2054.07	15.4425
2055.53	15.3045
2056.99	16.105
2058.45	16.391
2059.92	17.0682
2061.38	17.0163
2062.84	16.289
2064.3	15.9613
2065.76	16.7612
2067.22	16.37
2068.68	16.3327
2070.14	16.1121
2071.6	15.7636
2073.06	15.253
2074.52	14.0323
2075.98	13.4905
2077.44	13.0056
2078.9	12.0008
2080.36	12.1273
2081.82	11.6533
2083.27	11.0067
2084.73	11.3306
2086.19	11.3514
2087.65	10.6141
2089.1	9.96246
2090.56	9.30412
2092.02	8.72912
2093.47	8.09207
2094.93	7.37475
2096.38	6.7746
2097.84	6.68784
2099.29	6.07625
2100.75	5.98585
2102.2	6.06269
2103.66	6.32358
2105.11	7.24731
2106.56	7.6507
2108.02	7.91505
2109.47	8.28917
2110.92	9.4605
2112.38	8.67951
2113.83	9.29239
2115.28	10.1173
2116.73	10.3449
2118.18	10.645
2119.63	11.1731
2121.09	12.0544
2122.54	12.5393
2123.99	12.5979
2125.44	13.1821
2126.89	13.4007
2128.34	12.8673
2129.79	13.0578
2131.23	12.8624
2132.68	12.5444
2134.13	12.0566
2135.58	12.1015
2137.03	12.3832
2138.48	12.125
