#Acq. time (s)=	45
#Accumulations=	2
#Range (cm-¹)=	200...3150
#Windows=	2
#Auto scanning=	Off
#Autofocus=	Off
#Macrospot=	Off
#AutoExposure=	Off
#Spike filter=	Multiple accum.
#Delay time (s)=	0
#Binning=	1
#Readout mode=	Signal
#DeNoise=	Off
#ICS correction=	On
#Dark correction=	Off
#Inst. Process=	Off
#Detector Gain=	Best Dynamic Range
#Detector ADC=	20 kHz       
#Detector temperature (°C)=	-69.85
#Instrument=	LabRAM HR Evol
#Detector=	Synapse
#Objective=	x100
#Grating=	600 gr/mm
#ND Filter=	100%
#Laser (nm)=	532 
#Hole=	100.021
#Range=	Auto
#Laser Pol.=	No
#Raman. Pol.=	No
#Laser Pol. (°)=	-0.0007625
#Raman Pol. (°)=	89.9995
#Collection=	Microscope
#StageXY=	Marzhauser
#StageZ=	Marzhauser
#X (µm)=	-5917.9
#Y (µm)=	2885.6
#Z (µm)=	-222.9
#Full time(mm:ss)=	3:18
#Project=	
#Sample=	
#Site=	
#Title=	Thy_20_09_27_2x_45s_532 nm_x100_100%_600 gr_mm
#Remark=	
#Date=	29.06.2022 12:32
#Acquired=	29.06.2022 12:32:53
#Base:Fit=	10.08.2022 09:52:02
#Base:Fit=	10.08.2022 09:52:12
#Base:Sub=	10.08.2022 09:54:21
#Filter:Polynom=	16.08.2022 10:24:04
#AxisType[0]=Intens
#AxisUnit[0]=Cnt
#AxisType[1]=Spectr
#AxisUnit[1]=1/cm
200.523	5.18469
202.339	3.40244
204.154	3.22078
205.967	2.00313
207.781	1.72377
209.596	1.24654
211.409	0.670275
213.222	0.529328
215.034	-0.0431978
216.848	-0.464
218.659	-0.32239
220.47	-0.088462
222.281	0.769018
224.091	1.83828
225.903	2.78243
227.713	3.20035
229.522	3.14493
231.331	3.22926
233.14	3.7939
234.948	3.66817
236.756	4.53599
238.566	4.47333
240.373	5.04009
242.18	5.72127
243.986	5.9707
245.792	6.3424
247.598	6.77499
249.403	6.94272
251.208	6.75719
253.013	7.50526
254.818	8.17195
256.624	8.43261
258.427	8.4735
260.231	8.58181
262.034	8.43567
263.836	8.42065
265.638	8.60666
267.44	9.34317
269.242	8.97526
271.043	9.81179
272.844	9.83976
274.645	9.82939
276.445	9.74555
278.245	8.24687
280.044	8.92083
281.843	9.00002
283.642	9.17268
285.44	9.17529
287.238	9.03374
289.036	8.94081
290.833	9.18063
292.63	9.86502
294.425	10.2435
296.221	10.8824
298.017	10.7451
299.813	10.2856
301.608	10.6565
303.403	11.8042
305.198	12.3234
306.992	13.6479
308.786	14.6892
310.579	15.0322
312.371	15.7323
314.163	15.1925
315.956	15.0228
317.748	14.7194
319.54	15.3786
321.331	15.9538
323.122	16.1531
324.911	15.7115
326.701	15.6585
328.491	15.1486
330.281	15.5431
332.071	15.5489
333.857	15.3363
335.646	15.0795
337.434	14.9639
339.222	14.437
341.008	14.1723
342.795	14.6156
344.582	14.3226
346.369	13.5649
348.153	12.9024
349.939	12.641
351.724	12.8091
353.51	12.4485
355.292	13.0815
357.077	13.1607
358.861	13.1879
360.643	13.2072
362.426	12.123
364.21	11.2183
365.99	11.4059
367.773	10.7852
369.555	10.7085
371.335	10.3044
373.116	10.5526
374.897	10.7384
376.676	10.9813
378.456	11.0365
380.236	10.7639
382.014	11.2311
383.793	11.2483
385.57	11.4035
387.349	11.7303
389.127	11.8639
390.903	13.5357
392.681	13.5344
394.456	12.9183
396.233	12.1472
398.007	11.4803
399.784	10.4981
401.56	9.96192
403.333	9.67215
405.108	10.4654
406.881	10.4236
408.656	10.7181
410.428	9.72442
412.202	8.66482
413.973	8.07441
415.746	8.28773
417.517	8.42101
419.29	8.25937
421.06	8.4847
422.831	7.68788
424.601	7.27644
426.37	7.04278
428.141	6.99566
429.909	6.49163
431.679	6.11176
433.447	5.95719
435.216	5.86483
436.983	5.55602
438.75	5.55965
440.519	5.89747
442.285	5.72047
444.052	6.4323
445.818	5.26045
447.583	4.95852
449.349	4.33235
451.114	3.65098
452.878	4.0184
454.643	4.59542
456.407	3.84645
458.169	4.38724
459.934	3.72964
461.696	3.81707
463.458	4.13689
465.222	4.11458
466.983	4.6836
468.744	5.24347
470.507	5.79552
472.267	6.47148
474.027	7.20431
475.787	7.27859
477.548	7.90826
479.307	7.98886
481.065	7.16227
482.823	7.56391
484.583	8.42494
486.341	9.71505
488.098	10.5518
489.855	11.4872
491.612	12.5147
493.37	13.4327
495.126	14.1852
496.881	14.2598
498.636	14.4796
500.391	14.4951
502.148	14.8328
503.902	15.6044
505.656	15.2465
507.409	15.0568
509.162	16.2253
510.915	16.7331
512.668	17.0066
514.42	17.1542
516.174	17.3074
517.925	17.7909
519.676	18.751
521.427	19.6684
523.178	19.9847
524.928	19.9935
526.678	20.7194
528.427	21.5804
530.176	22.0658
531.925	21.8735
533.673	20.5906
535.422	21.1928
537.169	20.8924
538.917	20.7895
540.664	20.5554
542.411	19.7552
544.157	19.0102
545.903	18.5071
547.649	17.5191
549.395	17.6209
551.14	17.4722
552.884	16.2958
554.629	16.0608
556.373	15.3556
558.117	13.7493
559.86	13.0428
561.603	11.8939
563.346	11.6978
565.089	11.3341
566.831	10.1076
568.573	8.86176
570.314	9.31325
572.053	9.09572
573.794	8.38035
575.534	7.37663
577.274	6.51553
579.014	6.07678
580.754	5.80969
582.493	4.22267
584.23	3.38158
585.968	2.88476
587.706	2.07299
589.444	1.82492
591.181	2.29971
592.919	1.32038
594.653	1.71657
596.39	2.46789
598.126	2.48205
599.862	2.01071
601.595	1.54743
603.33	2.51569
605.065	3.85435
606.8	4.12863
608.532	4.28723
610.266	4.79928
611.999	4.96246
613.732	5.51905
615.463	6.22521
617.196	5.82383
618.928	5.11161
620.66	5.93778
622.389	7.72053
624.12	8.27495
625.851	9.20553
627.58	9.11127
629.31	8.58893
631.04	7.95039
632.767	7.92135
634.497	8.48732
636.223	8.69711
637.952	9.08879
639.68	8.32964
641.406	8.64491
643.134	8.87208
644.861	9.05587
646.586	9.89811
648.312	10.4422
650.037	11.3055
651.762	10.942
653.486	11.2237
655.211	11.7044
656.936	12.6967
658.659	13.3136
660.383	14.0756
662.105	14.6923
663.829	15.5506
665.55	15.6489
667.273	16.6303
668.994	16.594
670.716	17.9324
672.436	18.5281
674.158	19.1549
675.877	20.0643
677.598	21.1728
679.317	21.5748
681.035	23.7512
682.755	24.4765
684.473	24.4676
686.192	24.7912
687.909	25.0898
689.628	26.6512
691.344	26.4948
693.06	27.2809
694.778	27.7425
696.493	29.0683
698.211	29.4937
699.925	30.6332
701.64	31.2775
703.356	31.3001
705.07	31.6222
706.783	32.8723
708.498	32.6437
710.211	31.9048
711.924	31.8368
713.638	32.0952
715.35	32.7749
717.061	33.0435
718.774	34.5274
720.485	34.7282
722.196	34.2449
723.906	34.2393
725.618	33.9282
727.328	35.3096
729.037	35.0306
730.746	34.9364
732.456	34.8717
734.165	34.8109
735.873	34.9866
737.58	35.3038
739.289	36.5831
740.997	37.9834
742.703	39.2329
744.41	40.4087
746.116	41.0187
747.823	41.6502
749.529	42.5868
751.234	43.4535
752.938	45.1052
754.643	46.0183
756.347	47.9795
758.051	49.3659
759.756	49.202
761.459	51.4538
763.162	52.4783
764.865	53.4306
766.567	54.8748
768.269	54.5713
769.97	56.1399
771.671	57.7662
773.372	58.9812
775.073	60.3179
776.773	61.2545
778.473	63.225
780.174	63.4874
781.874	64.922
783.573	65.6385
785.271	66.6869
786.97	67.0731
788.668	67.9733
790.365	68.4436
792.063	69.4494
793.76	70.5966
795.456	70.9581
797.153	72.1333
798.847	71.8132
800.543	71.3324
802.238	71.2827
803.933	71.4099
805.628	71.2039
807.322	71.5365
809.017	71.9137
810.71	72.0618
812.404	72.8927
814.097	72.5648
815.79	72.8215
817.483	73.6654
819.173	73.6277
820.865	73.8062
822.556	73.7818
824.248	73.8622
825.939	74.0311
827.629	73.0775
829.318	72.988
831.008	71.9498
832.697	71.7575
834.387	71.3401
836.076	70.8162
837.765	69.989
839.451	69.1861
841.139	68.7558
842.827	68.3775
844.514	66.8462
846.2	67.0225
847.886	64.3476
849.573	62.9543
851.259	61.2533
852.943	59.6598
854.629	59.2849
856.314	57.6832
857.997	56.3454
859.682	54.3112
861.366	52.3914
863.05	51.4238
864.732	49.9523
866.415	49.2517
868.098	48.4459
869.779	47.4651
871.461	46.0968
873.141	45.2618
874.823	43.805
876.505	42.6925
878.184	41.4913
879.865	39.9709
881.545	39.4881
883.223	38.8329
884.903	39.2139
886.581	39.6628
888.26	39.2116
889.937	39.5994
891.616	40.3602
893.294	39.6618
894.97	39.7225
896.648	40.2001
898.323	39.2516
900	38.9708
901.675	39.4179
903.351	38.8869
905.026	39.3544
906.701	38.8573
908.375	39.2061
910.05	40.1618
911.723	40.1527
913.398	40.0282
915.07	39.3499
916.742	39.7623
918.415	39.7586
920.087	39.493
921.76	40.178
923.43	40.125
925.103	39.4382
926.773	39.2057
928.443	37.0744
930.114	36.2622
931.783	35.5942
933.454	35.7968
935.123	35.8166
936.791	36.6138
938.461	36.7943
940.128	36.3724
941.796	35.7317
943.464	35.0604
945.131	34.6253
946.797	34.0754
948.465	32.8813
950.131	32.686
951.797	32.6371
953.462	31.8945
955.128	31.326
956.793	29.6966
958.457	28.3853
960.121	27.046
961.786	26.937
963.45	26.8138
965.113	26.1272
966.775	25.7776
968.44	25.3436
970.102	24.9308
971.763	24.6595
973.425	25.3777
975.086	25.8948
976.748	25.5579
978.409	26.7302
980.069	26.7612
981.729	27.0844
983.388	27.8269
985.048	27.7337
986.708	27.3061
988.367	26.7829
990.025	25.9038
991.683	26.2432
993.341	26.4356
994.998	25.4418
996.655	24.8478
998.312	24.0782
999.969	24.3421
1001.62	24.5629
1003.28	24.0449
1004.94	22.8663
1006.59	22.1865
1008.25	21.8893
1009.9	22.5688
1011.56	21.9541
1013.21	22.7633
1014.86	22.826
1016.52	21.9378
1018.17	21.6766
1019.82	21.4845
1021.48	20.9704
1023.13	20.208
1024.78	19.1841
1026.43	18.3233
1028.08	17.3207
1029.73	16.6023
1031.38	16.0614
1033.03	16.2269
1034.68	14.6549
1036.33	13.4161
1037.98	12.4689
1039.63	11.2265
1041.28	11.5335
1042.93	10.8305
1044.57	10.6353
1046.22	11.0034
1047.87	11.3776
1049.52	11.6238
1051.16	11.9289
1052.81	12.1451
1054.45	12.305
1056.1	13.0372
1057.75	12.7298
1059.39	13.0847
1061.04	13.026
1062.68	12.0915
1064.32	11.7261
1065.97	11.6357
1067.61	10.801
1069.25	10.3055
1070.9	9.62103
1072.54	9.24804
1074.18	9.75881
1075.82	10.1899
1077.47	10.0551
1079.11	9.44692
1080.75	9.32522
1082.39	10.3047
1084.03	9.79593
1085.67	9.60971
1087.31	11.0345
1088.95	12.5308
1090.59	12.6781
1092.22	13.4615
1093.86	13.4197
1095.5	13.7219
1097.14	13.5283
1098.78	13.5743
1100.41	14.7421
1102.05	14.6787
1103.69	14.1383
1105.32	13.8703
1106.96	13.6619
1108.59	13.3797
1110.23	12.7131
1111.86	13.2088
1113.5	12.9483
1115.13	12.9633
1116.77	12.0302
1118.4	12.2245
1120.03	12.256
1121.67	11.8468
1123.3	10.9982
1124.93	10.4994
1126.56	10.383
1128.19	11.1691
1129.83	10.3651
1131.46	9.25538
1133.09	9.14949
1134.72	8.28607
1136.35	7.58922
1137.98	7.46701
1139.61	6.3425
1141.24	5.81459
1142.86	5.06702
1144.49	4.10766
1146.12	4.15433
1147.75	4.07214
1149.38	3.40265
1151	2.88824
1152.63	2.2432
1154.26	3.10448
1155.88	3.77637
1157.51	3.87748
1159.14	3.46335
1160.76	3.62665
1162.39	3.89551
1164.01	4.59982
1165.63	3.92739
1167.26	4.95052
1168.88	4.72204
1170.51	3.47341
1172.13	3.87125
1173.75	3.79839
1175.38	3.41278
1177	3.70637
1178.62	4.14371
1180.24	3.84037
1181.86	4.03852
1183.48	4.05769
1185.1	2.79467
1186.72	3.74167
1188.34	4.32333
1189.96	4.47227
1191.58	4.74036
1193.2	5.01278
1194.82	5.06401
1196.44	5.24571
1198.06	5.94079
1199.68	5.61659
1201.29	6.30756
1202.91	6.73148
1204.53	7.04817
1206.14	8.03601
1207.76	9.14605
1209.38	10.1064
1210.99	10.5728
1212.61	10.9186
1214.22	11.6911
1215.84	11.9167
1217.45	13.8472
1219.07	14.9301
1220.68	16.4501
1222.29	18.4954
1223.91	19.9406
1225.52	21.4764
1227.13	22.9187
1228.74	24.012
1230.36	25.7343
1231.97	26.4855
1233.58	27.1741
1235.19	28.7478
1236.8	29.2174
1238.41	29.6151
1240.02	29.9471
1241.63	30.5145
1243.24	30.5537
1244.85	31.2429
1246.46	31.2012
1248.07	31.8047
1249.67	31.5733
1251.28	31.5416
1252.89	31.7199
1254.5	31.9952
1256.1	31.8095
1257.71	32.2253
1259.32	32.6588
1260.92	32.0076
1262.53	32.5208
1264.13	32.1215
1265.74	30.9191
1267.34	32.08
1268.95	31.6168
1270.55	30.6328
1272.15	30.4447
1273.76	30.1838
1275.36	30.2003
1276.97	30.4746
1278.57	31.3051
1280.17	30.7777
1281.77	31.865
1283.37	31.9465
1284.97	32.2907
1286.58	32.4777
1288.18	33.5552
1289.78	34.5122
1291.38	35.6848
1292.98	36.5446
1294.58	38.4368
1296.18	40.08
1297.78	41.6325
1299.37	42.0703
1300.97	43.5316
1302.57	44.7828
1304.17	45.9647
1305.77	46.9862
1307.36	47.2713
1308.96	48.1577
1310.55	48.7943
1312.15	48.4946
1313.75	49.0605
1315.34	50.2883
1316.94	50.4973
1318.53	51.0329
1320.13	51.1481
1321.72	50.9859
1323.32	51.208
1324.91	52.2248
1326.5	51.9298
1328.1	51.4951
1329.69	51.26
1331.28	50.7072
1332.87	51.6507
1334.47	52.1245
1336.06	51.8471
1337.65	51.6769
1339.24	51.4105
1340.83	50.7586
1342.42	49.7109
1344.01	48.3575
1345.6	48.5653
1347.19	48.2911
1348.78	47.1742
1350.37	46.2042
1351.96	46.0036
1353.54	45.5281
1355.13	45.3176
1356.72	45.3256
1358.31	44.5783
1359.89	43.1132
1361.48	42.8201
1363.07	41.8242
1364.65	41.4668
1366.24	40.9755
1367.82	41.0207
1369.41	40.7864
1370.99	39.9881
1372.58	39.0001
1374.16	38.6559
1375.75	38.2561
1377.33	38.0264
1378.91	37.9579
1380.5	38.6011
1382.08	38.9598
1383.66	38.7007
1385.25	37.2775
1386.83	37.4973
1388.41	37.1254
1389.99	36.2733
1391.57	35.5576
1393.15	35.2651
1394.73	35.018
1396.31	34.4915
1397.89	34.3139
1399.47	33.4489
1401.05	33.1333
1402.63	33.5222
1404.21	33.8178
1405.78	32.3423
1407.36	32.2141
1408.94	32.3741
1410.52	33.4961
1412.1	33.9463
1413.67	33.5543
1415.25	34.3746
1416.82	34.2725
1418.4	35.659
1419.98	36.2937
1421.55	36.6951
1423.13	38.0158
1424.7	39.6873
1426.28	40.3285
1427.85	40.6594
1429.42	42.2529
1431	43.5247
1432.57	44.3491
1434.14	44.7469
1435.71	45.482
1437.29	45.5169
1438.86	46.0814
1440.43	46.8042
1442	47.2798
1443.57	47.9334
1445.14	48.326
1446.71	48.8019
1448.28	48.5075
1449.85	48.4028
1451.42	48.4976
1452.99	49.192
1454.56	49.398
1456.13	49.4245
1457.7	49.3985
1459.26	49.4843
1460.83	47.9719
1462.4	46.2488
1463.97	44.7381
1465.54	43.1828
1467.1	40.8068
1468.67	38.9095
1470.23	37.2952
1471.8	35.9429
1473.36	34.4069
1474.93	33.3058
1476.49	32.1624
1478.06	30.2085
1479.62	29.5445
1481.19	27.7162
1482.75	26.2145
1484.31	23.8584
1485.88	23.2019
1487.44	22.2579
1489	21.5543
1490.56	19.6085
1492.13	19.3675
1493.69	19.3926
1495.25	18.3101
1496.81	18.0342
1498.37	16.9542
1499.93	16.3533
1501.49	16.323
1503.05	16.3533
1504.61	15.8554
1506.17	15.0515
1507.73	15.2841
1509.28	15.1754
1510.84	15.1561
1512.4	15.3611
1513.96	16.0683
1515.52	16.9094
1517.07	18.6141
1518.63	18.9964
1520.19	19.4122
1521.74	19.5381
1523.3	20.2141
1524.85	20.2566
1526.41	20.6942
1527.96	21.8141
1529.52	22.6183
1531.07	23.9624
1532.63	24.298
1534.18	25.7796
1535.73	25.9211
1537.29	25.6521
1538.84	25.7021
1540.39	26.2017
1541.94	27.0297
1543.5	27.6156
1545.05	28.6954
1546.6	29.3752
1548.15	30.8691
1549.7	32.3257
1551.25	33.483
1552.8	35.3811
1554.35	36.3526
1555.9	36.1795
1557.45	36.8724
1559	36.519
1560.55	37.212
1562.1	37.4064
1563.65	38.2926
1565.19	39.4295
1566.74	40.6314
1568.29	40.7236
1569.83	42.5227
1571.38	43.2124
1572.93	43.7854
1574.47	44.4035
1576.02	45.5895
1577.56	46.3731
1579.11	46.9327
1580.66	47.6722
1582.2	48.3846
1583.74	49.944
1585.29	50.628
1586.83	51.381
1588.38	51.4553
1589.92	52.1362
1591.46	52.3574
1593.01	52.7304
1594.55	51.9668
1596.09	51.9863
1597.63	52.3957
1599.17	52.96
1600.71	52.7225
1602.25	53.1226
1603.79	53.1035
1605.34	53.0102
1606.88	53.0237
1608.41	53.062
1609.95	51.7665
1611.49	51.0122
1613.03	49.513
1614.57	48.7442
1616.11	49.4775
1617.65	48.837
1619.18	48.03
1620.72	47.4291
1622.26	46.748
1623.79	45.6725
1625.33	46.042
1626.87	44.7957
1628.4	44.735
1629.94	43.9876
1631.48	43.7292
1633.01	42.6771
1634.55	42.6676
1636.08	42.7703
1637.61	43.3294
1639.15	43.5062
1640.68	44.4648
1642.21	44.8064
1643.75	44.8203
1645.28	44.7724
1646.81	45.0176
1648.34	45.2272
1649.88	44.9042
1651.41	44.4471
1652.94	44.1309
1654.47	43.5159
1656	42.6516
1657.53	42.519
1659.06	42.7009
1660.59	42.2352
1662.12	41.4599
1663.65	41.1117
1665.18	39.9124
1666.71	40.4776
1668.24	40.1598
1669.76	40.325
1671.29	39.6584
1672.82	40.126
1674.35	38.9382
1675.87	37.1944
1677.4	35.9625
1678.93	35.8063
1680.45	33.8592
1681.98	32.4656
1683.5	31.173
1685.03	29.0949
1686.55	27.342
1688.08	26.3276
1689.6	24.8629
1691.13	23.7693
1692.65	22.6539
1694.17	20.0927
1695.7	18.199
1697.22	17.1584
1698.74	15.5216
1700.27	14.3411
1701.79	13.3599
1703.31	11.369
1704.83	11.4895
1706.35	10.424
1707.87	10.4248
1709.39	9.56541
1710.91	10.0148
1712.43	9.63934
1713.95	9.13897
1715.47	8.0577
1716.99	7.21522
1718.51	5.42862
1720.03	5.02721
1721.55	4.45717
1723.07	3.9173
1724.58	4.23097
1726.1	3.48804
1727.62	3.27431
1729.13	3.31929
1730.65	3.59735
1732.17	3.68762
1733.68	4.20254
1735.2	4.74853
1736.72	4.70163
1738.23	4.53411
1739.74	4.17099
1741.26	4.06446
1742.77	4.78826
1744.29	4.00587
1745.8	3.72324
1747.32	3.43657
1748.83	3.53175
1750.34	2.98628
1751.85	3.06023
1753.37	3.79289
1754.88	4.23734
1756.39	3.4168
1757.9	3.95978
1759.41	3.93382
1760.92	3.30739
1762.44	3.80814
1763.95	3.45932
1765.46	2.65827
1766.96	2.7799
1768.47	2.325
1769.98	2.29874
1771.49	2.54675
1773	2.70264
1774.51	2.60095
1776.02	2.79411
1777.53	2.88444
1779.03	3.31486
1780.54	4.14304
1782.05	4.1103
1783.55	4.59492
1785.06	5.03354
1786.57	5.02319
1788.07	4.06316
1789.58	4.22732
1791.08	4.3368
1792.59	4.06541
1794.09	4.43249
1795.6	5.35183
1797.1	5.77066
1798.61	5.96394
1800.11	5.804
1801.61	5.64086
1803.12	5.35559
1804.62	5.43854
1806.12	5.34306
1807.62	5.68342
1809.12	5.27289
1810.63	5.1838
1812.13	4.5111
1813.63	3.55104
1815.13	3.57994
1816.63	3.47523
1818.13	3.21948
1819.63	3.10031
1821.13	3.21124
1822.63	3.28557
1824.13	3.01729
1825.63	2.66927
1827.13	2.89136
1828.62	2.8403
1830.12	2.56843
1831.62	2.03129
1833.12	2.43581
1834.61	1.87367
1836.11	2.34093
1837.61	2.57969
1839.1	2.94527
1840.6	3.62778
1842.09	3.37109
1843.59	3.53384
1845.09	3.88883
1846.58	4.0289
1848.08	3.69568
1849.57	3.66792
1851.06	3.9547
1852.56	4.02117
1854.05	3.86196
1855.54	4.11513
1857.04	3.90317
1858.53	4.00378
1860.02	4.58669
1861.51	4.28723
1863.01	4.71553
1864.5	5.47514
1865.99	5.22501
1867.48	4.94183
1868.97	5.00808
1870.46	4.98258
1871.95	4.21623
1873.44	4.0437
1874.93	3.6948
1876.42	3.52137
1877.91	3.57133
1879.4	3.75237
1880.89	3.51679
1882.37	3.21263
1882.46	2.23913
1883.95	2.0844
1885.45	1.8958
1886.94	1.73024
1888.43	1.66407
1889.93	1.43969
1891.42	0.97541
1892.91	0.839735
1894.41	0.397339
1895.9	0.410361
1897.39	0.878763
1898.88	1.18324
1900.37	1.2269
1901.86	0.965604
1903.36	1.35669
1904.85	1.499
1906.34	2.25889
1907.83	2.39411
1909.32	2.2051
1910.81	2.2305
1912.29	2.92019
1913.78	2.94806
1915.27	2.28299
1916.76	2.64756
1918.25	2.9246
1919.74	2.67772
1921.23	2.71528
1922.71	2.64068
1924.2	2.85052
1925.69	3.16931
1927.17	3.49715
1928.66	4.17315
1930.15	4.37362
1931.63	5.08456
1933.12	5.2629
1934.6	4.65817
1936.09	4.49604
1937.57	4.02857
1939.06	3.33774
1940.54	3.13033
1942.02	2.95909
1943.51	2.75393
1944.99	2.25697
1946.47	2.55536
1947.96	2.56771
1949.44	2.47343
1950.92	3.29769
1952.4	3.36895
1953.88	3.1331
1955.37	2.84216
1956.85	2.83085
1958.33	3.24665
1959.81	2.71075
1961.29	2.77037
1962.77	2.61896
1964.25	2.54368
1965.73	2.73984
1967.21	2.89998
1968.69	3.3005
1970.16	3.93283
1971.64	3.94484
1973.12	3.43769
1974.6	3.36469
1976.08	4.14398
1977.55	4.89424
1979.03	5.14609
1980.51	5.21565
1981.98	5.72974
1983.46	6.20015
1984.94	6.80889
1986.41	7.53185
1987.89	7.31976
1989.36	6.94507
1990.84	7.09638
1992.31	7.37332
1993.79	7.29419
1995.26	6.98437
1996.73	6.50491
1998.21	7.85949
1999.68	8.18094
2001.15	7.73831
2002.63	7.74551
2004.1	7.16352
2005.57	6.9174
2007.04	6.33729
2008.51	5.87544
2009.99	5.73875
2011.46	5.62091
2012.93	5.63168
2014.4	5.61771
2015.87	6.43877
2017.34	6.51854
2018.81	6.16843
2020.28	6.3049
2021.75	6.3406
2023.21	5.93752
2024.68	5.42584
2026.15	4.32931
2027.62	3.41453
2029.09	2.85905
2030.56	2.82964
2032.02	2.42698
2033.49	1.61802
2034.96	1.68904
2036.42	1.43702
2037.89	1.57881
2039.36	1.56506
2040.82	1.49398
2042.29	2.25648
2043.75	2.9378
2045.22	2.82891
2046.68	3.69774
2048.14	4.62687
2049.61	4.96234
2051.07	5.70565
2052.54	6.16611
2054	6.28148
2055.46	7.03114
2056.93	7.06375
2058.39	6.69365
2059.85	7.24981
2061.31	7.27426
2062.77	7.34545
2064.23	7.49666
2065.7	7.69593
2067.16	7.87867
2068.62	7.74163
2070.08	8.15748
2071.54	8.51655
2073	8.03717
2074.46	8.06569
2075.92	8.53944
2077.38	8.84589
2078.83	9.15897
2080.29	9.40376
2081.75	9.86367
2083.21	10.5737
2084.67	10.727
2086.12	10.8111
2087.58	11.1981
2089.04	11.5946
2090.49	11.1026
2091.95	10.5492
2093.41	10.6994
2094.86	10.5839
2096.32	10.3665
2097.77	10.2668
2099.23	10.5646
2100.68	10.9804
2102.14	11.9928
2103.59	12.1026
2105.05	12.4564
2106.5	12.3535
2107.95	12.9918
2109.41	13.6905
2110.86	14.0614
2112.31	14.1647
2113.76	14.5825
2115.21	15.3991
2116.67	15.6413
2118.12	16.0389
2119.57	16.3273
2121.02	16.4365
2122.47	16.4228
2123.92	16.9476
2125.37	16.8792
2126.82	17.0882
2128.27	17.0671
2129.72	17.521
2131.17	17.8301
