#Acq. time (s)=	45
#Accumulations=	2
#Range (cm-¹)=	200...3150
#Windows=	2
#Auto scanning=	Off
#Autofocus=	Off
#Macrospot=	Off
#AutoExposure=	Off
#Spike filter=	Multiple accum.
#Delay time (s)=	0
#Binning=	1
#Readout mode=	Signal
#DeNoise=	Off
#ICS correction=	On
#Dark correction=	Off
#Inst. Process=	Off
#Detector Gain=	Best Dynamic Range
#Detector ADC=	20 kHz       
#Detector temperature (°C)=	-69.62
#Instrument=	LabRAM HR Evol
#Detector=	Synapse
#Objective=	x100
#Grating=	600 gr/mm
#ND Filter=	100%
#Laser (nm)=	532 
#Hole=	100.021
#Range=	Auto
#Laser Pol.=	No
#Raman. Pol.=	No
#Laser Pol. (°)=	-0.0007625
#Raman Pol. (°)=	89.9995
#Collection=	Microscope
#StageXY=	Marzhauser
#StageZ=	Marzhauser
#X (µm)=	9026
#Y (µm)=	-3094.5
#Z (µm)=	-55.1
#Full time(mm:ss)=	3:18
#Project=	
#Sample=	
#Site=	
#Title=	Thy_00_07_12_2x_45s_532 nm_x100_100%_600 gr_mm
#Remark=	
#Date=	28.06.2022 10:53
#Acquired=	28.06.2022 10:53:58
#Base:Fit=	10.08.2022 10:06:44
#Base:Fit=	10.08.2022 10:07:16
#Base:Fit=	10.08.2022 10:07:25
#Base:Fit=	10.08.2022 10:07:44
#Base:Fit=	10.08.2022 10:07:56
#Base:Sub=	10.08.2022 10:08:39
#Filter:Polynom=	16.08.2022 10:26:06
#AxisType[0]=Intens
#AxisUnit[0]=Cnt
#AxisType[1]=Spectr
#AxisUnit[1]=1/cm
200.407	36.7021
202.221	39.2753
204.035	39.7085
205.849	41.2947
207.665	42.1123
209.478	42.9156
211.291	43.5872
213.104	43.9937
214.916	44.2949
216.73	44.2917
218.541	43.5774
220.352	43.7008
222.163	43.0556
223.973	42.3326
225.785	41.3266
227.595	40.1809
229.404	38.2137
231.213	38.2873
233.022	38.3994
234.83	37.3923
236.638	35.3467
238.448	32.3232
240.255	30.7521
242.062	28.7685
243.868	27.7298
245.675	25.7797
247.48	23.5622
249.286	21.7046
251.091	20.5589
252.896	19.3917
254.702	18.374
256.506	17.2968
258.31	17.2913
260.113	16.4352
261.916	16.1092
263.719	15.4751
265.521	14.3711
267.323	12.3366
269.125	10.4163
270.926	10.2059
272.727	8.70878
274.527	8.4011
276.328	8.36272
278.127	7.90374
279.927	6.74482
281.726	6.41345
283.525	6.37497
285.323	7.24646
287.121	6.52863
288.919	7.18788
290.716	7.90623
292.513	8.55392
294.31	9.22947
296.104	10.0048
297.9	11.6567
299.696	12.8103
301.491	13.4839
303.286	13.7484
305.081	14.6887
306.875	15.6531
308.669	15.8727
310.463	17.3122
312.256	17.1103
314.047	17.5664
315.839	18.0285
317.631	18.179
319.423	18.9984
321.215	20.191
323.006	19.4695
324.794	18.9236
326.585	18.9802
328.375	18.2968
330.165	19.6327
331.954	19.3963
333.741	19.8262
335.53	19.2122
337.318	19.7715
339.106	19.2214
340.894	18.9002
342.679	19.0445
344.466	18.0336
346.253	16.3277
348.039	15.9543
349.823	15.6196
351.608	16.0112
353.393	15.466
355.176	14.0627
356.961	13.5233
358.745	13.319
360.529	12.988
362.31	12.418
364.093	11.3802
365.876	9.70353
367.657	10.4516
369.439	10.3543
371.221	10.675
373	11.2212
374.781	11.3578
376.56	10.9803
378.34	11.2498
380.12	11.4579
381.898	12.7571
383.677	12.4868
385.456	13.1803
387.233	13.3327
389.011	12.7798
390.787	11.4561
392.565	12.5389
394.34	12.0418
396.117	11.335
397.894	11.3064
399.668	12.4137
401.444	12.348
403.217	14.084
404.993	13.989
406.766	13.9336
408.54	15.2498
410.312	16.6219
412.086	17.4646
413.858	17.8361
415.631	18.1769
417.402	17.4166
419.174	18.3759
420.944	17.8573
422.716	17.664
424.486	17.9103
426.257	17.7317
428.025	16.1567
429.794	15.6667
431.564	16.4617
433.332	14.2443
435.101	14.2224
436.868	14.538
438.637	15.2853
440.403	14.5087
442.169	14.3241
443.937	12.7364
445.703	14.0632
447.468	14.3436
449.234	14.2441
450.999	14.8594
452.765	13.9578
454.528	15.1358
456.292	16.048
458.057	15.5378
459.819	15.8518
461.582	15.8357
463.344	15.2975
465.107	14.6935
466.868	15.641
468.629	15.2791
470.392	15.2901
472.152	13.7123
473.912	14.6578
475.672	15.5164
477.433	15.5746
479.192	16.3432
480.951	17.6316
482.709	19.0072
484.469	20.3169
486.226	22.0258
487.984	23.6164
489.74	24.6847
491.499	26.3345
493.255	26.7305
495.011	28.5344
496.767	29.8062
498.522	31.1338
500.277	31.0296
502.033	31.8894
503.788	33.0907
505.541	33.5111
507.295	34.3162
509.048	34.1946
510.801	33.7863
512.553	32.7529
514.308	30.5179
516.06	29.3701
517.811	28.8118
519.562	27.8261
521.313	25.9509
523.063	25.3894
524.814	25.0064
526.563	24.4463
528.313	23.9938
530.062	25.3239
531.811	24.96
533.559	25.2675
535.308	24.3155
537.055	23.0491
538.803	23.73
540.55	22.6883
542.297	21.3758
544.043	19.6507
545.789	19.6114
547.535	19.0942
549.281	17.6595
551.026	17.611
552.771	16.8963
554.515	16.5281
556.259	15.9046
558.003	16.3158
559.747	16.7034
561.49	17.2546
563.233	16.5199
564.975	15.4939
566.717	16.5908
568.459	16.5048
570.2	16.0431
571.942	14.3448
573.68	14.4844
575.421	14.0805
577.161	12.9751
578.901	12.664
580.64	12.809
582.379	12.4424
584.118	12.3403
585.855	12.8937
587.593	12.5664
589.331	12.5861
591.068	11.6761
592.805	11.0992
594.54	9.77811
596.277	9.49674
598.013	7.2835
599.749	6.74351
601.484	7.27877
603.217	8.29917
604.952	7.89684
606.687	7.7267
608.421	8.15516
610.153	7.5269
611.886	8.94775
613.619	9.08504
615.35	8.73005
617.083	8.77362
618.815	7.30167
620.547	7.29833
622.276	7.64155
624.008	7.40131
625.738	8.14838
627.467	7.75554
629.197	8.62969
630.927	9.36935
632.655	10.5273
634.384	10.1524
636.113	9.69271
637.839	9.2889
639.568	9.08821
641.293	9.08028
643.021	8.99574
644.748	9.08049
646.473	8.96519
648.2	9.83561
649.924	10.107
651.65	10.3068
653.376	10.5525
655.099	8.66928
656.824	9.09994
658.546	10.351
660.271	10.5557
661.993	11.3804
663.716	13.0158
665.438	14.862
667.161	15.9129
668.881	15.5073
670.604	15.5338
672.324	16.7786
674.045	18.2688
675.765	19.5528
677.486	20.3417
679.204	21.4796
680.925	21.6767
682.643	23.8031
684.361	24.1566
686.08	26.4156
687.797	27.3695
689.516	28.5789
691.232	28.7245
692.95	28.2444
694.666	27.6157
696.382	28.528
698.099	30.5031
699.813	30.6669
701.528	30.7961
703.244	31.2573
704.958	31.5876
706.673	31.7664
708.387	32.9557
710.099	34.0631
711.814	35.9363
713.526	36.5474
715.238	36.2476
716.949	35.7574
718.663	36.0473
720.374	35.4821
722.084	35.8887
723.796	37.4574
725.506	39.7784
727.216	40.393
728.925	40.9265
730.636	43.4657
732.345	45.5034
734.053	46.6669
735.761	47.3925
737.471	49.3968
739.178	51.0271
740.885	52.76
742.592	55.2874
744.298	57.7495
746.006	59.0203
747.712	61.056
749.417	62.148
751.122	62.9185
752.827	64.5261
754.532	66.7151
756.236	69.1242
757.942	71.4433
759.645	73.3127
761.348	73.9783
763.051	74.5602
764.753	75.9574
766.456	77.3031
768.158	78.5603
769.859	79.3499
771.56	79.3824
773.261	79.0004
774.964	79.2515
776.664	78.2531
778.364	77.7298
780.064	79.0667
781.763	79.4991
783.462	78.5373
785.16	76.6458
786.859	76.4712
788.557	76.3388
790.255	76.8144
791.952	76.4392
793.649	77.3271
795.346	77.0946
797.042	77.1074
798.738	75.7288
800.434	75.3143
802.127	74.3713
803.823	73.353
805.517	73.6859
807.212	73.2238
808.906	72.2106
810.6	71.1146
812.293	70.2119
813.987	69.768
815.68	70.8693
817.372	69.9352
819.064	68.9835
820.754	69.2243
822.446	68.8588
824.137	68.9994
825.828	69.2118
827.519	70.0815
829.209	69.4963
830.897	69.0007
832.587	69.019
834.276	68.9271
835.966	69.0191
837.654	68.7147
839.341	68.7451
841.029	67.6888
842.717	67.3074
844.404	66.5756
846.091	65.0213
847.776	64.2447
849.463	62.7648
851.149	61.3764
852.833	59.2806
854.519	58.601
856.204	57.0555
857.889	56.5371
859.572	56.1506
861.256	55.4166
862.94	54.3514
864.622	54.2148
866.305	53.2233
867.988	53.2915
869.669	53.3146
871.351	53.1904
873.033	52.5172
874.713	51.3958
876.395	51.1009
878.074	50.4016
879.755	50.3943
881.435	48.5091
883.114	47.0557
884.794	45.8929
886.471	44.2889
888.15	43.8047
889.829	42.464
891.506	41.7443
893.184	42.0343
894.861	41.7136
896.538	40.7949
898.214	40.0307
899.891	39.7206
901.566	39.1214
903.242	39.9573
904.916	41.0563
906.592	42.4769
908.266	41.9924
909.941	40.6913
911.614	40.1109
913.288	39.3839
914.961	40.2504
916.635	39.0438
918.306	38.2526
919.979	37.942
921.651	37.3343
923.321	38.5398
924.994	36.4421
926.664	35.2724
928.336	34.1653
930.005	34.2335
931.674	34.6939
933.345	35.1049
935.014	36.0359
936.682	36.5783
938.352	37.4195
940.019	37.7667
941.687	37.5092
943.356	36.7462
945.022	36.9989
946.689	37.6421
948.357	38.3054
950.022	39.1167
951.688	38.9061
953.355	37.8944
955.02	36.959
956.684	37.1428
958.348	36.9173
960.014	35.6764
961.678	34.0255
963.341	34.3095
965.004	34.6079
966.669	36.3002
968.331	37.5281
969.993	38.321
971.655	39.4646
973.316	40.1947
974.979	41.7174
976.64	42.1483
978.3	42.0147
979.961	42.319
981.62	43.3068
983.28	43.7723
984.941	45.3797
986.6	45.2507
988.259	43.6168
989.917	41.621
991.575	39.7431
993.233	39.4137
994.89	38.8831
996.547	38.4026
998.204	37.2132
999.86	36.0411
1001.52	36.5496
1003.17	38.1301
1004.83	38.8487
1006.49	40.169
1008.14	40.1376
1009.79	41.8221
1011.45	43.7553
1013.1	45.5249
1014.76	46.3776
1016.41	46.825
1018.06	47.2699
1019.72	46.9792
1021.37	46.6745
1023.02	46.3413
1024.67	45.8538
1026.32	46.171
1027.97	45.7139
1029.62	44.6816
1031.27	43.3216
1032.92	41.175
1034.57	38.6027
1036.22	36.4289
1037.87	34.9404
1039.52	33.3483
1041.17	31.3419
1042.82	29.5923
1044.47	29.5542
1046.11	30.7104
1047.76	30.841
1049.41	29.9298
1051.06	28.0685
1052.7	27.1474
1054.35	26.1221
1055.99	24.0442
1057.64	22.5932
1059.28	21.6883
1060.93	20.1366
1062.57	18.3589
1064.22	16.2636
1065.86	15.2662
1067.5	14.2602
1069.15	11.8281
1070.79	10.7016
1072.43	10.36
1074.08	10.9431
1075.72	11.0846
1077.36	11.1328
1079	11.6607
1080.64	11.8703
1082.28	12.5907
1083.92	13.7085
1085.56	16.3667
1087.2	16.5129
1088.84	16.9966
1090.48	17.8121
1092.12	19.7411
1093.76	21.3496
1095.39	22.4751
1097.03	23.6641
1098.67	25.4858
1100.31	26.6425
1101.94	27.8635
1103.58	29.1961
1105.22	30.0642
1106.85	30.8836
1108.49	31.8667
1110.12	31.269
1111.76	31.7669
1113.39	31.6601
1115.03	29.4281
1116.66	29.5322
1118.29	29.7086
1119.93	29.5563
1121.56	29.8904
1123.19	30.1652
1124.82	29.2653
1126.46	29.0951
1128.09	29.5236
1129.72	28.2643
1131.35	27.0338
1132.98	26.8716
1134.61	27.2231
1136.24	26.7974
1137.87	27.2345
1139.5	27.7017
1141.13	28.6192
1142.76	29.274
1144.39	29.2368
1146.01	28.4263
1147.64	28.3876
1149.27	28.192
1150.9	28.2033
1152.53	27.4978
1154.15	26.4731
1155.78	26.1043
1157.4	24.9916
1159.03	22.5108
1160.65	20.1283
1162.28	18.7447
1163.9	17.4363
1165.53	16.7798
1167.15	17.383
1168.78	16.8669
1170.4	16.8444
1172.02	17.3476
1173.65	19.027
1175.27	18.4121
1176.89	18.7457
1178.51	19.2439
1180.14	18.5922
1181.76	19.0088
1183.38	18.9515
1185	18.1464
1186.62	18.3234
1188.24	19.218
1189.86	19.3364
1191.48	18.7458
1193.1	19.5821
1194.71	19.83
1196.33	20.7849
1197.95	22.4295
1199.57	23.9194
1201.19	25.6694
1202.8	26.9151
1204.42	27.7302
1206.04	27.8247
1207.65	31.4308
1209.27	33.0254
1210.88	35.0017
1212.5	37.4934
1214.12	40.7758
1215.73	43.1454
1217.35	46.5377
1218.96	49.4831
1220.57	51.3076
1222.19	53.4402
1223.8	55.536
1225.41	56.3177
1227.03	58.6435
1228.64	61.8327
1230.25	63.8245
1231.86	65.1341
1233.47	66.8373
1235.08	67.0558
1236.69	68.6749
1238.31	68.4941
1239.92	69.3362
1241.52	70.0659
1243.13	72.1979
1244.74	73.2043
1246.35	73.4675
1247.96	74.1643
1249.57	73.8612
1251.18	73.5609
1252.78	73.626
1254.39	72.6183
1256	71.1163
1257.6	70.2078
1259.21	69.1248
1260.82	67.855
1262.42	68.0353
1264.03	66.8106
1265.63	66.8528
1267.24	66.9459
1268.84	66.4829
1270.45	65.7758
1272.05	66.4947
1273.65	66.5677
1275.26	67.3615
1276.86	68.666
1278.46	69.6874
1280.06	71.4033
1281.67	72.8147
1283.27	73.9851
1284.87	76.0986
1286.47	78.1614
1288.07	81.1018
1289.67	82.528
1291.27	85.1926
1292.87	87.4911
1294.47	90.3737
1296.07	94.6241
1297.67	97.2886
1299.27	99.5916
1300.87	102.962
1302.47	105.484
1304.06	109.861
1305.66	114.161
1307.26	117.624
1308.85	120.221
1310.45	123.457
1312.05	126.698
1313.64	129.42
1315.24	130.711
1316.83	134.14
1318.43	136.279
1320.02	138.214
1321.62	137.316
1323.21	138.474
1324.8	138.168
1326.4	137.934
1327.99	138.538
1329.59	138.341
1331.18	137.527
1332.77	136.148
1334.36	135.092
1335.95	134.249
1337.54	132.457
1339.14	130.95
1340.73	129.777
1342.32	128.81
1343.91	126.828
1345.5	124.993
1347.09	122.882
1348.67	121.024
1350.26	119.508
1351.85	118.463
1353.44	116.061
1355.03	115.351
1356.62	113.903
1358.2	112.605
1359.79	110.478
1361.38	109.115
1362.96	107.27
1364.55	106.011
1366.14	104.767
1367.72	104.5
1369.31	103.623
1370.89	102.159
1372.48	101.469
1374.06	101.001
1375.64	101.168
1377.23	99.7179
1378.81	99.9278
1380.39	100.001
1381.98	99.1659
1383.56	99.5672
1385.14	99.3036
1386.72	98.5226
1388.3	99.0201
1389.89	98.1622
1391.47	95.2577
1393.05	94.7486
1394.63	93.6559
1396.21	93.0536
1397.79	90.4405
1399.37	88.6816
1400.95	86.5927
1402.52	87.3842
1404.1	86.1792
1405.68	85.4832
1407.26	85.5073
1408.84	84.8827
1410.42	84.7411
1411.99	85.9925
1413.57	87.6608
1415.15	89.0574
1416.72	90.5654
1418.3	93.0759
1419.87	95.1665
1421.45	97.9059
1423.02	100.179
1424.6	102.999
1426.17	106.154
1427.75	109.049
1429.32	111.618
1430.89	114.449
1432.47	116.246
1434.04	119.968
1435.61	123.246
1437.18	126.527
1438.76	128.382
1440.33	130.85
1441.9	132.874
1443.47	135.633
1445.04	137.262
1446.61	138.321
1448.18	138.486
1449.75	139.166
1451.32	139.106
1452.89	139.073
1454.46	138.981
1456.03	137.586
1457.6	136.453
1459.16	135.325
1460.73	132.981
1462.3	130.357
1463.87	127.932
1465.43	124.204
1467	119.927
1468.56	114.958
1470.13	111.259
1471.7	108.273
1473.26	102.569
1474.83	98.8415
1476.39	92.9041
1477.96	88.8848
1479.52	83.9864
1481.08	79.6739
1482.65	75.03
1484.21	71.4608
1485.77	69.4544
1487.34	67.0027
1488.9	65.2239
1490.46	62.4715
1492.02	60.1082
1493.58	57.6635
1495.15	54.2747
1496.71	53.2655
1498.27	51.1024
1499.83	49.5935
1501.39	47.5746
1502.95	46.0962
1504.51	45.6907
1506.07	44.8565
1507.63	44.5927
1509.18	43.7123
1510.74	43.3997
1512.3	44.6582
1513.86	44.008
1515.41	43.327
1516.97	43.0075
1518.53	42.9155
1520.08	44.658
1521.64	46.468
1523.2	47.1564
1524.75	47.7606
1526.31	49.1911
1527.86	50.143
1529.42	51.647
1530.97	53.7597
1532.52	55.2849
1534.08	56.6294
1535.63	59.2675
1537.19	61.1986
1538.74	63.0089
1540.29	65.1239
1541.84	66.5459
1543.4	69.0727
1544.95	71.0008
1546.5	72.6894
1548.05	74.4556
1549.6	76.6205
1551.15	79.1296
1552.7	82.0199
1554.25	84.1061
1555.8	87.0848
1557.35	90.7183
1558.9	94.1051
1560.45	98.576
1562	102.239
1563.54	105.495
1565.09	107.844
1566.64	110.347
1568.19	112.133
1569.73	114.919
1571.28	117.489
1572.83	120.052
1574.37	122.667
1575.92	124.726
1577.47	126.285
1579.01	128.589
1580.56	131.125
1582.1	133.032
1583.64	134.263
1585.19	136.053
1586.73	135.971
1588.28	137.291
1589.82	138.379
1591.36	138.972
1592.9	138.886
1594.45	139.874
1595.99	139.652
1597.53	140.441
1599.07	138.814
1600.61	137.166
1602.15	136.834
1603.69	135.525
1605.23	134.886
1606.77	133.506
1608.31	131.847
1609.85	130.235
1611.39	128.412
1612.93	128.17
1614.47	127.249
1616.01	125.573
1617.55	122.739
1619.08	121.672
1620.62	121.131
1622.16	120.195
1623.7	120.277
1625.23	120.131
1626.77	120.336
1628.3	120.721
1629.84	120.138
1631.37	120.174
1632.91	120.42
1634.44	122.014
1635.98	122.834
1637.51	123.021
1639.05	122.018
1640.58	121.849
1642.11	122.79
1643.65	124.031
1645.18	124.021
1646.71	124.54
1648.24	124.924
1649.78	124.34
1651.31	123.81
1652.84	124.555
1654.37	125.057
1655.9	125.052
1657.43	124.47
1658.96	123.078
1660.49	122.648
1662.02	120.272
1663.55	117.091
1665.08	115.201
1666.61	113.079
1668.14	110.893
1669.66	107.554
1671.19	104.974
1672.72	101.491
1674.25	99.1299
1675.77	95.5581
1677.3	93.0117
1678.83	89.6207
1680.35	86.0764
1681.88	82.7964
1683.4	78.9145
1684.93	75.6019
1686.45	72.358
1687.98	68.9651
1689.5	66.3741
1691.03	63.2022
1692.55	59.3131
1694.07	55.8358
1695.6	53.9788
1697.12	50.553
1698.64	47.8901
1700.17	44.8771
1701.69	41.7368
1703.21	39.4055
1704.73	37.7152
1706.25	35.3683
1707.77	33.4062
1709.29	32.5608
1710.81	31.1205
1712.33	29.2967
1713.85	27.279
1715.37	25.632
1716.89	24.808
1718.41	24.3676
1719.93	23.0676
1721.45	22.0779
1722.97	21.475
1724.49	20.51
1726	19.6705
1727.52	19.5508
1729.04	18.8229
1730.55	17.572
1732.07	15.9023
1733.59	15.2022
1735.1	14.6704
1736.62	13.9973
1738.13	12.552
1739.65	13.1161
1741.16	12.8327
1742.68	12.426
1744.19	11.794
1745.7	10.5223
1747.22	9.08372
1748.73	8.23435
1750.24	7.70667
1751.76	7.39929
1753.27	7.31869
1754.78	6.46142
1756.29	6.23798
1757.8	5.33675
1759.31	4.8296
1760.83	4.45555
1762.34	3.98979
1763.85	3.4399
1765.36	2.82128
1766.87	2.81368
1768.38	1.97838
1769.89	1.85093
1771.39	2.21032
1772.9	1.47758
1774.41	1.9621
1775.92	2.23999
1777.43	2.4493
1778.94	2.27073
1780.44	2.6342
1781.95	2.31976
1783.46	1.90618
1784.96	1.96575
1786.47	1.74892
1787.97	1.65016
1789.48	1.58832
1790.99	2.08641
1792.49	1.93744
1794	2.45014
1795.5	2.40866
1797	3.1688
1798.51	3.02754
1800.01	2.83936
1801.51	3.33791
1803.02	3.79052
1804.52	3.90923
1806.02	4.53227
1807.53	5.60693
1809.03	5.86865
1810.53	5.76519
1812.03	5.49866
1813.53	5.74534
1815.03	5.884
1816.53	5.2846
1818.03	5.75259
1819.53	6.04466
1821.03	5.95586
1822.53	6.2269
1824.03	6.35119
1825.53	6.47463
1827.03	6.16536
1828.53	5.57976
1830.02	6.37828
1831.52	6.78168
1833.02	6.36246
1834.52	5.78682
1836.01	5.56862
1837.51	5.92949
1839.01	6.45442
1840.5	6.67826
1842	7.45264
1843.49	8.25981
1844.99	8.28904
1846.48	8.18347
1847.98	7.73124
1849.47	8.10005
1850.97	7.90387
1852.46	7.76693
1853.95	6.88255
1855.45	7.09425
1856.94	6.49883
1858.43	6.93233
1859.93	7.40877
1861.42	7.76839
1862.91	8.47769
1864.4	9.01009
1865.89	9.11347
1867.38	8.91115
1868.87	9.16829
1870.36	8.99401
1871.85	9.60043
1873.34	9.77187
1874.83	10.0485
1876.32	10.3938
1877.81	10.2042
1879.3	9.75013
1880.79	10.0014
1882.28	9.3154
1882.52	8.60936
1884.02	8.16007
1885.51	8.54104
1887.01	8.87176
1888.5	8.80961
1889.99	8.50418
1891.49	8.79666
1892.98	7.80573
1894.47	7.09876
1895.97	6.60562
1897.46	5.49635
1898.95	5.06123
1900.44	4.35999
1901.93	4.42571
1903.42	4.22208
1904.91	3.3431
1906.4	2.82698
1907.89	2.95424
1909.38	2.99273
1910.87	3.64559
1912.36	3.8783
1913.85	3.73237
1915.34	3.83922
1916.83	4.17342
1918.32	3.53069
1919.8	3.45164
1921.29	3.60586
1922.78	4.06013
1924.27	3.86259
1925.75	4.36552
1927.24	3.96722
1928.73	3.99752
1930.21	3.99925
1931.7	4.18163
1933.18	3.77218
1934.67	3.02821
1936.15	3.62933
1937.64	3.81745
1939.12	4.7378
1940.61	4.40749
1942.09	4.84192
1943.57	5.19292
1945.06	5.65056
1946.54	5.3163
1948.02	5.38174
1949.51	5.05994
1950.99	4.84297
1952.47	4.74314
1953.95	5.17865
1955.43	4.72154
1956.91	5.20041
1958.4	5.28519
1959.88	4.82156
1961.36	4.63215
1962.84	4.16617
1964.32	3.57618
1965.8	3.47888
1967.27	2.86582
1968.75	2.59008
1970.23	2.25406
1971.71	2.20996
1973.19	2.38239
1974.67	2.14487
1976.14	2.1594
1977.62	2.09363
1979.1	2.61378
1980.58	2.89997
1982.05	3.12913
1983.53	3.27271
1985	3.68245
1986.48	3.72964
1987.95	3.61522
1989.43	4.08549
1990.9	4.80926
1992.38	4.74745
1993.85	5.32762
1995.33	5.52276
1996.8	6.3685
1998.27	6.32808
1999.75	7.00576
2001.22	6.08016
2002.69	6.19788
2004.16	6.18522
2005.64	6.41473
2007.11	6.12237
2008.58	5.98008
2010.05	6.83816
2011.52	7.25357
2012.99	7.38755
2014.46	6.54216
2015.93	7.15273
2017.4	6.641
2018.87	6.96055
2020.34	6.63454
2021.81	6.51027
2023.28	7.51721
2024.75	8.02151
2026.22	8.41989
2027.69	8.15788
2029.15	7.51485
2030.62	7.40169
2032.09	7.50955
2033.56	7.7939
2035.02	8.25061
2036.49	7.47208
2037.96	7.60913
2039.42	7.85939
2040.89	7.81766
2042.35	6.74463
2043.82	6.51821
2045.28	5.92408
2046.75	6.09826
2048.21	5.57776
2049.67	5.102
2051.14	5.48959
2052.6	6.09717
2054.07	6.12886
2055.53	5.95042
2056.99	6.43626
2058.45	6.65769
2059.92	6.82058
2061.38	7.70073
2062.84	8.33229
2064.3	8.45558
2065.76	8.70113
2067.22	9.21989
2068.68	8.89854
2070.14	9.27489
2071.6	8.83376
2073.06	8.87167
2074.52	8.32837
2075.98	8.05701
2077.44	8.22875
2078.9	8.31322
2080.36	8.48363
2081.82	8.72236
2083.27	8.6957
2084.73	9.10085
2086.19	9.10057
2087.65	9.17031
2089.1	9.39523
2090.56	9.2389
2092.02	9.07319
2093.47	9.25993
2094.93	10.1381
2096.38	9.86057
2097.84	9.16176
2099.29	8.88866
2100.75	8.75862
2102.2	8.6104
2103.66	8.44984
2105.11	8.75437
2106.56	8.41867
2108.02	8.40469
2109.47	8.13281
2110.92	7.9666
2112.38	7.83003
2113.83	7.23967
2115.28	6.14777
2116.73	5.77225
2118.18	5.53677
2119.63	5.89981
2121.09	4.71684
2122.54	4.65603
2123.99	5.56934
2125.44	5.19747
2126.89	5.04756
