#Acq. time (s)=	45
#Accumulations=	2
#Range (cm-¹)=	200...3150
#Windows=	2
#Auto scanning=	Off
#Autofocus=	Off
#Macrospot=	Off
#AutoExposure=	Off
#Spike filter=	Multiple accum.
#Delay time (s)=	0
#Binning=	1
#Readout mode=	Signal
#DeNoise=	Off
#ICS correction=	On
#Dark correction=	Off
#Inst. Process=	Off
#Detector Gain=	Best Dynamic Range
#Detector ADC=	20 kHz       
#Detector temperature (°C)=	-69.85
#Instrument=	LabRAM HR Evol
#Detector=	Synapse
#Objective=	x100
#Grating=	600 gr/mm
#ND Filter=	100%
#Laser (nm)=	532 
#Hole=	100.021
#Range=	Auto
#Laser Pol.=	No
#Raman. Pol.=	No
#Laser Pol. (°)=	-0.0007625
#Raman Pol. (°)=	89.9995
#Collection=	Microscope
#StageXY=	Marzhauser
#StageZ=	Marzhauser
#X (µm)=	-5902.7
#Y (µm)=	2884.9
#Z (µm)=	-223.55
#Full time(mm:ss)=	3:19
#Project=	
#Sample=	
#Site=	
#Title=	Thy_20_09_21_2x_45s_532 nm_x100_100%_600 gr_mm
#Remark=	
#Date=	29.06.2022 12:09
#Acquired=	29.06.2022 12:09:17
#Base:Fit=	10.08.2022 09:52:02
#Base:Fit=	10.08.2022 09:52:12
#Base:Sub=	10.08.2022 09:54:21
#Filter:Polynom=	16.08.2022 10:24:04
#AxisType[0]=Intens
#AxisUnit[0]=Cnt
#AxisType[1]=Spectr
#AxisUnit[1]=1/cm
200.523	-0.356273
202.339	2.98689
204.154	4.13696
205.967	5.66753
207.781	6.81079
209.596	7.38714
211.409	6.8871
213.222	7.31285
215.034	7.54856
216.848	7.44723
218.659	7.56903
220.47	7.66667
222.281	7.73411
224.091	7.11922
225.903	6.81909
227.713	6.79695
229.522	6.49459
231.331	6.44251
233.14	5.66967
234.948	5.70951
236.756	6.10378
238.566	7.20877
240.373	7.45454
242.18	7.51899
243.986	7.72069
245.792	7.45634
247.598	7.22755
249.403	6.08359
251.208	5.29737
253.013	4.94929
254.818	5.47604
256.624	5.20077
258.427	6.36129
260.231	6.07896
262.034	5.78412
263.836	5.63808
265.638	6.1721
267.44	5.52097
269.242	5.51251
271.043	5.05885
272.844	5.08057
274.645	5.66568
276.445	5.6068
278.245	5.63342
280.044	6.00776
281.843	6.01749
283.642	6.47931
285.44	6.75782
287.238	6.61794
289.036	7.67734
290.833	7.76875
292.63	7.51809
294.425	7.68512
296.221	8.15234
298.017	8.8433
299.813	8.87672
301.608	9.62549
303.403	11.2203
305.198	11.0273
306.992	11.0266
308.786	12.7411
310.579	13.2155
312.371	13.6529
314.163	14.4412
315.956	14.7662
317.748	16.0054
319.54	16.2946
321.331	16.694
323.122	16.9843
324.911	17.9105
326.701	18.6698
328.491	17.9929
330.281	17.5335
332.071	17.4828
333.857	17.8652
335.646	17.1894
337.434	16.7272
339.222	15.809
341.008	15.3499
342.795	14.7445
344.582	14.1589
346.369	12.5558
348.153	12.332
349.939	10.3933
351.724	9.32757
353.51	9.29072
355.292	8.62864
357.077	6.82667
358.861	6.59221
360.643	5.6492
362.426	4.77436
364.21	4.24318
365.99	3.36984
367.773	2.6388
369.555	1.64104
371.335	0.891471
373.116	1.19799
374.897	0.567504
376.676	0.703606
378.456	0.765074
380.236	0.635004
382.014	1.32279
383.793	1.92722
385.57	3.19116
387.349	4.05082
389.127	4.05059
390.903	4.69476
392.681	5.04046
394.456	5.44418
396.233	6.03644
398.007	6.70867
399.784	6.81093
401.56	7.59607
403.333	7.65756
405.108	8.36485
406.881	9.19463
408.656	8.93012
410.428	8.68163
412.202	8.79397
413.973	10.158
415.746	11.2075
417.517	10.9257
419.29	12.3023
421.06	13.3946
422.831	13.5945
424.601	13.0259
426.37	12.7779
428.141	12.3892
429.909	12.7306
431.679	12.8276
433.447	12.4937
435.216	12.4862
436.983	12.1847
438.75	12.0926
440.519	12.9263
442.285	13.2366
444.052	12.9621
445.818	13.0316
447.583	12.6022
449.349	11.6872
451.114	11.2667
452.878	11.7434
454.643	11.9394
456.407	11.4228
458.169	11.0788
459.934	12.0183
461.696	12.7764
463.458	13.3964
465.222	14.1771
466.983	15.1238
468.744	15.7234
470.507	15.9523
472.267	16.5168
474.027	17.1081
475.787	17.2795
477.548	17.3811
479.307	16.7594
481.065	16.8529
482.823	17.4845
484.583	18.1235
486.341	18.9371
488.098	19.8434
489.855	20.0537
491.612	20.222
493.37	20.9012
495.126	20.4677
496.881	20.7346
498.636	20.7069
500.391	22.2146
502.148	23.1197
503.902	22.6636
505.656	22.3489
507.409	21.9127
509.162	22.0873
510.915	20.3148
512.668	19.7371
514.42	20.0065
516.174	19.5898
517.925	19.4432
519.676	18.8279
521.427	18.3404
523.178	18.4162
524.928	18.298
526.678	18.6537
528.427	19.0875
530.176	18.7451
531.925	18.3098
533.673	17.8799
535.422	17.8777
537.169	16.3361
538.917	15.9873
540.664	15.0183
542.411	14.8266
544.157	14.8452
545.903	14.4839
547.649	14.6959
549.395	14.2513
551.14	14.2388
552.884	13.9792
554.629	14.0516
556.373	13.6552
558.117	13.0435
559.86	12.9239
561.603	12.3659
563.346	11.0631
565.089	10.576
566.831	9.82246
568.573	9.6587
570.314	8.9592
572.053	8.24695
573.794	7.74891
575.534	7.50438
577.274	7.30243
579.014	7.20676
580.754	6.89845
582.493	7.73268
584.23	7.18432
585.968	6.7734
587.706	6.40629
589.444	5.38542
591.181	5.09756
592.919	5.42752
594.653	5.25918
596.39	5.96519
598.126	6.64824
599.862	7.41167
601.595	8.26847
603.33	7.64494
605.065	8.69461
606.8	9.49645
608.532	10.6514
610.266	11.9611
611.999	12.9394
613.732	13.8774
615.463	14.7059
617.196	14.2971
618.928	14.316
620.66	14.6847
622.389	14.3423
624.12	13.225
625.851	15.1468
627.58	15.3838
629.31	15.9825
631.04	15.6681
632.767	15.3098
634.497	16.0734
636.223	16.2919
637.952	16.7527
639.68	16.8208
641.406	16.6543
643.134	16.0763
644.861	14.4175
646.586	14.6515
648.312	13.7985
650.037	13.5549
651.762	13.758
653.486	13.0076
655.211	12.0059
656.936	12.4472
658.659	13.2649
660.383	14.0432
662.105	14.4252
663.829	14.4916
665.55	14.7483
667.273	14.6245
668.994	14.6838
670.716	14.0504
672.436	14.9552
674.158	16.102
675.877	17.3899
677.598	18.0894
679.317	20.6466
681.035	20.7327
682.755	22.0478
684.473	23.9497
686.192	24.1668
687.909	25.8725
689.628	27.7611
691.344	28.8361
693.06	30.1463
694.778	32.1222
696.493	33.1423
698.211	32.9478
699.925	34.0191
701.64	34.6354
703.356	35.1852
705.07	36.5808
706.783	38.0496
708.498	39.2132
710.211	39.5286
711.924	40.5083
713.638	41.0077
715.35	41.2215
717.061	42.3997
718.774	43.2515
720.485	43.3532
722.196	43.62
723.906	44.2891
725.618	44.7465
727.328	44.4299
729.037	45.1064
730.746	44.9597
732.456	46.4473
734.165	46.4266
735.873	46.932
737.58	46.075
739.289	45.5731
740.997	46.5145
742.703	47.3857
744.41	48.0503
746.116	48.3342
747.823	48.9249
749.529	49.4334
751.234	50.4805
752.938	51.6882
754.643	52.1849
756.347	53.7704
758.051	55.0838
759.756	57.1444
761.459	57.8511
763.162	59.6551
764.865	61.495
766.567	61.6196
768.269	63.5042
769.97	64.5029
771.671	65.3582
773.372	66.6088
775.073	67.382
776.773	67.7643
778.473	70.1714
780.174	70.7588
781.874	71.0926
783.573	71.3194
785.271	73.059
786.97	73.384
788.668	74.0553
790.365	74.6364
792.063	75.4194
793.76	74.8893
795.456	76.1276
797.153	76.6556
798.847	77.1879
800.543	77.8578
802.238	80.0784
803.933	80.4728
805.628	81.4709
807.322	82.3214
809.017	83.56
810.71	85.0579
812.404	85.3139
814.097	86.7251
815.79	86.9534
817.483	88.2053
819.173	88.4195
820.865	88.3196
822.556	88.5579
824.248	88.8983
825.939	90.1792
827.629	89.9518
829.318	89.9435
831.008	90.209
832.697	89.5708
834.387	88.5966
836.076	88.6718
837.765	88.5893
839.451	88.0239
841.139	87.1575
842.827	86.1307
844.514	85.278
846.2	82.8373
847.886	81.0623
849.573	78.9005
851.259	76.6673
852.943	75.0383
854.629	73.5245
856.314	72.3962
857.997	70.1228
859.682	67.7664
861.366	66.4067
863.05	64.7742
864.732	61.8462
866.415	60.2565
868.098	58.8206
869.779	57.2988
871.461	55.468
873.141	54.3011
874.823	53.4428
876.505	52.0484
878.184	51.3368
879.865	51.276
881.545	49.8725
883.223	50.3074
884.903	49.9041
886.581	49.406
888.26	48.4029
889.937	48.4916
891.616	47.7085
893.294	47.9659
894.97	48.3425
896.648	47.2417
898.323	48.2028
900	47.6119
901.675	47.3027
903.351	47.1605
905.026	46.7408
906.701	46.7925
908.375	47.2129
910.05	46.9265
911.723	45.5655
913.398	45.9551
915.07	45.539
916.742	44.9205
918.415	45.0665
920.087	45.406
921.76	45.1485
923.43	44.0577
925.103	42.5615
926.773	42.775
928.443	42.1789
930.114	41.1004
931.783	40.9636
933.454	41.6385
935.123	41.4017
936.791	42.3697
938.461	42.058
940.128	41.1839
941.796	39.9555
943.464	39.527
945.131	39.7586
946.797	39.7025
948.465	39.6264
950.131	39.6491
951.797	39.9855
953.462	39.9908
955.128	40.581
956.793	40.5226
958.457	40.0758
960.121	39.3339
961.786	39.3589
963.45	39.9294
965.113	40.1004
966.775	40.1073
968.44	39.7112
970.102	39.9245
971.763	40.611
973.425	41.3599
975.086	41.7627
976.748	42.2782
978.409	42.5577
980.069	42.1618
981.729	42.3509
983.388	41.5792
985.048	42.0744
986.708	42.1085
988.367	41.4171
990.025	41.1424
991.683	40.3098
993.341	39.0891
994.998	39.3955
996.655	39.6807
998.312	38.4016
999.969	37.9366
1001.62	37.0301
1003.28	36.6439
1004.94	36.1063
1006.59	34.5743
1008.25	34.3582
1009.9	33.4322
1011.56	32.492
1013.21	31.9695
1014.86	31.5797
1016.52	30.9327
1018.17	30.1793
1019.82	28.2569
1021.48	26.5451
1023.13	25.6324
1024.78	25.7381
1026.43	25.658
1028.08	26.0325
1029.73	25.7437
1031.38	25.8666
1033.03	25.8672
1034.68	25.9805
1036.33	25.2512
1037.98	24.7896
1039.63	23.8358
1041.28	24.4792
1042.93	25.6492
1044.57	26.4182
1046.22	27.8452
1047.87	28.3899
1049.52	29.2352
1051.16	29.932
1052.81	30.1327
1054.45	31.3842
1056.1	31.9089
1057.75	31.0089
1059.39	30.3701
1061.04	30.3303
1062.68	29.9746
1064.32	29.6488
1065.97	29.4923
1067.61	29.0715
1069.25	29.008
1070.9	29.4431
1072.54	29.2758
1074.18	30.039
1075.82	30.7803
1077.47	31.127
1079.11	30.7193
1080.75	30.0775
1082.39	30.0968
1084.03	29.3147
1085.67	29.7339
1087.31	28.913
1088.95	28.8408
1090.59	28.6018
1092.22	26.9134
1093.86	27.0327
1095.5	27.0023
1097.14	26.5584
1098.78	25.7274
1100.41	25.3589
1102.05	23.2282
1103.69	23.5593
1105.32	23.6166
1106.96	23.1584
1108.59	21.5307
1110.23	20.8634
1111.86	20.2699
1113.5	20.921
1115.13	20.4624
1116.77	19.5098
1118.4	19.1421
1120.03	18.8636
1121.67	18.7555
1123.3	18.9976
1124.93	18.1907
1126.56	17.2752
1128.19	16.599
1129.83	16.0839
1131.46	15.1328
1133.09	13.3974
1134.72	12.2757
1136.35	11.7198
1137.98	10.4494
1139.61	9.15109
1141.24	9.56222
1142.86	8.51109
1144.49	8.42638
1146.12	8.30597
1147.75	8.08926
1149.38	7.54226
1151	7.66752
1152.63	6.95987
1154.26	6.37881
1155.88	6.41425
1157.51	5.89873
1159.14	5.24573
1160.76	5.06965
1162.39	3.85357
1164.01	3.58794
1165.63	3.14906
1167.26	3.47595
1168.88	3.66056
1170.51	3.87114
1172.13	3.98834
1173.75	4.86107
1175.38	5.44341
1177	5.35735
1178.62	6.00331
1180.24	6.33143
1181.86	6.81724
1183.48	6.66331
1185.1	7.32924
1186.72	8.53861
1188.34	9.47058
1189.96	10.1471
1191.58	11.8835
1193.2	13.3389
1194.82	13.7293
1196.44	13.7704
1198.06	14.2512
1199.68	15.5085
1201.29	16.0057
1202.91	16.6796
1204.53	17.2445
1206.14	18.3921
1207.76	19.4545
1209.38	21.0634
1210.99	21.7247
1212.61	22.9339
1214.22	23.4476
1215.84	24.5827
1217.45	25.6028
1219.07	26.4921
1220.68	28.3489
1222.29	29.4622
1223.91	29.8939
1225.52	31.4697
1227.13	32.1886
1228.74	33.185
1230.36	34.2246
1231.97	35.1525
1233.58	34.9023
1235.19	36.0283
1236.8	37.0005
1238.41	38.2068
1240.02	38.8996
1241.63	39.4451
1243.24	40.1643
1244.85	42.0152
1246.46	42.8543
1248.07	43.6749
1249.67	44.3183
1251.28	44.8142
1252.89	46.3404
1254.5	47.8792
1256.1	48.5662
1257.71	50.1777
1259.32	50.7966
1260.92	50.3844
1262.53	50.8477
1264.13	51.2964
1265.74	52.0452
1267.34	53.824
1268.95	53.6588
1270.55	54.369
1272.15	54.3863
1273.76	54.842
1275.36	55.8014
1276.97	56.9008
1278.57	58.3975
1280.17	58.8733
1281.77	59.4064
1283.37	60.0825
1284.97	60.9655
1286.58	61.5119
1288.18	61.3804
1289.78	61.4003
1291.38	61.7384
1292.98	62.1825
1294.58	61.3988
1296.18	61.83
1297.78	62.7305
1299.37	62.3461
1300.97	64.0126
1302.57	63.8647
1304.17	64.6452
1305.77	64.8357
1307.36	65.8791
1308.96	66.9472
1310.55	67.6645
1312.15	67.8571
1313.75	68.6277
1315.34	69.4668
1316.94	69.8315
1318.53	69.8413
1320.13	70.1703
1321.72	70.7422
1323.32	71.4184
1324.91	71.3934
1326.5	70.8367
1328.1	70.9127
1329.69	71.08
1331.28	72.7426
1332.87	73.1058
1334.47	73.2664
1336.06	71.9488
1337.65	71.6057
1339.24	69.9815
1340.83	69.8627
1342.42	69.9357
1344.01	69.028
1345.6	67.6872
1347.19	66.4479
1348.78	64.433
1350.37	64.2543
1351.96	62.3565
1353.54	61.9295
1355.13	61.3861
1356.72	59.5385
1358.31	58.2949
1359.89	56.7932
1361.48	55.3561
1363.07	53.8066
1364.65	51.7327
1366.24	49.0691
1367.82	47.7604
1369.41	46.8288
1370.99	46.3833
1372.58	43.6409
1374.16	42.4468
1375.75	41.3841
1377.33	40.5004
1378.91	39.586
1380.5	39.7346
1382.08	37.9558
1383.66	37.1607
1385.25	36.9082
1386.83	36.7436
1388.41	36.379
1389.99	35.3371
1391.57	35.4679
1393.15	35.0845
1394.73	35.0442
1396.31	35.1008
1397.89	34.6569
1399.47	34.9753
1401.05	34.4072
1402.63	34.1099
1404.21	34.1745
1405.78	34.346
1407.36	35.6158
1408.94	36.6527
1410.52	37.4888
1412.1	38.1857
1413.67	39.672
1415.25	40.8757
1416.82	42.4347
1418.4	43.5275
1419.98	45.3783
1421.55	47.085
1423.13	48.0046
1424.7	49.4192
1426.28	52.6985
1427.85	55.2649
1429.42	59.1356
1431	61.7067
1432.57	64.1678
1434.14	66.4162
1435.71	68.682
1437.29	71.3236
1438.86	73.5745
1440.43	74.7717
1442	75.7572
1443.57	76.056
1445.14	77.3497
1446.71	78.4121
1448.28	78.7558
1449.85	77.4742
1451.42	76.1325
1452.99	75.8248
1454.56	74.8477
1456.13	73.4741
1457.7	72.1877
1459.26	70.783
1460.83	68.4248
1462.4	66.767
1463.97	64.7825
1465.54	62.0678
1467.1	58.4912
1468.67	55.4426
1470.23	52.6592
1471.8	48.477
1473.36	44.5532
1474.93	40.7281
1476.49	37.4015
1478.06	33.9806
1479.62	30.7491
1481.19	27.5444
1482.75	24.2775
1484.31	22.1121
1485.88	20.5687
1487.44	18.6832
1489	16.6402
1490.56	15.7916
1492.13	14.057
1493.69	12.6394
1495.25	11.569
1496.81	11.1828
1498.37	10.239
1499.93	9.79614
1501.49	9.59301
1503.05	10.5663
1504.61	11.3011
1506.17	11.8421
1507.73	12.9398
1509.28	12.8889
1510.84	12.7513
1512.4	13.7287
1513.96	14.9571
1515.52	15.3586
1517.07	15.3955
1518.63	16.2319
1520.19	16.1485
1521.74	17.9854
1523.3	18.8614
1524.85	19.4656
1526.41	21.3066
1527.96	21.727
1529.52	22.2336
1531.07	23.1931
1532.63	24.4145
1534.18	25.5086
1535.73	27.0499
1537.29	27.952
1538.84	28.7742
1540.39	29.9576
1541.94	30.2234
1543.5	31.1121
1545.05	30.4153
1546.6	32.086
1548.15	33.5081
1549.7	34.4004
1551.25	35.8557
1552.8	37.3383
1554.35	37.5129
1555.9	37.839
1557.45	38.7134
1559	38.8877
1560.55	40.0483
1562.1	41.2028
1563.65	42.6124
1565.19	43.8012
1566.74	43.9321
1568.29	45.2695
1569.83	46.0096
1571.38	46.5995
1572.93	47.1808
1574.47	47.0584
1576.02	47.6845
1577.56	48.6228
1579.11	49.2907
1580.66	50.418
1582.2	51.0449
1583.74	51.2166
1585.29	51.5999
1586.83	52.1471
1588.38	51.8655
1589.92	52.5908
1591.46	52.8203
1593.01	52.8147
1594.55	53.1395
1596.09	54.0593
1597.63	53.6339
1599.17	53.9021
1600.71	52.9318
1602.25	52.7357
1603.79	52.8457
1605.34	51.5582
1606.88	51.9323
1608.41	52.9798
1609.95	54.1028
1611.49	54.7858
1613.03	54.7013
1614.57	54.7928
1616.11	54.9665
1617.65	55.0267
1619.18	54.7198
1620.72	55.5917
1622.26	56.0392
1623.79	57.707
1625.33	58.9251
1626.87	58.6424
1628.4	58.5579
1629.94	58.6916
1631.48	58.5469
1633.01	59.3922
1634.55	61.0751
1636.08	62.3752
1637.61	63.0741
1639.15	64.3388
1640.68	65.5409
1642.21	65.9014
1643.75	66.6958
1645.28	68.1397
1646.81	68.4268
1648.34	68.5707
1649.88	69.9734
1651.41	70.4762
1652.94	71.9329
1654.47	71.9033
1656	71.7156
1657.53	71.8395
1659.06	70.6674
1660.59	70.1012
1662.12	70.2973
1663.65	69.2824
1665.18	68.0105
1666.71	67.2646
1668.24	65.2092
1669.76	63.3392
1671.29	61.4202
1672.82	59.2467
1674.35	57.3257
1675.87	54.7662
1677.4	52.9383
1678.93	50.1833
1680.45	48.3033
1681.98	45.6274
1683.5	44.0395
1685.03	41.9082
1686.55	39.4884
1688.08	37.4196
1689.6	34.5699
1691.13	32.0015
1692.65	30.2365
1694.17	28.2026
1695.7	26.5938
1697.22	24.9073
1698.74	22.8826
1700.27	20.0268
1701.79	18.279
1703.31	16.2889
1704.83	14.9456
1706.35	15.0143
1707.87	14.4007
1709.39	13.7963
1710.91	13.546
1712.43	12.1168
1713.95	10.8167
1715.47	11.2266
1716.99	11.0573
1718.51	10.8675
1720.03	10.5962
1721.55	9.67526
1723.07	8.97262
1724.58	9.04868
1726.1	9.1792
1727.62	8.11283
1729.13	7.30509
1730.65	6.77318
1732.17	6.3603
1733.68	6.57656
1735.2	6.24053
1736.72	6.68003
1738.23	6.68539
1739.74	5.80215
1741.26	5.59824
1742.77	4.96768
1744.29	5.08002
1745.8	5.50103
1747.32	5.50767
1748.83	5.46095
1750.34	4.97598
1751.85	3.81468
1753.37	3.25806
1754.88	2.74462
1756.39	3.5215
1757.9	3.38589
1759.41	3.60375
1760.92	3.87196
1762.44	3.58442
1763.95	3.83059
1765.46	3.1982
1766.96	3.03584
1768.47	3.33233
1769.98	3.28078
1771.49	3.69345
1773	3.50151
1774.51	3.5614
1776.02	3.32123
1777.53	4.0606
1779.03	3.97994
1780.54	4.08835
1782.05	4.9174
1783.55	4.56933
1785.06	4.51985
1786.57	4.54757
1788.07	4.05613
1789.58	3.79416
1791.08	4.73118
1792.59	4.35164
1794.09	3.30389
1795.6	2.95361
1797.1	2.93554
1798.61	3.09292
1800.11	3.23252
1801.61	2.70684
1803.12	2.78859
1804.62	2.86977
1806.12	3.14139
1807.62	3.33957
1809.12	3.58995
1810.63	3.0368
1812.13	3.07767
1813.63	3.38869
1815.13	3.20427
1816.63	3.79472
1818.13	3.97841
1819.63	3.94903
1821.13	3.32748
1822.63	2.73183
1824.13	2.80477
1825.63	2.36217
1827.13	2.56182
1828.62	2.69495
1830.12	2.60803
1831.62	2.32931
1833.12	2.25391
1834.61	2.32074
1836.11	2.38112
1837.61	2.46114
1839.1	3.04849
1840.6	2.56573
1842.09	2.13589
1843.59	1.65293
1845.09	1.72352
1846.58	1.75871
1848.08	1.41285
1849.57	1.25703
1851.06	1.03978
1852.56	1.2903
1854.05	1.62014
1855.54	1.96385
1857.04	1.5964
1858.53	2.09035
1860.02	1.77102
1861.51	1.61413
1863.01	1.77965
1864.5	1.72875
1865.99	2.48717
1867.48	1.5881
1868.97	1.13528
1870.46	1.18005
1871.95	1.48006
1873.44	1.69653
1874.93	1.58271
1876.42	1.37377
1877.91	1.75474
1879.4	2.26844
1880.89	2.20167
1882.37	2.96117
1882.46	2.67002
1883.95	2.9928
1885.45	3.07275
1886.94	3.62761
1888.43	3.97887
1889.93	3.8112
1891.42	4.13048
1892.91	3.81141
1894.41	4.00078
1895.9	5.08665
1897.39	5.45614
1898.88	5.47369
1900.37	5.31119
1901.86	4.6002
1903.36	4.30145
1904.85	4.23576
1906.34	4.43987
1907.83	3.94353
1909.32	3.62312
1910.81	3.72816
1912.29	3.08537
1913.78	2.50329
1915.27	2.4139
1916.76	2.24107
1918.25	2.51667
1919.74	2.36468
1921.23	2.13552
1922.71	2.08104
1924.2	1.95783
1925.69	2.1701
1927.17	2.32473
1928.66	1.64197
1930.15	1.38268
1931.63	1.56028
1933.12	0.88369
1934.6	1.09222
1936.09	1.04551
1937.57	1.10416
1939.06	0.815551
1940.54	0.434303
1942.02	0.897268
1943.51	1.25782
1944.99	1.65675
1946.47	2.457
1947.96	1.92861
1949.44	2.61271
1950.92	3.07395
1952.4	3.21537
1953.88	3.28242
1955.37	3.74793
1956.85	3.66903
1958.33	4.41439
1959.81	4.70268
1961.29	5.01089
1962.77	5.10192
1964.25	4.55698
1965.73	4.78833
1967.21	4.92871
1968.69	5.42685
1970.16	6.21976
1971.64	6.07313
1973.12	6.0938
1974.6	5.23019
1976.08	4.86561
1977.55	4.90572
1979.03	4.04029
1980.51	4.33892
1981.98	4.13009
1983.46	4.14897
1984.94	4.2484
1986.41	4.10847
1987.89	4.41711
1989.36	4.49101
1990.84	4.6917
1992.31	4.89862
1993.79	4.66715
1995.26	5.1951
1996.73	5.47189
1998.21	5.87082
1999.68	5.68696
2001.15	5.8886
2002.63	5.59224
2004.1	5.88963
2005.57	6.15647
2007.04	6.22521
2008.51	5.8924
2009.99	5.29835
2011.46	5.18823
2012.93	5.39492
2014.4	6.07744
2015.87	6.14317
2017.34	5.8454
2018.81	5.8367
2020.28	5.99552
2021.75	5.77256
2023.21	5.92655
2024.68	5.25791
2026.15	5.5691
2027.62	5.82278
2029.09	4.97597
2030.56	5.20901
2032.02	4.8616
2033.49	4.30586
2034.96	3.45805
2036.42	3.70424
2037.89	3.89311
2039.36	4.26035
2040.82	4.64028
2042.29	4.22919
2043.75	4.79625
2045.22	4.63547
2046.68	3.94152
2048.14	3.23981
2049.61	2.61993
2051.07	2.74187
2052.54	2.83804
2054	3.28047
2055.46	3.15398
2056.93	2.9834
2058.39	3.16057
2059.85	3.84915
2061.31	4.01333
2062.77	3.90908
2064.23	3.94771
2065.7	4.00805
2067.16	4.80017
2068.62	5.50521
2070.08	5.76935
2071.54	6.34264
2073	6.62635
2074.46	7.57934
2075.92	7.6986
2077.38	7.69672
2078.83	7.81332
2080.29	7.93441
2081.75	7.61493
2083.21	8.28205
2084.67	8.76717
2086.12	9.27448
2087.58	9.20075
2089.04	9.37818
2090.49	9.74541
2091.95	10.1239
2093.41	10.24
2094.86	10.7462
2096.32	9.94186
2097.77	10.2679
2099.23	10.9536
2100.68	10.6108
2102.14	11.0098
2103.59	11.9387
2105.05	11.7657
2106.5	12.3782
2107.95	13.0069
2109.41	14.0718
2110.86	14.5201
2112.31	14.8962
2113.76	15.8406
2115.21	16.3255
2116.67	17.1466
2118.12	17.6621
2119.57	18.372
2121.02	19.2173
2122.47	19.6357
2123.92	20.9573
2125.37	22.0016
2126.82	22.5546
2128.27	23.608
2129.72	24.2723
2131.17	26.004
2132.62	27.1939
