#Acq. time (s)=	45
#Accumulations=	2
#Range (cm-¹)=	200...3150
#Windows=	2
#Auto scanning=	Off
#Autofocus=	Off
#Macrospot=	Off
#AutoExposure=	Off
#Spike filter=	Multiple accum.
#Delay time (s)=	0
#Binning=	1
#Readout mode=	Signal
#DeNoise=	Off
#ICS correction=	On
#Dark correction=	Off
#Inst. Process=	Off
#Detector Gain=	Best Dynamic Range
#Detector ADC=	20 kHz       
#Detector temperature (°C)=	-69.85
#Instrument=	LabRAM HR Evol
#Detector=	Synapse
#Objective=	x100
#Grating=	600 gr/mm
#ND Filter=	100%
#Laser (nm)=	532 
#Hole=	100.021
#Range=	Auto
#Laser Pol.=	No
#Raman. Pol.=	No
#Laser Pol. (°)=	-0.0007625
#Raman Pol. (°)=	89.9995
#Collection=	Microscope
#StageXY=	Marzhauser
#StageZ=	Marzhauser
#X (µm)=	254.7
#Y (µm)=	1682.1
#Z (µm)=	426.4
#Full time(mm:ss)=	3:19
#Project=	
#Sample=	
#Site=	
#Title=	Thy_40_11_43_2x_45s_532 nm_x100_100%_600 gr_mm
#Remark=	
#Date=	05.07.2022 13:03
#Acquired=	05.07.2022 13:03:16
#Base:Fit=	10.08.2022 10:01:35
#Base:Sub=	10.08.2022 10:01:52
#Filter:Polynom=	16.08.2022 10:21:53
#AxisType[0]=Intens
#AxisUnit[0]=Cnt
#AxisType[1]=Spectr
#AxisUnit[1]=1/cm
200.43	-1.07693
202.244	0.216798
204.059	0.585689
205.873	1.474
207.688	2.39702
209.501	3.08002
211.314	3.93568
213.127	3.94459
214.941	4.32427
216.753	4.02989
218.564	4.5997
220.375	4.41931
222.186	4.75107
223.999	5.58277
225.809	5.94174
227.618	5.25474
229.428	5.71195
231.236	5.12035
233.045	4.96147
234.855	4.69082
236.663	5.18562
238.471	4.81791
240.278	6.16678
242.085	6.53984
243.891	7.43078
245.698	8.09856
247.503	7.7643
249.309	8.15691
251.116	7.77965
252.921	8.41795
254.725	9.16188
256.529	10.0784
258.333	10.609
260.136	9.94308
261.939	10.083
263.742	9.15731
265.544	8.23487
267.346	8.87295
269.148	7.64566
270.949	7.41147
272.75	6.90964
274.55	7.02494
276.351	6.41187
278.15	7.81512
279.95	7.45443
281.749	6.76974
283.548	7.34307
285.346	7.85992
287.144	8.53442
288.942	8.42237
290.739	7.69041
292.536	7.81926
294.333	8.63783
296.129	8.66843
297.925	8.75826
299.721	8.5884
301.514	8.46623
303.309	8.08556
305.104	9.45115
306.898	9.68877
308.692	11.1585
310.486	11.1717
312.279	11.6092
314.072	10.9845
315.862	10.4192
317.654	9.68931
319.446	10.1884
321.238	9.93288
323.029	11.2684
324.819	11.5426
326.608	12.7312
328.398	13.2638
330.188	15.0086
331.977	14.9576
333.766	14.4288
335.553	14.0683
337.341	13.5093
339.129	14.2875
340.917	13.4982
342.704	13.6112
344.489	13.6056
346.275	12.8539
348.062	12.1944
349.845	11.1045
351.631	10.0209
353.416	9.05629
355.201	8.33149
356.984	8.55756
358.768	8.15668
360.552	8.10509
362.333	8.13514
364.116	8.48767
365.899	8.94168
367.68	9.53347
369.462	8.8284
371.243	9.31698
373.023	9.92775
374.804	9.66012
376.585	8.79439
378.363	8.59961
380.143	8.68374
381.923	9.29322
383.7	8.84721
385.479	8.79467
387.256	8.78861
389.034	8.78407
390.812	8.40787
392.588	8.77943
394.365	8.27942
396.14	7.76378
397.916	7.18698
399.691	6.46697
401.467	6.35047
403.24	6.08877
405.015	5.59651
406.788	5.66888
408.563	6.63617
410.335	7.14995
412.109	7.30797
413.88	6.67802
415.654	6.91289
417.424	6.21715
419.197	5.88681
420.967	5.32342
422.739	4.47918
424.508	5.38817
426.279	5.81774
428.048	6.24401
429.819	5.76199
431.587	6.37502
433.356	5.96401
435.124	5.77568
436.891	5.29079
438.66	5.04804
440.426	5.17043
442.194	5.11633
443.96	5.28074
445.725	6.74736
447.492	7.73025
449.257	6.64932
451.021	7.233
452.787	7.93195
454.551	8.76191
456.314	9.29668
458.079	10.2753
459.842	10.9735
461.604	11.6921
463.368	10.912
465.13	11.0555
466.891	12.1567
468.654	12.2118
470.415	12.7792
472.175	13.4032
473.935	14.7156
475.696	14.6551
477.456	15.5114
479.215	15.912
480.973	16.7083
482.733	16.9656
484.491	17.9155
486.249	18.2888
488.006	19.7193
489.765	20.7545
491.522	21.0425
493.278	20.6953
495.034	21.7987
496.789	22.7867
498.544	23.1095
500.301	23.5743
502.056	23.9395
503.81	24.4874
505.564	24.7754
507.317	25.4105
509.071	25.2559
510.825	25.5747
512.578	26.1448
514.33	25.6739
516.082	25.468
517.833	24.92
519.585	24.0448
521.335	22.7704
523.086	21.9232
524.836	21.8531
526.586	22.1604
528.335	21.6442
530.085	21.0657
531.835	20.4123
533.584	19.5228
535.332	18.7564
537.08	17.98
538.827	17.5553
540.574	17.4205
542.321	16.5859
544.068	16.2371
545.814	15.6191
547.56	15.3922
549.305	14.9911
551.05	14.0851
552.795	14.8704
554.54	15.2916
556.282	14.2571
558.025	14.3209
559.769	12.9942
561.512	12.3218
563.255	12.0777
564.997	12.9689
566.739	12.7033
568.481	11.9069
570.223	12.0493
571.964	11.9703
573.705	12.1845
575.443	13.1483
577.183	13.104
578.923	12.667
580.663	11.9295
582.402	12.1023
584.141	12.8835
585.879	11.4278
587.615	11.4051
589.353	10.8661
591.09	10.1887
592.828	9.26369
594.564	9.01229
596.299	8.16238
598.035	7.98905
599.771	7.70814
601.506	6.90272
603.242	6.85296
604.974	6.03297
606.709	6.30385
608.443	6.66728
610.177	6.93288
611.908	8.40658
613.642	8.25585
615.374	8.72969
617.105	8.37908
618.837	8.80902
620.569	9.42713
622.3	11.1395
624.03	12.0095
625.761	11.9441
627.491	12.8972
629.219	13.3342
630.949	14.0141
632.677	15.2761
634.406	15.9342
636.135	17.1076
637.861	18.146
639.59	19.2203
641.318	18.9795
643.043	18.8394
644.77	19.2968
646.495	19.3617
648.222	20.6436
649.948	22.3358
651.672	23.1013
653.398	22.439
655.121	22.0845
656.846	23.9777
658.569	23.9821
660.293	24.4399
662.015	25.2728
663.738	25.2632
665.46	24.8905
667.183	24.5511
668.903	24.7207
670.626	25.2235
672.346	24.5241
674.067	26.1747
675.787	26.4236
677.508	25.993
679.226	26.7905
680.947	27.5595
682.665	28.0091
684.385	29.1175
686.102	30.5333
687.821	31.2478
689.538	32.9761
691.254	34.3085
692.972	36.2032
694.688	37.4682
696.406	39.4466
698.121	40.7717
699.835	41.702
701.552	42.8656
703.266	43.1264
704.98	44.4961
706.695	45.6593
708.409	47.1641
710.121	47.017
711.836	47.4944
713.548	48.7641
715.26	49.5765
716.973	50.9505
718.685	51.8176
720.396	52.406
722.108	52.9819
723.818	52.3125
725.528	52.5337
727.238	51.6999
728.949	51.5734
730.658	51.2507
732.367	52.023
734.075	52.5796
735.785	52.5201
737.493	52.6378
739.2	52.8388
740.907	53.8709
742.614	54.6789
744.322	54.3746
746.028	55.4601
747.734	56.4247
749.439	57.1805
751.144	58.2293
752.849	59.3837
754.555	60.2003
756.26	60.8665
757.963	62.4844
759.667	63.7461
761.37	64.104
763.073	64.5853
764.775	65.475
766.477	67.0709
768.179	67.773
769.883	69.1135
771.584	70.4691
773.285	71.3673
774.986	72.3819
776.686	74.0001
778.386	75.6707
780.085	76.2816
781.785	77.5264
783.484	78.2308
785.182	80.5386
786.881	81.6332
788.579	83.5624
790.276	85.1903
791.974	87.2144
793.671	88.5864
795.367	89.3657
797.064	91.0821
798.76	92.0057
800.456	92.7291
802.151	93.2957
803.846	93.5666
805.541	93.9293
807.234	94.1983
808.928	94.3585
810.622	94.9152
812.315	94.213
814.008	94.3351
815.701	94.5343
817.394	94.7231
819.086	94.1218
820.778	94.3888
822.468	94.2883
824.159	93.4465
825.85	93.2867
827.541	92.5836
829.231	92.07
830.921	90.1841
832.609	88.1125
834.298	87.1727
835.987	85.7319
837.676	83.3914
839.364	81.6595
841.051	79.8086
842.738	77.9878
844.426	76.4725
846.113	74.5316
847.798	72.4934
849.484	70.948
851.171	70.2084
852.857	68.0643
854.54	66.7169
856.226	65.6464
857.911	64.5791
859.593	63.6875
861.278	63.5549
862.961	62.8402
864.645	61.7678
866.327	61.6695
868.01	60.461
869.692	60.19
871.373	60.2295
873.055	61.2451
874.735	60.0548
876.416	60.3264
878.097	60.0531
879.776	59.3525
881.457	59.3356
883.135	58.8454
884.815	58.6134
886.495	58.533
888.172	57.7575
889.851	57.2561
891.528	57.0278
893.206	56.5223
894.882	55.5384
896.56	54.6119
898.237	54.7727
899.912	54.7362
901.589	54.9777
903.263	54.8668
904.94	54.6848
906.614	53.8436
908.289	53.9322
909.962	52.8501
911.635	50.9679
913.31	50.7404
914.982	50.343
916.656	50.4942
918.328	50.7992
920.001	50.657
921.672	49.422
923.345	49.0354
925.015	48.1856
926.685	48.207
928.357	48.7324
930.026	47.3814
931.698	46.2182
933.366	46.4967
935.035	45.6206
936.705	44.6027
938.373	44.0686
940.041	44.1789
941.71	43.2641
943.377	42.8572
945.044	42.0411
946.712	41.0411
948.378	39.8972
950.044	39.7177
951.709	39.9014
953.376	40.7399
955.041	41.1895
956.706	41.0328
958.372	39.3057
960.036	39.5651
961.699	39.4429
963.362	39.5481
965.027	39.8753
966.69	39.8896
968.352	40.0963
970.014	40.5794
971.676	40.8457
973.339	41.3438
975	41.6097
976.661	42.2211
978.322	43.1349
979.982	44.5105
981.642	45.4705
983.303	45.4523
984.962	46.034
986.621	46.5814
988.28	46.1946
989.938	46.3155
991.596	46.9858
993.254	46.0814
994.911	46.3863
996.57	47.5974
998.227	47.0984
999.884	45.964
1001.54	45.7369
1003.2	45.5104
1004.85	44.0399
1006.51	44.2058
1008.16	44.1682
1009.82	44.7157
1011.47	45.0397
1013.12	44.8034
1014.78	44.231
1016.43	44.9067
1018.08	44.0691
1019.74	43.9703
1021.39	43.8228
1023.04	42.9224
1024.69	42.5936
1026.34	42.0158
1028	41.1663
1029.65	40.2722
1031.3	40.4165
1032.95	40.1622
1034.6	39.8672
1036.25	38.9682
1037.9	37.9292
1039.54	36.9872
1041.19	35.5733
1042.84	35.7024
1044.49	35.7793
1046.14	35.6034
1047.78	34.2856
1049.43	34.3958
1051.08	34.1185
1052.72	33.9788
1054.37	34.2032
1056.02	33.2779
1057.66	32.5015
1059.31	31.7404
1060.95	30.785
1062.6	29.905
1064.24	28.7074
1065.88	28.5638
1067.53	28.4859
1069.17	28.0622
1070.81	27.7468
1072.45	27.4145
1074.1	27.2761
1075.74	26.933
1077.38	26.9664
1079.02	27.2882
1080.66	26.848
1082.3	27.0672
1083.94	28.2897
1085.58	28.6977
1087.22	30.0152
1088.86	30.5251
1090.5	31.1018
1092.14	31.8497
1093.78	32.7872
1095.42	32.596
1097.05	33.195
1098.69	34.406
1100.33	33.2128
1101.96	32.2941
1103.6	32.2032
1105.24	32.2503
1106.87	32.6151
1108.51	31.3082
1110.14	30.6332
1111.78	29.3367
1113.41	29.9242
1115.05	28.9495
1116.68	28.2461
1118.31	27.3405
1119.95	26.4538
1121.58	24.8439
1123.21	23.5291
1124.85	22.5107
1126.48	21.307
1128.11	20.0962
1129.74	19.1422
1131.37	19.2072
1133	18.2806
1134.63	17.0082
1136.26	15.7991
1137.89	14.3586
1139.52	13.5064
1141.15	13.3147
1142.78	12.7861
1144.41	12.2461
1146.04	12.076
1147.66	11.6326
1149.29	10.9345
1150.92	9.99111
1152.55	9.6192
1154.17	8.75799
1155.8	9.28133
1157.43	8.56057
1159.05	7.15102
1160.68	7.22164
1162.3	6.39232
1163.93	5.5286
1165.55	4.55585
1167.17	4.10855
1168.8	4.06658
1170.42	2.87224
1172.05	3.65838
1173.67	4.21029
1175.29	4.37582
1176.91	4.15441
1178.54	4.36533
1180.16	4.24098
1181.78	3.71778
1183.4	4.61026
1185.02	5.76084
1186.64	6.3538
1188.26	6.17301
1189.88	6.25661
1191.5	6.89321
1193.12	7.53016
1194.74	7.83125
1196.36	8.12859
1197.97	8.71701
1199.59	8.97354
1201.21	9.28568
1202.83	9.77478
1204.44	10.7909
1206.06	12.3091
1207.68	13.6178
1209.29	14.671
1210.91	16.371
1212.52	17.4477
1214.14	18.6325
1215.75	19.6042
1217.37	22.3517
1218.98	25.1732
1220.59	27.2919
1222.21	29.9161
1223.82	31.6507
1225.43	33.3118
1227.05	36.2683
1228.66	37.3551
1230.27	39.9671
1231.88	40.8514
1233.49	43.3046
1235.1	44.8227
1236.72	46.3478
1238.33	46.5124
1239.94	47.5526
1241.55	49.4221
1243.16	50.5721
1244.76	51.6831
1246.37	53.4425
1247.98	54.917
1249.59	55.5563
1251.2	56.9413
1252.8	57.8853
1254.41	56.8886
1256.02	57.1081
1257.62	58.7048
1259.23	60.451
1260.84	61.8828
1262.44	64.011
1264.05	65.5433
1265.66	66.5931
1267.26	67.6353
1268.86	68.548
1270.47	69.0784
1272.07	69.8136
1273.67	70.1633
1275.28	70.9297
1276.88	72.0784
1278.48	72.2251
1280.09	73.9037
1281.69	74.4505
1283.29	75.1564
1284.89	74.8893
1286.49	75.9593
1288.09	76.7225
1289.69	77.481
1291.29	78.54
1292.89	79.2724
1294.49	80.8787
1296.09	81.663
1297.69	83.7641
1299.29	84.7114
1300.89	84.867
1302.49	84.7715
1304.08	85.2009
1305.68	85.6166
1307.28	86.9036
1308.88	86.4769
1310.47	86.7871
1312.07	86.7795
1313.66	86.2454
1315.26	85.362
1316.85	85.062
1318.45	84.0828
1320.04	84.7515
1321.64	84.019
1323.23	82.9043
1324.83	81.4552
1326.42	79.8251
1328.01	78.6348
1329.61	77.0335
1331.2	76.0048
1332.79	74.05
1334.38	72.5423
1335.97	72.5734
1337.56	72.9066
1339.16	72.0401
1340.75	71.518
1342.34	70.7356
1343.93	69.8022
1345.52	68.3855
1347.11	66.8118
1348.7	65.9544
1350.29	64.2856
1351.87	62.2873
1353.46	60.4526
1355.05	59.4812
1356.64	57.49
1358.22	56.3317
1359.81	55.602
1361.4	52.8733
1362.98	52.1701
1364.57	51.407
1366.16	51.2524
1367.74	49.2995
1369.33	47.2493
1370.91	46.5056
1372.5	45.0936
1374.08	44.0692
1375.67	43.4939
1377.25	43.0712
1378.83	42.0309
1380.41	40.8956
1382	40.1893
1383.58	40.1171
1385.16	39.8101
1386.74	39.5583
1388.33	38.3995
1389.91	37.7146
1391.49	37.9966
1393.07	36.5902
1394.65	37.5019
1396.23	37.3986
1397.81	36.647
1399.39	36.4922
1400.97	34.6925
1402.55	33.4094
1404.13	33.526
1405.7	33.0584
1407.28	33.2749
1408.86	32.8352
1410.44	33.1946
1412.01	33.2712
1413.59	33.536
1415.17	34.9942
1416.74	36.924
1418.32	37.9411
1419.89	40.2912
1421.47	42.1738
1423.04	43.6895
1424.62	45.3552
1426.19	47.5073
1427.77	49.6006
1429.34	50.5079
1430.91	51.7663
1432.49	54.2569
1434.06	56.2528
1435.63	58.4013
1437.2	59.8848
1438.78	61.9342
1440.35	62.9177
1441.92	65.0012
1443.49	66.4454
1445.06	67.6305
1446.63	68.1818
1448.2	68.7832
1449.77	69.4371
1451.34	68.6639
1452.91	68.9533
1454.48	68.7287
1456.05	67.824
1457.62	67.1758
1459.18	65.7743
1460.75	64.3649
1462.32	63.4367
1463.89	62.2323
1465.45	60.3294
1467.02	58.282
1468.59	56.393
1470.15	54.4906
1471.72	51.8024
1473.28	48.7873
1474.85	45.1105
1476.41	41.7113
1477.98	39.2776
1479.54	35.7447
1481.1	34.1095
1482.67	32.8177
1484.23	30.227
1485.79	27.4794
1487.36	25.1082
1488.92	23.4363
1490.48	21.4286
1492.04	21.064
1493.61	20.7351
1495.17	19.443
1496.73	18.4753
1498.29	18.7967
1499.85	17.7478
1501.41	17.2825
1502.97	17.309
1504.53	17.543
1506.09	17.1349
1507.65	17.0466
1509.2	17.1782
1510.76	18.0593
1512.32	18.1343
1513.88	18.6653
1515.43	18.3866
1516.99	19.5946
1518.55	20.2091
1520.1	21.2055
1521.66	21.7021
1523.22	22.5606
1524.77	22.3011
1526.33	21.8016
1527.88	22.7342
1529.44	22.9796
1530.99	23.4811
1532.54	24.8909
1534.1	25.8099
1535.65	26.3731
1537.21	26.9561
1538.76	28.3103
1540.31	29.5551
1541.86	30.7725
1543.42	31.7038
1544.97	32.2954
1546.52	33.5729
1548.07	34.9585
1549.62	36.144
1551.17	36.5879
1552.72	38.8815
1554.27	40.5612
1555.82	41.6601
1557.37	42.4644
1558.92	44.3663
1560.47	45.1263
1562.02	46.5021
1563.56	46.6115
1565.11	48.5745
1566.66	50.133
1568.21	50.8323
1569.75	52.5399
1571.3	53.5119
1572.85	54.1139
1574.39	55.264
1575.94	56.6589
1577.49	57.3428
1579.03	59.549
1580.57	60.0484
1582.12	60.9611
1583.66	61.5941
1585.21	62.1742
1586.75	62.1995
1588.3	62.5232
1589.84	62.1294
1591.38	62.5583
1592.92	62.7786
1594.47	63.511
1596.01	63.9855
1597.55	63.8311
1599.09	63.8291
1600.63	63.3594
1602.17	61.8538
1603.71	61.7043
1605.25	62.3472
1606.79	62.293
1608.33	61.054
1609.87	61.1561
1611.41	59.6895
1612.95	58.6677
1614.49	58.063
1616.03	57.9898
1617.57	58.0228
1619.1	58.6393
1620.64	58.6847
1622.18	59.2515
1623.72	60.0901
1625.25	60.8853
1626.79	61.7727
1628.32	62.7795
1629.86	63.9961
1631.39	64.0035
1632.93	64.841
1634.46	66.7621
1636	68.496
1637.53	69.3525
1639.07	70.1646
1640.6	70.7406
1642.13	72.7674
1643.67	73.6043
1645.2	74.686
1646.73	76.904
1648.26	78.3791
1649.8	79.0447
1651.33	80.5174
1652.86	80.8706
1654.39	81.1945
1655.92	81.4435
1657.45	80.3421
1658.98	80.7693
1660.51	81.609
1662.04	81.1425
1663.57	80.3351
1665.1	80.0288
1666.63	79.3372
1668.16	79.0856
1669.68	77.9377
1671.21	77.0805
1672.74	74.8243
1674.27	72.0326
1675.79	69.4363
1677.32	66.6554
1678.85	63.5579
1680.37	61.7736
1681.9	58.1331
1683.42	54.338
1684.95	50.7153
1686.47	48.5906
1688	45.8437
1689.52	43.3158
1691.05	41.9943
1692.57	39.4446
1694.09	37.6021
1695.62	35.3453
1697.14	32.3217
1698.66	30.2378
1700.18	28.3738
1701.71	26.7466
1703.23	24.3348
1704.75	22.3605
1706.27	19.9671
1707.79	18.2378
1709.31	17.5032
1710.83	16.0378
1712.35	14.4536
1713.87	12.9102
1715.39	12.0048
1716.91	11.4573
1718.43	10.8234
1719.95	10.335
1721.47	9.41641
1722.99	8.99171
1724.5	8.04631
1726.02	7.35297
1727.54	6.95356
1729.06	5.506
1730.57	5.39617
1732.09	5.27458
1733.61	5.18263
1735.12	5.49352
1736.64	5.46238
1738.15	4.92679
1739.67	4.47881
1741.18	4.08236
1742.7	3.89719
1744.21	3.94422
1745.72	3.3607
1747.24	3.49483
1748.75	2.62373
1750.26	2.79606
1751.77	2.56809
1753.29	2.30841
1754.8	1.90198
1756.31	2.05062
1757.82	1.68774
1759.33	2.18458
1760.84	2.97189
1762.36	2.9473
1763.87	3.46865
1765.38	3.53693
1766.89	3.73299
1768.4	2.59951
1769.91	3.23435
1771.41	2.83215
1772.92	2.5953
1774.43	2.56102
1775.94	2.64334
1777.45	2.4481
1778.95	1.98401
1780.46	2.3883
1781.97	1.97319
1783.48	2.44599
1784.98	2.79773
1786.49	2.58156
1787.99	1.92214
1789.5	1.78191
1791.01	1.39389
1792.51	1.26016
1794.01	0.785391
1795.52	0.70507
1797.02	0.156312
1798.53	0.354816
1800.03	0.405805
1801.53	0.518279
1803.04	-0.0222633
1804.54	-0.399278
1806.04	-0.0654113
1807.54	-0.165739
1809.05	-0.31585
1810.55	-0.11159
1812.05	-0.092152
1813.55	-0.797545
1815.05	-0.699742
1816.55	-0.798
1818.05	-0.400497
1819.55	0.00582642
1821.05	0.00927218
1822.55	0.207279
1824.05	0.130726
1825.55	0.20483
1827.05	-0.0594463
1828.55	0.118278
1830.04	0.644467
1831.54	1.12091
1833.04	1.96322
1834.54	2.60728
1836.03	3.31698
1837.53	3.24885
1839.03	3.64639
1840.52	3.61154
1842.02	3.68772
1843.51	4.09148
1845.01	4.19693
1846.5	3.89735
1848	3.85432
1849.49	3.67133
1850.99	3.46885
1852.48	3.60454
1853.97	3.79931
1855.47	3.85374
1856.96	3.84483
1858.45	3.62721
1859.94	3.76573
1861.44	3.66892
1862.93	3.06339
1864.42	3.48217
1865.91	3.18365
1867.4	4.02255
1868.89	3.67788
1870.38	4.31748
1871.87	4.40406
1873.36	4.97114
1874.85	5.45422
1876.34	5.21952
1877.83	4.94648
1879.32	5.51517
1880.81	5.50175
1882.3	5.66877
1882.57	5.68464
1884.07	5.78383
1885.56	5.75401
1887.06	5.69802
1888.55	6.49825
1890.04	6.60335
1891.54	7.35684
1893.03	7.65436
1894.52	7.7012
1896.02	7.6547
1897.51	7.60331
1899	7.73135
1900.49	7.73289
1901.98	7.87329
1903.47	7.93619
1904.96	7.87578
1906.45	7.87353
1907.94	7.6644
1909.43	7.46608
1910.92	7.57093
1912.41	7.44183
1913.9	7.19813
1915.39	7.55704
1916.88	7.67336
1918.37	7.57256
1919.85	7.9246
1921.34	8.39683
1922.83	8.18326
1924.32	8.40883
1925.8	9.20571
1927.29	8.91241
1928.78	8.3664
1930.26	8.21851
1931.75	7.88493
1933.23	7.90196
1934.72	7.78837
1936.2	7.63335
1937.69	7.6897
1939.17	8.2228
1940.66	8.72193
1942.14	8.02062
1943.63	8.75446
1945.11	8.98987
1946.59	9.0837
1948.07	9.0867
1949.56	8.89428
1951.04	9.32823
1952.52	9.36004
1954	9.39329
1955.48	9.43016
1956.96	9.47542
1958.45	9.42035
1959.93	9.70894
1961.41	9.59204
1962.89	9.68516
1964.37	9.19475
1965.85	9.30548
1967.32	8.95502
1968.8	8.54922
1970.28	7.8387
1971.76	7.83266
1973.24	7.59703
1974.72	7.31113
1976.19	7.44256
1977.67	7.75827
1979.15	7.84474
1980.63	7.82066
1982.1	7.89805
1983.58	8.11137
1985.05	8.18406
1986.53	8.35529
1988	9.11029
1989.48	9.82461
1990.95	9.8501
1992.43	10.1024
1993.9	10.3195
1995.38	10.4623
1996.85	10.7644
1998.32	11.1028
1999.8	11.0458
2001.27	11.027
2002.74	11.4248
2004.22	11.664
2005.69	11.6335
2007.16	12.0237
2008.63	12.5808
2010.1	12.8443
2011.57	13.2959
2013.04	13.8137
2014.51	13.961
2015.98	14.0971
2017.45	14.5711
2018.92	14.9973
2020.39	15.0034
2021.86	15.1936
2023.33	14.6266
2024.8	15.1964
2026.27	15.4526
2027.74	15.7239
2029.2	15.7505
2030.67	16.4319
2032.14	16.1404
2033.61	16.2542
2035.07	15.8755
2036.54	15.849
2038.01	16.0746
2039.47	16.2792
2040.94	15.9918
2042.4	15.956
2043.87	15.8145
2045.33	15.926
2046.8	16.1491
2048.26	16.287
2049.72	17.0437
2051.19	16.662
2052.65	16.7896
2054.12	17.0485
2055.58	17.0236
2057.04	17.1954
2058.5	17.4118
2059.97	18.2847
2061.43	19.1493
2062.89	19.7307
2064.35	20.2915
2065.81	20.6771
2067.27	21.2977
2068.73	22.0845
2070.19	22.5851
2071.65	22.9384
2073.11	23.299
2074.57	23.8366
2076.03	23.9555
2077.49	23.8365
2078.95	24.2651
2080.41	24.7151
2081.87	25.2068
2083.32	25.4873
2084.78	25.6257
2086.24	25.9621
2087.7	26.5848
2089.15	26.9084
2090.61	27.6306
2092.07	28.5075
2093.52	29.3111
2094.98	29.3507
2096.43	30.2572
2097.89	31.5886
2099.34	31.7918
2100.8	33.1379
2102.25	34.3017
2103.71	35.6607
2105.16	36.5239
2106.61	37.8999
2108.07	38.9726
2109.52	40.1211
2110.97	41.2642
2112.43	42.3808
2113.88	43.494
2115.33	44.7553
2116.78	46.009
2118.23	47.8355
2119.68	49.8069
2121.13	51.3636
2122.59	53.1102
2124.04	54.1624
2125.49	56.1977
2126.94	57.8779
2128.39	60.1253
2129.83	62.1309
2131.28	64.6704
2132.73	66.8026
