#Acq. time (s)=	45
#Accumulations=	2
#Range (cm-¹)=	200...3150
#Windows=	2
#Auto scanning=	Off
#Autofocus=	Off
#Macrospot=	Off
#AutoExposure=	Off
#Spike filter=	Multiple accum.
#Delay time (s)=	0
#Binning=	1
#Readout mode=	Signal
#DeNoise=	Off
#ICS correction=	On
#Dark correction=	Off
#Inst. Process=	Off
#Detector Gain=	Best Dynamic Range
#Detector ADC=	20 kHz       
#Detector temperature (°C)=	-69.85
#Instrument=	LabRAM HR Evol
#Detector=	Synapse
#Objective=	x100
#Grating=	600 gr/mm
#ND Filter=	100%
#Laser (nm)=	532 
#Hole=	100.021
#Range=	Auto
#Laser Pol.=	No
#Raman. Pol.=	No
#Laser Pol. (°)=	-0.0007625
#Raman Pol. (°)=	89.9995
#Collection=	Microscope
#StageXY=	Marzhauser
#StageZ=	Marzhauser
#X (µm)=	1977.6
#Y (µm)=	-87.2
#Z (µm)=	425.85
#Full time(mm:ss)=	3:18
#Project=	
#Sample=	
#Site=	
#Title=	Thy_40_11_05_2x_45s_532 nm_x100_100%_600 gr_mm
#Remark=	
#Date=	05.07.2022 10:13
#Acquired=	05.07.2022 10:13:13
#Base:Fit=	10.08.2022 10:00:48
#Base:Fit=	10.08.2022 10:01:07
#Base:Fit=	10.08.2022 10:01:15
#Base:Fit=	10.08.2022 10:01:35
#Base:Sub=	10.08.2022 10:01:52
#Filter:Polynom=	16.08.2022 10:21:53
#AxisType[0]=Intens
#AxisUnit[0]=Cnt
#AxisType[1]=Spectr
#AxisUnit[1]=1/cm
200.43	-1.38941
202.244	2.07501
204.059	5.29025
205.873	7.47263
207.688	9.37953
209.501	10.5496
211.314	11.0478
213.127	11.3799
214.941	12.2248
216.753	11.8357
218.564	11.1195
220.375	11.4729
222.186	12.5407
223.999	13.1061
225.809	12.949
227.618	12.5877
229.428	12.5014
231.236	12.5516
233.045	12.7411
234.855	12.4803
236.663	12.4458
238.471	12.2861
240.278	11.7614
242.085	11.2483
243.891	11.6705
245.698	11.7308
247.503	11.3782
249.309	10.4301
251.116	9.92932
252.921	8.88221
254.725	7.62323
256.529	6.61571
258.333	6.28854
260.136	6.14052
261.939	5.26513
263.742	5.96093
265.544	6.32599
267.346	5.60601
269.148	4.65744
270.949	3.49413
272.75	2.68183
274.55	2.82236
276.351	1.77768
278.15	2.909
279.95	3.69596
281.749	4.56543
283.548	4.58464
285.346	4.36007
287.144	4.69394
288.942	4.3653
290.739	3.7806
292.536	3.41572
294.333	3.71747
296.129	3.7204
297.925	3.82913
299.721	5.93332
301.514	6.78477
303.309	7.82392
305.104	9.36619
306.898	9.66759
308.692	11.2925
310.486	13.5748
312.279	14.0998
314.072	13.3423
315.862	13.8508
317.654	14.3293
319.446	14.6978
321.238	15.1604
323.029	15.752
324.819	15.6102
326.608	14.9472
328.398	15.5355
330.188	15.9184
331.977	16.1815
333.766	15.721
335.553	15.0292
337.341	14.5619
339.129	13.9236
340.917	13.717
342.704	12.785
344.489	12.3662
346.275	12.6383
348.062	12.8167
349.845	11.3982
351.631	10.3528
353.416	9.04446
355.201	8.69725
356.984	7.25236
358.768	6.30363
360.552	5.17418
362.333	5.0787
364.116	4.8873
365.899	4.75643
367.68	5.78011
369.462	5.16885
371.243	4.42869
373.023	3.223
374.804	2.80082
376.585	3.02596
378.363	2.90687
380.143	3.75829
381.923	4.08324
383.7	5.20715
385.479	5.42887
387.256	6.3297
389.034	7.49076
390.812	7.47991
392.588	7.29757
394.365	7.05163
396.14	6.7644
397.916	6.89037
399.691	6.15991
401.467	5.45534
403.24	5.53952
405.015	6.52378
406.788	5.68911
408.563	6.0121
410.335	6.71087
412.109	6.01754
413.88	5.74932
415.654	5.14605
417.424	5.81741
419.197	6.26358
420.967	5.38212
422.739	4.84813
424.508	5.9208
426.279	6.20156
428.048	6.16517
429.819	5.79888
431.587	4.94808
433.356	4.28947
435.124	3.9636
436.891	2.95942
438.66	2.42627
440.426	2.87421
442.194	3.18555
443.96	3.51802
445.725	4.08259
447.492	5.09348
449.257	5.95443
451.021	7.17954
452.787	7.53028
454.551	8.46041
456.314	8.87166
458.079	8.96932
459.842	9.3568
461.604	10.1435
463.368	11.4888
465.13	11.9786
466.891	13.3824
468.654	14.1842
470.415	15.3233
472.175	16.6972
473.935	16.8415
475.696	17.7982
477.456	19.8118
479.215	20.2127
480.973	20.9727
482.733	22.2721
484.491	23.4651
486.249	23.8436
488.006	24.6934
489.765	26.3435
491.522	26.1529
493.278	26.4233
495.034	26.4156
496.789	27.707
498.544	26.825
500.301	26.761
502.056	27.0822
503.81	27.8537
505.564	28.8029
507.317	28.9758
509.071	27.911
510.825	27.5406
512.578	27.9236
514.33	27.9
516.082	27.7061
517.833	27.0207
519.585	26.8056
521.335	27.0682
523.086	26.3382
524.836	26.3306
526.586	26.5517
528.335	26.6456
530.085	25.9029
531.835	25.4405
533.584	25.3104
535.332	24.1643
537.08	22.9195
538.827	22.2251
540.574	21.2145
542.321	20.0369
544.068	19.4288
545.814	19.3196
547.56	19.4504
549.305	19.2314
551.05	19.3311
552.795	18.2828
554.54	18.2493
556.282	17.2523
558.025	17.2994
559.769	16.7601
561.512	16.8513
563.255	17.661
564.997	18.2662
566.739	17.4519
568.481	17.1153
570.223	16.3937
571.964	15.6405
573.705	14.4907
575.443	14.074
577.183	14.0315
578.923	13.2494
580.663	13.8779
582.402	13.8313
584.141	13.7867
585.879	13.9158
587.615	14.6291
589.353	13.3037
591.09	12.6105
592.828	11.1231
594.564	10.2583
596.299	9.5265
598.035	9.23423
599.771	9.17325
601.506	10.1203
603.242	9.67379
604.974	9.43747
606.709	9.43316
608.443	8.91099
610.177	8.46521
611.908	9.39895
613.642	9.3876
615.374	9.29078
617.105	9.39434
618.837	9.03388
620.569	10.1792
622.3	9.59967
624.03	9.32933
625.761	9.85407
627.491	9.77155
629.219	10.613
630.949	12.2461
632.677	12.6939
634.406	12.5414
636.135	12.9632
637.861	13.2959
639.59	13.7616
641.318	14.104
643.043	15.6588
644.77	17.5746
646.495	19.5098
648.222	20.8898
649.948	22.2825
651.672	23.1156
653.398	24.3994
655.121	25.9479
656.846	26.6593
658.569	27.9902
660.293	29.573
662.015	31.6274
663.738	33.5276
665.46	34.1061
667.183	34.9634
668.903	35.979
670.626	36.9839
672.346	37.7278
674.067	37.213
675.787	36.8817
677.508	37.8148
679.226	38.4404
680.947	39.4967
682.665	41.0096
684.385	42.1902
686.102	43.7168
687.821	45.8132
689.538	45.9903
691.254	46.76
692.972	47.2439
694.688	48.5223
696.406	49.2268
698.121	49.9875
699.835	51.01
701.552	51.7932
703.266	52.3827
704.98	52.7002
706.695	54.0166
708.409	52.9559
710.121	52.8691
711.836	54.6402
713.548	55.8733
715.26	56.6848
716.973	57.1936
718.685	56.5061
720.396	57.2334
722.108	58.5584
723.818	58.7452
725.528	60.0997
727.238	60.1159
728.949	61.724
730.658	61.4454
732.367	60.9694
734.075	61.1889
735.785	61.9717
737.493	62.2212
739.2	62.8746
740.907	63.0689
742.614	63.7015
744.322	65.2611
746.028	66.3195
747.734	66.23
749.439	66.6317
751.144	67.542
752.849	68.8262
754.555	70.1085
756.26	71.0556
757.963	71.5266
759.667	71.9376
761.37	73.1853
763.073	74.6288
764.775	76.0935
766.477	77.8553
768.179	79.1272
769.883	79.8175
771.584	80.7828
773.285	80.8611
774.986	81.3415
776.686	82.4266
778.386	83.5869
780.085	84.7204
781.785	84.5329
783.484	86.18
785.182	87.2601
786.881	87.3434
788.579	88.1094
790.276	88.2704
791.974	88.4932
793.671	89.4132
795.367	89.9754
797.064	91.2312
798.76	91.1918
800.456	91.0581
802.151	90.4114
803.846	90.269
805.541	90.1146
807.234	88.8711
808.928	88.1421
810.622	88.5015
812.315	87.8948
814.008	87.757
815.701	88.4417
817.394	88.553
819.086	88.662
820.778	88.393
822.468	88.9098
824.159	89.5696
825.85	90.4811
827.541	91.572
829.231	90.7527
830.921	90.8463
832.609	90.8062
834.298	90.4543
835.987	90.4069
837.676	89.4831
839.364	88.8661
841.051	88.1212
842.738	86.8454
844.426	86.0892
846.113	85.3524
847.798	84.2803
849.484	83.9729
851.171	82.6987
852.857	81.9574
854.54	80.7644
856.226	78.8278
857.911	77.0475
859.593	75.9866
861.278	75.0806
862.961	72.6035
864.645	70.6635
866.327	69.2859
868.01	68.921
869.692	67.6233
871.373	65.8886
873.055	64.8634
874.735	63.4689
876.416	63.3986
878.097	62.5404
879.776	60.3789
881.457	60.5333
883.135	59.2817
884.815	57.3945
886.495	56.5878
888.172	55.8956
889.851	55.34
891.528	55.7718
893.206	55.8169
894.882	56.0907
896.56	55.502
898.237	54.5788
899.912	53.8625
901.589	52.685
903.263	51.5127
904.94	51.3937
906.614	51.2782
908.289	51.3174
909.962	50.5507
911.635	49.6036
913.31	48.9602
914.982	47.3091
916.656	46.164
918.328	45.9142
920.001	45.3649
921.672	45.2862
923.345	45.4508
925.015	44.5109
926.685	44.1803
928.357	43.8379
930.026	43.3729
931.698	43.0289
933.366	42.3725
935.035	41.6483
936.705	40.0564
938.373	38.6565
940.041	37.7383
941.71	36.6812
943.377	36.2595
945.044	35.3277
946.712	34.8659
948.378	35.0918
950.044	36.6001
951.709	36.9015
953.376	37
955.041	36.7261
956.706	36.5564
958.372	36.0403
960.036	35.1564
961.699	33.7603
963.362	32.5676
965.027	32.8675
966.69	31.826
968.352	32.4951
970.014	32.4893
971.676	33.1551
973.339	33.6924
975	33.2994
976.661	31.7339
978.322	31.9635
979.982	31.8795
981.642	30.8613
983.303	31.2492
984.962	31.4496
986.621	31.3109
988.28	32.3786
989.938	33.2445
991.596	32.98
993.254	32.2019
994.911	31.679
996.57	31.651
998.227	30.9186
999.884	31.8626
1001.54	31.828
1003.2	31.6926
1004.85	31.7043
1006.51	30.1063
1008.16	28.7949
1009.82	28.6684
1011.47	28.3268
1013.12	28.2957
1014.78	27.9272
1016.43	28.3155
1018.08	28.6007
1019.74	27.7408
1021.39	27.7474
1023.04	28.728
1024.69	28.0223
1026.34	28.5343
1028	28.4195
1029.65	29.1514
1031.3	29.1665
1032.95	29.5975
1034.6	28.8979
1036.25	27.9992
1037.9	26.7632
1039.54	25.7556
1041.19	25.4567
1042.84	24.7893
1044.49	23.8998
1046.14	23.4464
1047.78	25.2166
1049.43	25.5519
1051.08	25.4584
1052.72	25.0528
1054.37	25.8051
1056.02	24.097
1057.66	24.3233
1059.31	23.4336
1060.95	23.8571
1062.6	23.4519
1064.24	23.4838
1065.88	23.5645
1067.53	23.7828
1069.17	23.5773
1070.81	22.6525
1072.45	22.4835
1074.1	21.1047
1075.74	20.3487
1077.38	19.8647
1079.02	20.2192
1080.66	21.2404
1082.3	21.17
1083.94	21.5243
1085.58	21.0185
1087.22	20.1358
1088.86	18.9629
1090.5	19.1682
1092.14	19.3779
1093.78	18.6603
1095.42	18.4658
1097.05	18.239
1098.69	19.0643
1100.33	19.3733
1101.96	20.1687
1103.6	20.5324
1105.24	20.9501
1106.87	20.4264
1108.51	19.5944
1110.14	19.2303
1111.78	18.852
1113.41	18.5843
1115.05	18.1465
1116.68	18.4152
1118.31	17.9417
1119.95	18.0312
1121.58	16.9684
1123.21	16.3352
1124.85	15.2374
1126.48	14.2306
1128.11	13.9682
1129.74	14.2418
1131.37	12.7641
1133	11.5286
1134.63	11.3867
1136.26	11.1497
1137.89	10.8126
1139.52	11.0648
1141.15	9.95092
1142.78	9.65852
1144.41	9.62386
1146.04	9.59121
1147.66	8.64894
1149.29	8.91633
1150.92	7.628
1152.55	7.9224
1154.17	7.38291
1155.8	6.34781
1157.43	6.45718
1159.05	6.63174
1160.68	6.8139
1162.3	6.8686
1163.93	5.40757
1165.55	3.81644
1167.17	2.97137
1168.8	2.293
1170.42	2.18507
1172.05	2.45292
1173.67	3.35996
1175.29	3.47633
1176.91	4.60233
1178.54	4.76739
1180.16	5.71082
1181.78	6.05643
1183.4	6.49757
1185.02	5.56822
1186.64	4.7634
1188.26	4.29871
1189.88	3.86072
1191.5	4.63626
1193.12	5.16307
1194.74	6.51625
1196.36	8.28266
1197.97	8.77222
1199.59	8.60957
1201.21	8.75834
1202.83	9.35743
1204.44	10.39
1206.06	10.9442
1207.68	12.4672
1209.29	14.0029
1210.91	16.5398
1212.52	17.7906
1214.14	20.1963
1215.75	22.1432
1217.37	23.8148
1218.98	25.6549
1220.59	27.8431
1222.21	30.1053
1223.82	33.1231
1225.43	35.6435
1227.05	37.4791
1228.66	39.3743
1230.27	41.8073
1231.88	44.0215
1233.49	46.4656
1235.1	47.5984
1236.72	49.547
1238.33	50.9032
1239.94	52.5375
1241.55	53.5004
1243.16	54.756
1244.76	56.1113
1246.37	57.1383
1247.98	59.1929
1249.59	59.9861
1251.2	61.247
1252.8	62.027
1254.41	63.3803
1256.02	63.1045
1257.62	63.8166
1259.23	64.8997
1260.84	66.3577
1262.44	66.3982
1264.05	66.545
1265.66	67.0196
1267.26	67.4787
1268.86	68.2089
1270.47	69.1927
1272.07	70.3909
1273.67	72.0473
1275.28	71.8635
1276.88	72.8102
1278.48	72.7054
1280.09	74.3107
1281.69	75.9922
1283.29	76.6815
1284.89	76.9654
1286.49	78.6595
1288.09	80.6982
1289.69	81.4581
1291.29	82.7164
1292.89	82.6614
1294.49	84.051
1296.09	83.523
1297.69	84.2644
1299.29	85.1281
1300.89	86.3537
1302.49	87.1215
1304.08	87.7428
1305.68	87.6527
1307.28	87.843
1308.88	89.2507
1310.47	90.3153
1312.07	89.4842
1313.66	88.6115
1315.26	88.0681
1316.85	88.2453
1318.45	88.0461
1320.04	87.9377
1321.64	86.6483
1323.23	86.5551
1324.83	86.3655
1326.42	85.2
1328.01	84.9536
1329.61	83.0935
1331.2	83.2406
1332.79	83.052
1334.38	82.4716
1335.97	82.1036
1337.56	80.8333
1339.16	78.9252
1340.75	77.2807
1342.34	75.1947
1343.93	74.2052
1345.52	74.0269
1347.11	72.9502
1348.7	71.8458
1350.29	70.6903
1351.87	69.4972
1353.46	68.1714
1355.05	67.0487
1356.64	66.6116
1358.22	66.1525
1359.81	65.5156
1361.4	63.4393
1362.98	62.4153
1364.57	62.0654
1366.16	61.6688
1367.74	60.2908
1369.33	58.2585
1370.91	57.7989
1372.5	56.1866
1374.08	55.3937
1375.67	53.9388
1377.25	53.5794
1378.83	54.0865
1380.41	54.0504
1382	53.5264
1383.58	52.8345
1385.16	53.2025
1386.74	53.105
1388.33	51.9399
1389.91	49.8668
1391.49	48.6531
1393.07	49.3723
1394.65	49.7255
1396.23	49.4317
1397.81	47.5724
1399.39	47.0118
1400.97	46.1221
1402.55	46.6609
1404.13	47.0175
1405.7	46.0409
1407.28	45.0031
1408.86	44.3034
1410.44	44.9059
1412.01	44.4566
1413.59	45.445
1415.17	45.7
1416.74	45.6485
1418.32	47.9503
1419.89	49.8614
1421.47	51.2161
1423.04	54.1635
1424.62	56.6898
1426.19	57.562
1427.77	59.4874
1429.34	61.9729
1430.91	64.6204
1432.49	68.712
1434.06	71.5122
1435.63	73.8594
1437.2	76.9646
1438.78	77.5431
1440.35	79.6163
1441.92	82.1152
1443.49	82.9325
1445.06	84.2036
1446.63	85.0379
1448.2	86.1907
1449.77	87.1419
1451.34	86.3503
1452.91	85.7006
1454.48	84.672
1456.05	83.8376
1457.62	84.0487
1459.18	82.5798
1460.75	80.5387
1462.32	79.3126
1463.89	77.7588
1465.45	74.2977
1467.02	71.4345
1468.59	68.8687
1470.15	65.8381
1471.72	62.2925
1473.28	58.9908
1474.85	54.7462
1476.41	51.3398
1477.98	48.6648
1479.54	44.2639
1481.1	41.3499
1482.67	37.7274
1484.23	33.7082
1485.79	30.8113
1487.36	28.4852
1488.92	26.3174
1490.48	23.632
1492.04	21.5265
1493.61	19.0931
1495.17	18.572
1496.73	17.1454
1498.29	15.5505
1499.85	14.8695
1501.41	14.6684
1502.97	13.5544
1504.53	12.686
1506.09	13.5751
1507.65	13.5082
1509.2	14.5115
1510.76	15.4586
1512.32	15.1678
1513.88	15.7756
1515.43	15.7707
1516.99	16.249
1518.55	17.6744
1520.1	18.3871
1521.66	19.0759
1523.22	20.5895
1524.77	22.2272
1526.33	23.3147
1527.88	25.2381
1529.44	26.4197
1530.99	28.0971
1532.54	29.2652
1534.1	31.352
1535.65	33.8998
1537.21	35.8661
1538.76	38.2508
1540.31	40.8346
1541.86	41.9085
1543.42	43.2996
1544.97	46.7683
1546.52	49.0082
1548.07	51.6891
1549.62	55.4836
1551.17	58.7971
1552.72	61.4709
1554.27	64.5643
1555.82	66.6242
1557.37	69.5888
1558.92	72.5665
1560.47	75.758
1562.02	77.7269
1563.56	80.2346
1565.11	82.9951
1566.66	85.431
1568.21	87.6016
1569.75	90.6443
1571.3	93.7528
1572.85	95.3484
1574.39	97.4152
1575.94	100.147
1577.49	101.731
1579.03	103.128
1580.57	103.862
1582.12	105.033
1583.66	106.55
1585.21	107.511
1586.75	108.712
1588.3	107.913
1589.84	107.617
1591.38	107.501
1592.92	106.506
1594.47	106.277
1596.01	105.422
1597.55	105.006
1599.09	102.913
1600.63	102.196
1602.17	100.957
1603.71	99.0477
1605.25	97.757
1606.79	95.8508
1608.33	95.0371
1609.87	93.2049
1611.41	93.1126
1612.95	92.7314
1614.49	91.9715
1616.03	90.2587
1617.57	88.836
1619.1	87.3523
1620.64	87.4749
1622.18	87.7187
1623.72	87.2092
1625.25	87.1496
1626.79	87.3286
1628.32	87.6421
1629.86	88.5986
1631.39	88.9977
1632.93	89.8927
1634.46	91.1841
1636	91.9105
1637.53	94.2046
1639.07	94.967
1640.6	96.7339
1642.13	97.9268
1643.67	98.1949
1645.2	99.6783
1646.73	100.501
1648.26	102.486
1649.8	103.987
1651.33	105.576
1652.86	106.042
1654.39	104.837
1655.92	105.094
1657.45	104.079
1658.98	104.333
1660.51	103.663
1662.04	102.332
1663.57	100.936
1665.1	99.1403
1666.63	97.2126
1668.16	94.9254
1669.68	92.7682
1671.21	90.6654
1672.74	88.3416
1674.27	85.7413
1675.79	83.2642
1677.32	81.3918
1678.85	78.4998
1680.37	75.8976
1681.9	73.4491
1683.42	70.608
1684.95	67.6494
1686.47	63.8574
1688	60.6113
1689.52	56.4446
1691.05	52.4676
1692.57	48.6602
1694.09	45.4787
1695.62	42.0853
1697.14	38.6756
1698.66	35.6563
1700.18	32.9796
1701.71	30.4526
1703.23	27.9504
1704.75	26.1048
1706.27	24.3441
1707.79	23.0381
1709.31	22.0636
1710.83	19.7546
1712.35	19.4542
1713.87	18.1635
1715.39	16.8536
1716.91	15.8626
1718.43	14.8549
1719.95	13.9974
1721.47	13.8003
1722.99	12.9528
1724.5	13.3049
1726.02	12.2399
1727.54	10.3986
1729.06	9.65077
1730.57	8.75831
1732.09	9.1223
1733.61	8.01735
1735.12	8.15908
1736.64	6.86707
1738.15	6.53568
1739.67	5.68832
1741.18	5.40101
1742.7	5.55437
1744.21	5.80289
1745.72	6.5009
1747.24	7.08223
1748.75	7.28451
1750.26	6.92381
1751.77	7.0135
1753.29	6.81308
1754.8	6.70769
1756.31	6.62509
1757.82	6.43371
1759.33	5.7455
1760.84	5.3828
1762.36	4.50949
1763.87	3.83494
1765.38	3.11995
1766.89	2.92126
1768.4	2.52255
1769.91	1.97698
1771.41	1.13172
1772.92	0.432678
1774.43	1.1011
1775.94	1.23376
1777.45	1.72302
1778.95	2.21697
1780.46	2.21479
1781.97	2.29824
1783.48	2.36352
1784.98	2.3788
1786.49	2.04309
1787.99	2.70521
1789.5	1.93927
1791.01	1.86095
1792.51	1.18027
1794.01	0.684564
1795.52	0.999822
1797.02	1.28776
1798.53	1.14431
1800.03	1.02387
1801.53	0.409656
1803.04	-0.176936
1804.54	-0.240665
1806.04	-0.114418
1807.54	0.169873
1809.05	0.165156
1810.55	-0.188552
1812.05	-0.287914
1813.55	-0.445681
1815.05	-0.540883
1816.55	0.217946
1818.05	0.537714
1819.55	-0.185917
1821.05	-0.0169136
1822.55	0.357739
1824.05	-0.119073
1825.55	-0.16374
1827.05	0.20098
1828.55	0.14048
1830.04	-0.117177
1831.54	-0.281613
1833.04	0.0391833
1834.54	0.0730311
1836.03	0.282731
1837.53	0.273765
1839.03	-0.282348
1840.52	-1.07597
1842.02	-0.763864
1843.51	-0.42951
1845.01	-0.786588
1846.5	-1.07114
1848	-0.581042
1849.49	-0.113915
1850.99	0.537538
1852.48	0.531419
1853.97	0.589932
1855.47	0.0462065
1856.96	0.113059
1858.45	0.929404
1859.94	1.05955
1861.44	1.06085
1862.93	0.658641
1864.42	0.630554
1865.91	0.512303
1867.4	1.04175
1868.89	1.40771
1870.38	2.22227
1871.87	2.01749
1873.36	1.99134
1874.85	2.24357
1876.34	2.43162
1877.83	2.67549
1879.32	3.45719
1880.81	4.05854
1882.3	4.21719
1882.57	4.2321
1884.07	4.31131
1885.56	5.20612
1887.06	5.71335
1888.55	6.21208
1890.04	6.32761
1891.54	6.21496
1893.03	6.61665
1894.52	7.27992
1896.02	7.63046
1897.51	7.8737
1899	8.38316
1900.49	9.16852
1901.98	9.65817
1903.47	10.5341
1904.96	11.539
1906.45	12.2105
1907.94	11.9288
1909.43	11.8318
1910.92	11.5401
1912.41	11.4661
1913.9	11.6405
1915.39	12.548
1916.88	12.38
1918.37	12.2684
1919.85	11.6384
1921.34	11.5086
1922.83	10.8106
1924.32	10.0319
1925.8	9.41252
1927.29	8.81609
1928.78	8.2015
1930.26	8.06167
1931.75	8.22375
1933.23	7.96673
1934.72	7.58655
1936.2	7.04556
1937.69	6.56028
1939.17	6.16468
1940.66	5.66056
1942.14	5.6338
1943.63	5.55331
1945.11	5.2241
1946.59	5.32108
1948.07	5.20887
1949.56	5.55809
1951.04	5.78868
1952.52	5.74021
1954	5.75273
1955.48	5.9355
1956.96	6.28443
1958.45	6.10747
1959.93	6.09786
1961.41	5.95337
1962.89	5.22047
1964.37	5.68074
1965.85	5.37115
1967.32	6.0619
1968.8	6.43113
1970.28	6.92633
1971.76	7.74259
1973.24	7.96852
1974.72	8.69022
1976.19	8.76953
1977.67	8.92819
1979.15	9.09549
1980.63	8.82347
1982.1	9.14168
1983.58	9.33406
1985.05	9.9057
1986.53	9.72664
1988	9.68415
1989.48	10.089
1990.95	9.61549
1992.43	9.47999
1993.9	9.0751
1995.38	9.20921
1996.85	9.11027
1998.32	9.2598
1999.8	9.55256
2001.27	9.64833
2002.74	9.87688
2004.22	10.3458
2005.69	10.5888
2007.16	10.5378
2008.63	9.82172
2010.1	9.96282
2011.57	9.77406
2013.04	10.0441
2014.51	9.8944
2015.98	10.2722
2017.45	10.6249
2018.92	11.663
2020.39	12.0464
2021.86	12.5987
2023.33	13.6876
2024.8	13.6345
2026.27	13.1034
2027.74	13.647
2029.2	13.9858
2030.67	13.9748
2032.14	13.4883
2033.61	13.7456
2035.07	14.2079
2036.54	14.107
2038.01	13.7623
2039.47	13.5285
2040.94	13.888
2042.4	14.2872
2043.87	14.6212
2045.33	15.0257
2046.8	15.1846
2048.26	15.5415
2049.72	15.3901
2051.19	15.8215
2052.65	16.5772
2054.12	17.3004
2055.58	17.7239
2057.04	17.6178
2058.5	18.0793
2059.97	17.9991
2061.43	18.6017
2062.89	18.8999
2064.35	18.7351
2065.81	19.1622
2067.27	19.2437
2068.73	20.1154
2070.19	21.0861
2071.65	21.2772
2073.11	21.7572
2074.57	23.0149
2076.03	23.5254
2077.49	24.4161
2078.95	25.0766
2080.41	25.0312
2081.87	25.7869
2083.32	27.1399
2084.78	27.2564
2086.24	28.021
2087.7	28.6888
2089.15	29.8345
2090.61	30.4468
2092.07	31.5426
2093.52	31.4156
2094.98	32.3822
2096.43	33.3699
2097.89	33.2122
2099.34	33.5175
2100.8	35.5421
2102.25	36.009
2103.71	36.5604
2105.16	37.6588
2106.61	38.5473
2108.07	39.3053
2109.52	39.5198
2110.97	40.3557
2112.43	42.3496
2113.88	44.0933
2115.33	45.8247
2116.78	48.0204
2118.23	49.8373
2119.68	50.7774
2121.13	52.4487
2122.59	54.438
2124.04	57.0038
