#Acq. time (s)=	45
#Accumulations=	2
#Range (cm-¹)=	200...3150
#Windows=	2
#Auto scanning=	Off
#Autofocus=	Off
#Macrospot=	Off
#AutoExposure=	Off
#Spike filter=	Multiple accum.
#Delay time (s)=	0
#Binning=	1
#Readout mode=	Signal
#DeNoise=	Off
#ICS correction=	On
#Dark correction=	Off
#Inst. Process=	Off
#Detector Gain=	Best Dynamic Range
#Detector ADC=	20 kHz       
#Detector temperature (°C)=	-69.85
#Instrument=	LabRAM HR Evol
#Detector=	Synapse
#Objective=	x100
#Grating=	600 gr/mm
#ND Filter=	100%
#Laser (nm)=	532 
#Hole=	100.021
#Range=	Auto
#Laser Pol.=	No
#Raman. Pol.=	No
#Laser Pol. (°)=	-0.0007625
#Raman Pol. (°)=	89.9995
#Collection=	Microscope
#StageXY=	Marzhauser
#StageZ=	Marzhauser
#X (µm)=	-5135.5
#Y (µm)=	1493.7
#Z (µm)=	63.15
#Full time(mm:ss)=	3:18
#Project=	
#Sample=	
#Site=	
#Title=	Thy_50_12_25_2x_45s_532 nm_x100_100%_600 gr_mm
#Remark=	
#Date=	07.07.2022 11:04
#Acquired=	07.07.2022 11:04:32
#Base:Fit=	10.08.2022 10:04:29
#Base:Sub=	10.08.2022 10:04:45
#Filter:Polynom=	16.08.2022 10:20:24
#AxisType[0]=Intens
#AxisUnit[0]=Cnt
#AxisType[1]=Spectr
#AxisUnit[1]=1/cm
200.43	34.7187
202.246	28.2896
204.061	24.8548
205.875	22.1669
207.688	20.6258
209.501	19.0966
211.316	17.5351
213.129	16.6557
214.941	16.0421
216.753	16.087
218.566	14.8884
220.377	13.298
222.188	11.8706
223.999	11.0308
225.809	10.3234
227.618	10.1282
229.43	10.5083
231.239	10.0726
233.047	8.37509
234.855	7.7298
236.663	7.01062
238.471	6.27823
240.278	6.70061
242.087	6.29928
243.894	6.04811
245.7	6.61871
247.506	7.08087
249.311	8.22624
251.116	8.8772
252.921	8.10172
254.725	8.78137
256.529	9.93495
258.333	11.0845
260.136	12.7076
261.939	12.5746
263.744	13.2356
265.546	14.175
267.348	13.9116
269.15	12.2049
270.951	11.4185
272.752	11.1844
274.552	10.6852
276.353	10.0613
278.152	10.1751
279.952	10.7237
281.751	11.3911
283.55	11.1588
285.348	12.2899
287.146	12.2566
288.942	13.1169
290.739	13.2151
292.536	13.0982
294.333	12.4623
296.129	12.7364
297.925	11.862
299.721	11.7616
301.516	12.5167
303.311	12.4462
305.106	10.5027
306.9	9.41611
308.694	8.6471
310.486	9.4963
312.279	9.59156
314.072	9.61429
315.864	9.89968
317.656	9.52284
319.448	9.50612
321.24	9.28123
323.029	8.20399
324.819	7.85768
326.61	8.12758
328.4	8.53108
330.19	9.83161
331.977	10.1579
333.766	9.70448
335.555	10.3702
337.343	10.4992
339.131	11.0579
340.917	10.3011
342.704	10.5058
344.491	11.1046
346.277	11.1525
348.062	10.5847
349.848	9.95773
351.633	8.65332
353.416	8.31976
355.201	7.02841
356.986	6.21363
358.77	5.34059
360.552	6.18756
362.335	6.87151
364.118	7.35575
365.899	7.98273
367.682	8.29089
369.464	7.78344
371.243	8.1019
373.025	7.7516
374.806	7.65522
376.585	7.47882
378.365	6.74666
380.143	5.575
381.923	4.24226
383.702	5.04079
385.479	4.9349
387.258	4.43631
389.034	4.2521
390.812	3.49831
392.59	2.54071
394.365	3.18722
396.142	4.06842
397.916	5.33016
399.693	5.91139
401.467	5.00579
403.242	5.17544
405.015	6.27405
406.79	6.41357
408.565	7.1847
410.337	7.77604
412.111	7.2376
413.882	8.47469
415.656	10.1901
417.426	10.2363
419.197	10.1711
420.969	10.1536
422.739	8.33926
424.51	9.46749
426.279	8.99349
428.05	9.52106
429.819	8.82799
431.589	9.45977
433.356	9.2132
435.124	9.16922
436.893	9.30407
438.66	8.29008
440.428	8.47115
442.194	7.48003
443.96	7.7343
445.727	7.5293
447.492	7.72936
449.259	8.26075
451.023	7.49964
452.787	7.66119
454.553	7.53049
456.316	6.75401
458.079	6.85548
459.844	7.06873
461.606	6.75775
463.368	6.31775
465.132	5.68802
466.893	5.21028
468.654	5.51613
470.415	5.7374
472.177	6.11777
473.937	7.54315
475.696	8.01452
477.456	8.91352
479.217	9.55537
480.975	10.7775
482.733	12.7198
484.491	13.1857
486.251	14.6804
488.008	15.8833
489.765	17.1272
491.522	18.8451
493.278	20.4276
495.036	21.5824
496.791	22.762
498.546	23.9026
500.301	23.8833
502.056	23.5696
503.81	23.9403
505.566	24.2838
507.319	24.8772
509.073	24.5271
510.825	23.4123
512.578	25.602
514.33	26.0108
516.082	26.8937
517.833	26.3514
519.587	26.7758
521.337	26.6125
523.088	26.6476
524.838	26.0187
526.588	24.4006
528.337	25.2459
530.087	23.7114
531.835	23.7639
533.584	22.5174
535.332	22.8763
537.08	21.5553
538.827	20.8981
540.574	20.6969
542.321	19.2942
544.068	17.7994
545.814	18.0902
547.56	17.5291
549.305	17.0434
551.05	16.5121
552.795	15.5963
554.54	15.5155
556.284	15.0713
558.027	14.8502
559.771	14.5435
561.514	14.8701
563.257	13.0722
564.999	12.7821
566.742	12.0941
568.481	12.1587
570.223	12.3331
571.964	11.3736
573.705	11.7152
575.445	11.3573
577.185	11.9369
578.925	11.293
580.665	11.0659
582.402	10.4712
584.141	9.91403
585.879	8.6777
587.617	8.00848
589.355	7.6369
591.092	8.41074
592.828	7.02459
594.564	6.04581
596.301	5.52436
598.037	5.77594
599.773	6.61347
601.506	5.42441
603.242	4.95674
604.976	5.47452
606.711	6.42495
608.443	6.52331
610.177	7.45985
611.91	7.13767
613.644	6.89414
615.374	6.82344
617.107	6.3954
618.839	6.32634
620.569	7.02924
622.3	7.56959
624.032	7.84018
625.761	8.92998
627.491	8.55976
629.221	8.62473
630.949	8.75696
632.679	9.55595
634.408	8.99757
636.135	10.0195
637.863	10.515
639.592	11.0324
641.318	11.6621
643.045	11.9563
644.77	11.9359
646.497	12.572
648.224	12.59
649.948	13.3212
651.674	14.8536
653.398	15.5446
655.123	16.6369
656.846	17.6689
658.57	17.982
660.293	19.2365
662.017	19.2911
663.738	20.5586
665.462	19.9846
667.185	19.7612
668.905	19.444
670.628	19.0907
672.348	19.1268
674.067	19.1968
675.789	19.476
677.508	18.865
679.228	19.2931
680.947	20.1715
682.667	21.5999
684.385	21.9709
686.104	22.7732
687.821	23.5128
689.538	25.4671
691.256	26.3899
692.972	27.7775
694.69	28.622
696.406	29.573
698.121	29.5022
699.837	29.5425
701.552	30.212
703.268	31.4314
704.982	32.3049
706.695	34.4958
708.41	34.531
710.123	35.3977
711.836	35.5205
713.55	35.8624
715.262	37.6026
716.973	38.1786
718.685	39.5664
720.398	40.4338
722.108	42.065
723.818	42.1143
725.53	42.1235
727.24	42.5295
728.949	43.8972
730.658	44.2005
732.369	44.8716
734.077	44.4374
735.785	44.9811
737.493	46.0762
739.2	46.9019
740.909	47.7914
742.616	48.7198
744.322	49.4865
746.028	51.2081
747.734	51.4202
749.441	52.6974
751.146	53.2937
752.851	54.0256
754.555	55.8116
756.26	58.011
757.963	61.0545
759.667	62.1528
761.372	64.2603
763.075	65.9202
764.777	67.9731
766.479	69.2022
768.181	70.4621
769.883	71.1216
771.584	72.6108
773.285	74.4275
774.986	75.3436
776.686	77.0672
778.386	79.8439
780.085	80.4512
781.785	80.1951
783.484	81.2088
785.182	80.5208
786.881	81.9714
788.579	82.5794
790.276	83.1505
791.974	84.137
793.671	85.0037
795.367	85.6532
797.064	86.0261
798.76	85.0581
800.456	85.4513
802.151	84.8499
803.846	84.2144
805.541	83.8998
807.236	83.1226
808.93	82.2655
810.624	81.9245
812.317	81.7474
814.01	80.9418
815.703	79.8103
817.394	79.2048
819.086	78.9486
820.778	78.591
822.47	77.935
824.161	77.1577
825.852	75.4757
827.543	75.1306
829.231	74.1165
830.921	73.1513
832.611	71.7102
834.3	71.2984
835.989	70.0485
837.676	68.5948
839.364	67.7929
841.053	67.4209
842.74	66.7609
844.426	64.2902
846.113	64.0498
847.8	62.7738
849.486	61.1033
851.171	60.2394
852.857	58.9078
854.542	57.9067
856.227	57.3394
857.911	56.1046
859.595	54.944
861.279	54.5003
862.961	53.037
864.645	51.7108
866.329	50.4522
868.01	50.5075
869.692	49.7776
871.375	50.6732
873.055	50.1196
874.737	49.4178
876.418	50.1597
878.097	50.2163
879.778	47.8927
881.457	48.0442
883.137	48.1037
884.817	49.3263
886.495	49.3774
888.174	48.6574
889.851	48.1749
891.53	47.3415
893.206	46.47
894.884	46.304
896.562	45.8824
898.237	44.1346
899.914	43.2165
901.589	42.1134
903.265	40.0427
904.94	38.2323
906.615	36.5498
908.289	35.6327
909.964	33.0986
911.637	32.7822
913.31	31.3789
914.984	30.1335
916.656	29.8555
918.33	29.3025
920.001	29.124
921.674	28.5172
923.345	28.5874
925.015	28.6461
926.687	27.5658
928.357	25.8901
930.028	25.5035
931.698	23.5175
933.366	22.4529
935.037	22.0129
936.705	21.7202
938.373	21.331
940.043	21.1872
941.71	20.2196
943.379	18.5875
945.046	17.8276
946.712	18.8844
948.378	19.5503
950.046	20.0191
951.711	21.926
953.376	23.4576
955.043	24.5185
956.708	24.7337
958.372	24.9032
960.036	25.7366
961.701	26.5034
963.364	27.5525
965.027	30.2515
966.69	30.9779
968.354	31.3159
970.016	31.8877
971.678	32.4432
973.339	33.7261
975	34.5565
976.661	34.7694
978.324	34.7993
979.984	35.2428
981.644	35.2046
983.303	35.7697
984.962	36.498
986.621	35.1968
988.282	34.7903
989.94	34.6587
991.598	35.8592
993.256	36.4277
994.913	38.3292
996.57	38.1653
998.227	39.123
999.884	40.7304
1001.54	41.1013
1003.2	41.828
1004.85	41.4417
1006.51	41.5954
1008.16	41.1974
1009.82	41.3576
1011.47	41.9103
1013.12	42.5756
1014.78	43.2537
1016.43	43.8699
1018.08	43.7579
1019.74	43.7699
1021.39	43.1684
1023.04	43.1157
1024.69	42.6108
1026.34	42.7189
1028	43.9103
1029.65	45.3976
1031.3	45.2347
1032.95	45.6976
1034.6	46.4313
1036.25	46.828
1037.9	47.0204
1039.55	47.1062
1041.19	46.7184
1042.84	47.1126
1044.49	48.124
1046.14	47.3802
1047.79	46.6777
1049.43	45.6445
1051.08	44.9307
1052.73	44.8124
1054.37	43.5138
1056.02	41.6204
1057.66	39.4738
1059.31	37.8476
1060.95	36.4388
1062.6	36.419
1064.24	34.9345
1065.88	33.5845
1067.53	32.9263
1069.17	30.7864
1070.81	30.0368
1072.46	31.1533
1074.1	31.0187
1075.74	30.5688
1077.38	30.2168
1079.02	30.0892
1080.66	30.4907
1082.3	30.2721
1083.94	28.7018
1085.58	27.4015
1087.22	26.4862
1088.86	25.8048
1090.5	25.0394
1092.14	25.3685
1093.78	25.209
1095.42	25.3014
1097.05	24.2021
1098.69	23.3541
1100.33	22.7279
1101.97	22.5971
1103.6	20.733
1105.24	20.3538
1106.87	19.0905
1108.51	18.7134
1110.15	18.1113
1111.78	18.7098
1113.41	19.0174
1115.05	19.221
1116.68	20.0336
1118.31	19.8517
1119.95	18.1511
1121.58	16.4349
1123.21	15.6863
1124.85	14.5638
1126.48	13.2531
1128.11	12.4891
1129.74	12.7866
1131.37	11.6345
1133	10.2407
1134.63	9.6249
1136.26	8.62053
1137.89	8.64071
1139.52	8.93058
1141.15	9.32935
1142.78	9.58879
1144.41	9.52324
1146.04	8.69392
1147.66	8.92532
1149.29	8.87907
1150.92	8.93178
1152.55	9.71963
1154.17	9.80935
1155.8	8.34338
1157.43	7.44778
1159.05	6.01967
1160.68	4.27429
1162.3	3.53282
1163.93	3.28814
1165.55	2.74517
1167.17	3.01823
1168.8	3.86975
1170.42	4.72568
1172.05	5.05851
1173.67	5.63364
1175.29	5.11365
1176.91	5.08591
1178.54	4.21881
1180.16	5.03004
1181.78	4.37262
1183.4	4.5007
1185.02	4.52844
1186.64	4.79653
1188.26	5.16285
1189.88	6.4154
1191.5	6.93355
1193.12	8.18238
1194.74	8.81046
1196.36	8.64215
1197.97	8.88501
1199.59	8.91145
1201.21	8.92721
1202.83	10.0164
1204.44	11.6851
1206.06	11.3684
1207.68	13.7268
1209.29	14.4626
1210.91	15.3388
1212.52	16.1599
1214.14	18.452
1215.75	21.6544
1217.37	24.4784
1218.98	26.7049
1220.6	28.2582
1222.21	30.3649
1223.82	32.9616
1225.44	34.7118
1227.05	36.9425
1228.66	39.0843
1230.27	41.4764
1231.88	43.9601
1233.49	44.8742
1235.1	46.6286
1236.72	48.723
1238.33	51.4108
1239.94	54.3403
1241.55	56.827
1243.16	61.1723
1244.76	64.198
1246.37	65.7101
1247.98	67.9051
1249.59	71.228
1251.2	72.6669
1252.8	74.1587
1254.41	76.0284
1256.02	78.5895
1257.63	81.3593
1259.23	83.2791
1260.84	84.8681
1262.44	86.3276
1264.05	87.7897
1265.66	89.831
1267.26	91.2197
1268.87	94.0601
1270.47	96.1232
1272.07	97.9025
1273.68	99.2244
1275.28	100.471
1276.88	101.254
1278.48	102.682
1280.09	103.672
1281.69	104.835
1283.29	106.313
1284.89	108.189
1286.49	108.198
1288.09	109.599
1289.69	109.099
1291.3	110.801
1292.9	112.147
1294.49	112.454
1296.09	112.631
1297.69	113.001
1299.29	113.012
1300.89	113.009
1302.49	113.379
1304.09	113.411
1305.68	112.155
1307.28	111.366
1308.88	111.164
1310.47	111.15
1312.07	110.793
1313.66	110.018
1315.26	110.522
1316.86	108.516
1318.45	107.177
1320.05	106.53
1321.64	105.253
1323.23	104.547
1324.83	102.783
1326.42	101.214
1328.01	100.525
1329.61	98.6816
1331.2	96.708
1332.79	96.5353
1334.38	95.7539
1335.98	94.5965
1337.57	92.9358
1339.16	90.4996
1340.75	88.6108
1342.34	87.8988
1343.93	86.5181
1345.52	85.842
1347.11	83.5366
1348.7	81.814
1350.29	79.8542
1351.87	77.6345
1353.46	74.7974
1355.05	73.3472
1356.64	72.3344
1358.23	70.5578
1359.81	68.1506
1361.4	66.7247
1362.99	64.5328
1364.57	62.4308
1366.16	60.1273
1367.74	58.2795
1369.33	57.1904
1370.91	56.0272
1372.5	54.5786
1374.08	53.2401
1375.67	52.3376
1377.25	51.1945
1378.83	49.8024
1380.42	47.7312
1382	47.5594
1383.58	46.6
1385.16	46.2402
1386.75	46.2593
1388.33	44.9279
1389.91	45.2506
1391.49	45.1046
1393.07	44.1736
1394.65	43.7297
1396.23	42.3265
1397.81	42.329
1399.39	44.0099
1400.97	44.2567
1402.55	45.557
1404.13	46.379
1405.7	48.0663
1407.28	48.1127
1408.86	50.2342
1410.44	53.1858
1412.01	55.6854
1413.59	57.5854
1415.17	59.0257
1416.74	62.1478
1418.32	64.8533
1419.89	68.1413
1421.47	72.2432
1423.05	74.9968
1424.62	77.956
1426.19	81.8062
1427.77	85.4381
1429.34	89.0648
1430.92	92.9748
1432.49	96.1625
1434.06	101.178
1435.63	106.135
1437.2	108.668
1438.78	110.288
1440.35	112.685
1441.92	114.96
1443.49	116.222
1445.06	117.026
1446.63	117.987
1448.2	119.581
1449.77	119.483
1451.34	119.414
1452.91	118.977
1454.48	117.585
1456.05	116.375
1457.62	116.057
1459.18	114.056
1460.75	112.289
1462.32	108.716
1463.89	105.412
1465.45	100.237
1467.02	94.5575
1468.59	91.1694
1470.15	85.9914
1471.72	81.8549
1473.28	77.3336
1474.85	72.7082
1476.41	68.8354
1477.98	65.2009
1479.54	59.7266
1481.11	54.8628
1482.67	50.6284
1484.23	46.9192
1485.8	43.0938
1487.36	40.5421
1488.92	36.3711
1490.48	33.3859
1492.05	31.4173
1493.61	29.1287
1495.17	27.8258
1496.73	26.8413
1498.29	25.0661
1499.85	25.2194
1501.41	23.8639
1502.97	22.9645
1504.53	22.6399
1506.09	22.6042
1507.65	22.4933
1509.2	22.8092
1510.76	23.7251
1512.32	25.91
1513.88	26.4067
1515.44	25.8804
1516.99	25.2835
1518.55	26.3622
1520.1	27.3004
1521.66	27.7461
1523.22	28.9899
1524.77	31.1666
1526.33	31.9251
1527.88	32.9285
1529.44	34.1746
1530.99	34.9837
1532.55	35.1918
1534.1	36.2789
1535.65	38.013
1537.21	38.5215
1538.76	39.9038
1540.31	42.2926
1541.86	44.6563
1543.42	46.162
1544.97	48.8497
1546.52	52.1173
1548.07	55.8496
1549.62	58.3199
1551.17	60.2357
1552.72	62.5955
1554.27	63.991
1555.82	66.4212
1557.37	69.2167
1558.92	71.4865
1560.47	74.2936
1562.02	77.2583
1563.57	79.6836
1565.11	81.6662
1566.66	84.1976
1568.21	86.9407
1569.75	89.6134
1571.3	91.4165
1572.85	93.5528
1574.39	96.445
1575.94	97.3887
1577.49	99.2213
1579.03	99.8361
1580.58	100.794
1582.12	102.681
1583.67	104.222
1585.21	105.245
1586.75	105.764
1588.3	106.935
1589.84	107.295
1591.38	106.219
1592.93	105.585
1594.47	104.73
1596.01	105.275
1597.55	104.387
1599.09	103.537
1600.63	103.172
1602.18	102.304
1603.72	100.593
1605.26	100.02
1606.8	97.874
1608.34	97.3219
1609.87	97.259
1611.41	98.2177
1612.95	98.0873
1614.49	98.566
1616.03	99.2859
1617.57	100.524
1619.11	101.16
1620.64	101.818
1622.18	102.581
1623.72	104.14
1625.25	105.157
1626.79	105.44
1628.32	106.447
1629.86	108.064
1631.4	109.827
1632.93	112.27
1634.47	113.633
1636	114.136
1637.53	116.469
1639.07	118.673
1640.6	119.47
1642.14	121.168
1643.67	122.478
1645.2	124.043
1646.73	126.081
1648.27	127.569
1649.8	128.359
1651.33	129.278
1652.86	128.87
1654.39	128.707
1655.92	128.565
1657.45	127.848
1658.98	126.515
1660.51	125.796
1662.04	124.301
1663.57	122.381
1665.1	121.496
1666.63	119.489
1668.16	117.014
1669.69	114.704
1671.21	111.389
1672.74	108.196
1674.27	104.559
1675.79	101.521
1677.32	98.006
1678.85	93.1664
1680.37	88.6445
1681.9	84.3101
1683.42	79.9691
1684.95	76.4886
1686.47	71.4443
1688	67.4088
1689.52	63.1537
1691.05	59.7845
1692.57	56.0829
1694.1	52.8682
1695.62	49.5882
1697.14	46.1302
1698.66	42.5838
1700.19	39.9337
1701.71	37.6375
1703.23	34.8718
1704.75	32.3916
1706.27	30.1299
1707.79	27.731
1709.32	26.3381
1710.83	24.7251
1712.35	23.5482
1713.88	23.2083
1715.39	21.8063
1716.91	21.2222
1718.43	20.9514
1719.95	20.0031
1721.47	19.661
1722.99	19.002
1724.5	18.5316
1726.02	18.2816
1727.54	17.2011
1729.06	16.3845
1730.57	15.6067
1732.09	15.469
1733.61	14.9094
1735.12	14.3657
1736.64	14.8769
1738.15	14.4257
1739.67	14.5864
1741.18	14.6758
1742.7	13.9384
1744.21	13.5974
1745.72	12.4237
1747.24	11.8512
1748.75	11.9762
1750.26	12.2146
1751.78	11.1418
1753.29	10.1236
1754.8	8.42651
1756.31	7.7131
1757.82	7.0715
1759.34	6.3994
1760.85	4.93018
1762.36	4.49796
1763.87	4.19175
1765.38	3.34528
1766.89	2.53203
1768.4	2.26744
1769.91	1.99193
1771.41	1.6519
1772.92	1.00538
1774.43	1.16665
1775.94	0.780176
1777.45	0.941563
1778.96	0.215782
1780.46	0.943183
1781.97	1.07287
1783.48	1.89531
1784.98	2.77364
1786.49	2.36583
1788	2.99208
1789.5	3.09894
1791.01	2.43701
1792.51	2.96451
1794.01	2.87284
1795.52	3.11206
1797.02	3.78096
1798.53	3.76552
1800.03	3.49943
1801.54	3.41231
1803.04	2.8842
1804.54	3.15107
1806.04	3.7025
1807.54	3.41059
1809.05	3.2878
1810.55	2.82663
1812.05	3.27352
1813.55	3.41044
1815.05	3.84094
1816.55	4.0833
1818.05	3.72689
1819.55	3.6427
1821.05	3.30886
1822.55	3.7219
1824.05	3.81018
1825.55	3.38119
1827.05	3.31137
1828.55	3.1206
1830.04	2.73045
1831.54	2.95602
1833.04	2.99077
1834.54	2.64347
1836.03	2.25454
1837.53	2.10768
1839.03	1.76873
1840.52	1.42517
1842.02	1.75462
1843.51	1.71358
1845.01	2.04358
1846.5	1.99176
1848	1.8049
1849.49	1.90544
1850.99	1.4151
1852.48	1.63081
1853.97	1.35574
1855.47	1.05378
1856.96	1.26136
1858.45	1.04994
1859.94	0.861378
1861.44	0.642018
1862.93	0.569608
1864.42	0.30146
1865.91	0.0889163
1867.4	1.04012
1868.89	1.40199
1870.38	1.65788
1871.87	1.2942
1873.36	0.293194
1874.85	0.322081
1876.34	0.888152
1877.83	1.09636
1879.32	1.5846
1880.81	2.3447
1882.3	1.77346
1882.56	2.52993
1884.06	2.98342
1885.55	3.65273
1887.04	3.69793
1888.54	3.76486
1890.03	3.72767
1891.52	3.96067
1893.02	3.69906
1894.51	3.99392
1896	4.76868
1897.49	4.77023
1898.99	5.06668
1900.48	5.77274
1901.97	6.0201
1903.46	5.91545
1904.95	6.62469
1906.44	6.70364
1907.93	6.50914
1909.42	6.39096
1910.91	6.80824
1912.4	7.15428
1913.89	7.17095
1915.38	7.21905
1916.86	6.39114
1918.35	6.82669
1919.84	6.39402
1921.33	5.66265
1922.82	5.50211
1924.3	5.25855
1925.79	5.29938
1927.28	4.53513
1928.76	4.31991
1930.25	4.44821
1931.74	4.1673
1933.22	3.84597
1934.71	3.45405
1936.19	2.80912
1937.67	2.88357
1939.16	2.64527
1940.64	2.76926
1942.13	2.24672
1943.61	1.93524
1945.09	2.24797
1946.58	1.80391
1948.06	2.74355
1949.54	2.44131
1951.03	3.01528
1952.51	2.80268
1953.99	1.9155
1955.47	1.68003
1956.95	2.07621
1958.43	1.33541
1959.91	1.266
1961.39	1.23418
1962.87	1.25675
1964.35	1.60698
1965.83	2.43232
1967.31	2.12485
1968.79	3.30581
1970.27	3.70948
1971.75	3.40191
1973.22	4.10089
1974.7	3.74652
1976.18	4.60801
1977.66	4.37394
1979.13	4.67091
1980.61	4.48737
1982.09	3.83224
1983.56	3.87755
1985.04	3.74342
1986.52	3.43879
1987.99	2.97609
1989.47	3.09551
1990.94	3.94911
1992.41	4.65805
1993.89	4.26253
1995.36	4.27495
1996.84	4.07457
1998.31	4.29597
1999.78	3.9534
2001.26	3.66523
2002.73	3.72382
2004.2	4.06826
2005.67	4.15924
2007.15	3.81762
2008.62	3.84254
2010.09	4.34365
2011.56	4.69222
2013.03	4.6054
2014.5	4.84775
2015.97	4.71559
2017.44	5.68526
2018.91	6.03436
2020.38	5.75861
2021.85	6.39749
2023.32	6.17007
2024.79	6.7183
2026.25	6.80895
2027.72	8.34949
2029.19	10.2496
2030.66	11.1051
2032.13	11.2719
2033.59	11.8791
2035.06	13.0014
2036.53	13.9332
2037.99	14.7256
2039.46	15.4017
2040.92	15.513
2042.39	16.4014
2043.85	16.4601
2045.32	16.5325
2046.78	17.0152
2048.25	16.3581
2049.71	17.1983
2051.18	17.2356
2052.64	17.185
2054.1	16.9941
2055.56	17.2367
2057.03	18.4752
2058.49	19.1614
2059.95	20.2738
2061.42	21.423
2062.88	23.1225
2064.34	24.2606
2065.8	25.0152
2067.26	26.5297
2068.72	26.9641
2070.18	27.4207
2071.64	29.2624
2073.1	30.4964
2074.56	31.3057
2076.02	32.7632
2077.48	34.3935
2078.94	35.3429
2080.39	37.0442
2081.85	38.1213
2083.31	39.5662
2084.77	40.7885
2086.22	42.0268
2087.68	44.0133
2089.14	45.3575
2090.6	47.4577
2092.05	48.2328
2093.51	50.368
2094.96	52.8278
2096.42	55.0157
2097.87	57.4281
2099.33	60.7602
2100.78	63.8452
2102.24	66.1245
2103.69	67.6769
2105.15	70.1418
2106.6	72.204
2108.05	75.1534
2109.51	76.7271
2110.96	79.135
2112.41	82.0732
2113.86	84.9792
2115.32	87.9691
2116.77	90.6637
2118.22	92.8992
2119.67	96.4929
2121.12	99.1653
2122.57	102.671
2124.02	106.427
2125.47	108.918
2126.92	112.677
2128.37	116.217
2129.82	120.386
2131.27	123.841
2132.72	127.571
2134.17	131.435
2135.62	134.873
2137.06	137.862
