#Acq. time (s)=	45
#Accumulations=	2
#Range (cm-¹)=	200...3150
#Windows=	2
#Auto scanning=	Off
#Autofocus=	Off
#Macrospot=	Off
#AutoExposure=	Off
#Spike filter=	Multiple accum.
#Delay time (s)=	0
#Binning=	1
#Readout mode=	Signal
#DeNoise=	Off
#ICS correction=	On
#Dark correction=	Off
#Inst. Process=	Off
#Detector Gain=	Best Dynamic Range
#Detector ADC=	20 kHz       
#Detector temperature (°C)=	-69.85
#Instrument=	LabRAM HR Evol
#Detector=	Synapse
#Objective=	x100
#Grating=	600 gr/mm
#ND Filter=	100%
#Laser (nm)=	532 
#Hole=	100.021
#Range=	Auto
#Laser Pol.=	No
#Raman. Pol.=	No
#Laser Pol. (°)=	-0.0007625
#Raman Pol. (°)=	89.9995
#Collection=	Microscope
#StageXY=	Marzhauser
#StageZ=	Marzhauser
#X (µm)=	-5923.2
#Y (µm)=	2872.6
#Z (µm)=	-223.35
#Full time(mm:ss)=	3:18
#Project=	
#Sample=	
#Site=	
#Title=	Thy_20_09_35_2x_45s_532 nm_x100_100%_600 gr_mm
#Remark=	
#Date=	29.06.2022 13:06
#Acquired=	29.06.2022 13:06:09
#Base:Fit=	10.08.2022 09:52:02
#Base:Fit=	10.08.2022 09:52:12
#Base:Sub=	10.08.2022 09:54:21
#Filter:Polynom=	16.08.2022 10:24:04
#AxisType[0]=Intens
#AxisUnit[0]=Cnt
#AxisType[1]=Spectr
#AxisUnit[1]=1/cm
200.523	4.03877
202.339	5.60706
204.154	5.68765
205.967	4.8368
207.781	3.72397
209.596	2.98781
211.409	2.48935
213.222	2.44882
215.034	1.86765
216.848	1.71795
218.659	2.85469
220.47	2.93776
222.281	2.6818
224.091	2.74845
225.903	3.44358
227.713	4.76077
229.522	4.99822
231.331	4.21111
233.14	4.35635
234.948	4.58762
236.756	4.42935
238.566	5.23806
240.373	5.21536
242.18	4.65728
243.986	4.84077
245.792	4.46851
247.598	4.75429
249.403	5.09603
251.208	4.91279
253.013	4.73248
254.818	4.75905
256.624	3.4793
258.427	2.75556
260.231	2.99304
262.034	3.43487
263.836	3.4845
265.638	4.19098
267.44	3.78768
269.242	3.90969
271.043	4.35372
272.844	4.29781
274.645	4.12151
276.445	3.82624
278.245	4.46358
280.044	4.07312
281.843	5.64885
283.642	4.95421
285.44	4.47166
287.238	4.80073
289.036	4.50828
290.833	4.73425
292.63	4.82658
294.425	5.96694
296.221	7.50894
298.017	9.02216
299.813	10.0353
301.608	10.9018
303.403	12.0372
305.198	13.0386
306.992	14.7006
308.786	16.6736
310.579	17.3601
312.371	17.7674
314.163	18.0395
315.956	18.6021
317.748	19.6376
319.54	19.6317
321.331	20.4562
323.122	21.612
324.911	21.603
326.701	21.2677
328.491	22.154
330.281	21.9928
332.071	22.455
333.857	22.4025
335.646	23.4715
337.434	24.1624
339.222	23.6172
341.008	23.9334
342.795	24.6802
344.582	24.4295
346.369	23.8689
348.153	24.2325
349.939	23.9331
351.724	23.7041
353.51	22.7777
355.292	22.3361
357.077	21.9438
358.861	21.44
360.643	21.202
362.426	19.9682
364.21	19.2864
365.99	18.8274
367.773	18.6682
369.555	17.6614
371.335	17.0236
373.116	15.798
374.897	15.2405
376.676	15.6335
378.456	15.1375
380.236	15.2427
382.014	15.0078
383.793	15.3221
385.57	15.9242
387.349	15.2323
389.127	15.175
390.903	15.5814
392.681	14.6107
394.456	14.3555
396.233	13.6879
398.007	14.0443
399.784	12.7988
401.56	11.8124
403.333	12.3989
405.108	13.0268
406.881	12.988
408.656	12.3403
410.428	12.6181
412.202	12.0288
413.973	12.7793
415.746	13.5764
417.517	14.7789
419.29	15.7982
421.06	16.5919
422.831	17.0362
424.601	18.4164
426.37	17.5496
428.141	17.3088
429.909	18.1948
431.679	17.9481
433.447	17.1786
435.216	17.2388
436.983	17.0426
438.75	16.3783
440.519	16.5013
442.285	15.723
444.052	15.5436
445.818	14.5122
447.583	13.897
449.349	14.1208
451.114	13.5525
452.878	13.261
454.643	13.5783
456.407	14.2937
458.169	15.0815
459.934	15.4416
461.696	16.2643
463.458	16.7209
465.222	17.842
466.983	18.288
468.744	18.9311
470.507	19.2572
472.267	19.345
474.027	19.0036
475.787	18.4521
477.548	19.9869
479.307	19.9399
481.065	20.0741
482.823	22.0859
484.583	22.9696
486.341	24.4146
488.098	24.8725
489.855	25.9054
491.612	26.6683
493.37	27.2101
495.126	28.4997
496.881	28.5927
498.636	30.1753
500.391	30.7293
502.148	31.4438
503.902	31.6404
505.656	32.2798
507.409	32.8122
509.162	32.0565
510.915	31.5896
512.668	31.154
514.42	30.5772
516.174	30.6315
517.925	30.523
519.676	30.0511
521.427	28.1235
523.178	27.8821
524.928	26.7156
526.678	25.8811
528.427	25.0128
530.176	23.9557
531.925	23.4095
533.673	22.9886
535.422	23.3196
537.169	23.4548
538.917	22.3922
540.664	21.9119
542.411	22.2577
544.157	21.2234
545.903	20.3481
547.649	18.4864
549.395	17.5997
551.14	15.9987
552.884	14.5886
554.629	13.9666
556.373	13.0519
558.117	12.6133
559.86	11.5586
561.603	12.0605
563.346	11.606
565.089	11.5856
566.831	11.0023
568.573	11.2508
570.314	11.2541
572.053	9.88707
573.794	9.06823
575.534	7.60253
577.274	7.16073
579.014	6.52779
580.754	5.91257
582.493	5.41173
584.23	3.66284
585.968	4.38514
587.706	3.48212
589.444	2.98482
591.181	2.97957
592.919	2.60769
594.653	2.82404
596.39	2.8883
598.126	3.20068
599.862	3.34854
601.595	3.93979
603.33	4.75661
605.065	5.64581
606.8	5.90958
608.532	6.73872
610.266	7.94385
611.999	7.87481
613.732	9.29424
615.463	10.3365
617.196	12.0088
618.928	12.3951
620.66	13.3263
622.389	12.9749
624.12	13.8114
625.851	14.2256
627.58	15.6812
629.31	16.9103
631.04	17.9895
632.767	18.6924
634.497	19.2079
636.223	20.584
637.952	21.8536
639.68	23.222
641.406	23.74
643.134	23.8292
644.861	24.4817
646.586	23.7165
648.312	24.4063
650.037	23.6331
651.762	24.473
653.486	23.6737
655.211	23.5893
656.936	22.9762
658.659	21.6408
660.383	21.1774
662.105	20.6149
663.829	20.6617
665.55	19.7127
667.273	19.8556
668.994	20.1672
670.716	19.2509
672.436	18.8004
674.158	18.2856
675.877	17.8971
677.598	17.8557
679.317	18.1439
681.035	18.2806
682.755	18.6463
684.473	17.9734
686.192	17.7161
687.909	18.0363
689.628	18.5652
691.344	17.9703
693.06	18.7446
694.778	19.0486
696.493	18.866
698.211	18.9662
699.925	20.0516
701.64	20.4394
703.356	20.6819
705.07	21.7493
706.783	22.2699
708.498	23.1896
710.211	25.9468
711.924	27.6909
713.638	29.542
715.35	30.6394
717.061	31.26
718.774	32.3445
720.485	34.0881
722.196	34.3934
723.906	35.0366
725.618	34.8339
727.328	35.8178
729.037	37.159
730.746	37.7174
732.456	39.0808
734.165	40.6522
735.873	41.0278
737.58	41.7646
739.289	42.3135
740.997	43.9397
742.703	43.2098
744.41	43.3383
746.116	44.8203
747.823	45.6387
749.529	46.2411
751.234	47.5955
752.938	48.3096
754.643	49.5149
756.347	49.8881
758.051	50.9049
759.756	52.1069
761.459	53.8027
763.162	55.6812
764.865	56.8407
766.567	57.7999
768.269	58.0029
769.97	57.7375
771.671	58.6251
773.372	58.487
775.073	57.7765
776.773	58.1449
778.473	59.4134
780.174	58.9272
781.874	59.0211
783.573	59.1298
785.271	59.8558
786.97	60.5378
788.668	61.8331
790.365	62.2771
792.063	62.3742
793.76	63.5458
795.456	64.212
797.153	63.9524
798.847	64.3615
800.543	63.7704
802.238	63.9125
803.933	64.2477
805.628	63.2553
807.322	62.2515
809.017	62.8449
810.71	63.5838
812.404	64.9653
814.097	65.246
815.79	65.3135
817.483	66.1236
819.173	66.0585
820.865	65.4085
822.556	66.0608
824.248	65.8998
825.939	64.9723
827.629	65.1572
829.318	64.7342
831.008	64.2647
832.697	63.5725
834.387	62.5506
836.076	63.0508
837.765	62.8623
839.451	63.2638
841.139	62.2367
842.827	61.731
844.514	60.1214
846.2	60.1166
847.886	59.269
849.573	57.4321
851.259	55.9835
852.943	54.265
854.629	53.1522
856.314	51.7529
857.997	50.0463
859.682	49.9774
861.366	50.0771
863.05	48.6751
864.732	47.7932
866.415	46.1341
868.098	46.4483
869.779	45.8822
871.461	45.0189
873.141	43.4195
874.823	41.9582
876.505	41.4787
878.184	40.232
879.865	39.1072
881.545	38.108
883.223	38.0764
884.903	37.091
886.581	37.3781
888.26	36.8107
889.937	36.7705
891.616	36.513
893.294	36.5602
894.97	36.385
896.648	36.4801
898.323	36.8208
900	36.4018
901.675	36.6018
903.351	36.9642
905.026	36.3722
906.701	35.6846
908.375	35.4061
910.05	34.2409
911.723	34.111
913.398	33.064
915.07	33.6013
916.742	33.6111
918.415	32.4615
920.087	32.0549
921.76	31.2385
923.43	30.7893
925.103	30.1754
926.773	30.4485
928.443	29.4491
930.114	30.5088
931.783	30.2666
933.454	30.2853
935.123	31.5205
936.791	31.646
938.461	31.4836
940.128	31.2929
941.796	31.2765
943.464	30.647
945.131	29.0524
946.797	28.4006
948.465	27.9052
950.131	27.6229
951.797	28.1491
953.462	27.4978
955.128	26.5125
956.793	25.5211
958.457	25.3223
960.121	23.917
961.786	23.5037
963.45	23.3838
965.113	23.9035
966.775	24.0607
968.44	24.1991
970.102	24.3791
971.763	24.9828
973.425	25.1833
975.086	25.919
976.748	26.1005
978.409	26.8677
980.069	27.8892
981.729	28.9311
983.388	29.0897
985.048	29.798
986.708	30.1773
988.367	28.9575
990.025	28.6606
991.683	29.0169
993.341	28.1712
994.998	27.9345
996.655	28.345
998.312	27.3457
999.969	26.754
1001.62	26.1273
1003.28	25.9663
1004.94	26.1516
1006.59	26.0294
1008.25	25.6073
1009.9	26.5576
1011.56	25.279
1013.21	26.8477
1014.86	26.7922
1016.52	26.3254
1018.17	25.0859
1019.82	23.1634
1021.48	22.1171
1023.13	20.9549
1024.78	20.1329
1026.43	18.983
1028.08	18.1565
1029.73	17.9854
1031.38	17.4143
1033.03	17.1195
1034.68	16.2974
1036.33	15.5066
1037.98	14.2562
1039.63	13.0734
1041.28	12.3616
1042.93	12.0036
1044.57	13.1093
1046.22	13.2708
1047.87	13.2954
1049.52	13.0807
1051.16	13.2571
1052.81	12.8514
1054.45	13.7929
1056.1	12.9892
1057.75	12.4281
1059.39	11.9886
1061.04	13.181
1062.68	13.0722
1064.32	12.4213
1065.97	12.6459
1067.61	11.9823
1069.25	12.5751
1070.9	12.5769
1072.54	12.5715
1074.18	11.8451
1075.82	11.4233
1077.47	11.8201
1079.11	13.0724
1080.75	12.3757
1082.39	12.6196
1084.03	11.8505
1085.67	12.2338
1087.31	12.7845
1088.95	12.842
1090.59	13.6815
1092.22	14.1465
1093.86	14.6247
1095.5	15.4499
1097.14	15.5248
1098.78	15.5943
1100.41	15.6969
1102.05	16.7046
1103.69	16.2555
1105.32	16.3779
1106.96	16.5277
1108.59	16.3193
1110.23	16.1356
1111.86	15.6166
1113.5	15.0471
1115.13	14.8423
1116.77	14.4138
1118.4	14.1934
1120.03	13.8395
1121.67	12.7858
1123.3	12.3214
1124.93	12.1689
1126.56	11.5833
1128.19	11.4583
1129.83	10.2628
1131.46	10.0415
1133.09	9.65719
1134.72	9.09907
1136.35	8.79791
1137.98	7.49885
1139.61	6.91052
1141.24	7.04738
1142.86	6.83117
1144.49	6.43314
1146.12	6.11713
1147.75	5.95231
1149.38	4.86851
1151	4.64898
1152.63	3.11637
1154.26	2.00103
1155.88	1.73658
1157.51	2.43102
1159.14	2.78187
1160.76	1.86917
1162.39	0.381048
1164.01	0.518109
1165.63	1.02154
1167.26	2.27994
1168.88	2.6425
1170.51	3.57142
1172.13	4.6233
1173.75	6.2187
1175.38	7.61776
1177	7.42499
1178.62	8.33225
1180.24	8.43146
1181.86	9.12704
1183.48	10.2979
1185.1	10.1134
1186.72	10.65
1188.34	9.93814
1189.96	10.2129
1191.58	10.8335
1193.2	11.4158
1194.82	12.7023
1196.44	13.0135
1198.06	13.6939
1199.68	14.6204
1201.29	15.0706
1202.91	16.1154
1204.53	16.3005
1206.14	17.2239
1207.76	18.4946
1209.38	20.04
1210.99	21.0366
1212.61	23.6353
1214.22	25.106
1215.84	26.9126
1217.45	28.039
1219.07	29.7398
1220.68	31.7999
1222.29	34.0969
1223.91	36.1623
1225.52	37.5824
1227.13	37.9707
1228.74	39.2743
1230.36	41.7237
1231.97	43.7209
1233.58	46.4429
1235.19	48.3065
1236.8	50.0672
1238.41	51.4705
1240.02	51.6948
1241.63	53.2624
1243.24	54.454
1244.85	56.3481
1246.46	57.392
1248.07	58.1875
1249.67	59.3285
1251.28	60.0028
1252.89	60.9091
1254.5	61.7363
1256.1	61.6649
1257.71	62.7644
1259.32	63.48
1260.92	64.3856
1262.53	65.5287
1264.13	65.6442
1265.74	65.676
1267.34	65.8831
1268.95	66.1227
1270.55	67.8381
1272.15	68.0665
1273.76	68.8028
1275.36	69.4022
1276.97	69.5118
1278.57	70.0865
1280.17	70.3216
1281.77	70.7911
1283.37	71.7975
1284.97	72.033
1286.58	74.4391
1288.18	76.1307
1289.78	76.9852
1291.38	77.9907
1292.98	79.4154
1294.58	79.1732
1296.18	80.2763
1297.78	80.7167
1299.37	81.615
1300.97	82.9445
1302.57	84.1663
1304.17	85.0916
1305.77	86.3212
1307.36	87.6763
1308.96	89.0093
1310.55	90.0774
1312.15	91.6817
1313.75	91.7159
1315.34	92.3925
1316.94	92.3387
1318.53	90.9705
1320.13	90.2806
1321.72	90.326
1323.32	89.2944
1324.91	88.7653
1326.5	88.4936
1328.1	88.0837
1329.69	88.443
1331.28	87.2123
1332.87	87.3825
1334.47	86.5692
1336.06	86.8259
1337.65	86.5914
1339.24	85.3646
1340.83	84.5667
1342.42	83.1573
1344.01	81.3544
1345.6	80.1413
1347.19	78.8824
1348.78	77.1357
1350.37	76.0386
1351.96	74.4029
1353.54	73.8133
1355.13	72.3947
1356.72	70.2252
1358.31	68.7696
1359.89	68.064
1361.48	66.5598
1363.07	65.8447
1364.65	65.2228
1366.24	64.5885
1367.82	63.3351
1369.41	61.9377
1370.99	60.8159
1372.58	60.579
1374.16	59.1605
1375.75	59.7503
1377.33	58.8435
1378.91	58.9262
1380.5	58.6863
1382.08	58.5347
1383.66	58.8224
1385.25	58.5353
1386.83	57.2749
1388.41	56.8159
1389.99	56.9306
1391.57	56.6182
1393.15	55.1451
1394.73	55.3995
1396.31	52.8931
1397.89	51.3418
1399.47	51.4631
1401.05	51.2434
1402.63	51.3822
1404.21	51.9844
1405.78	52.0234
1407.36	52.1103
1408.94	52.2246
1410.52	52.1963
1412.1	53.2663
1413.67	53.7746
1415.25	55.2935
1416.82	55.6604
1418.4	57.1417
1419.98	58.1906
1421.55	60.0441
1423.13	61.8446
1424.7	63.5617
1426.28	65.5656
1427.85	67.3655
1429.42	69.989
1431	72.5157
1432.57	75.2287
1434.14	77.6926
1435.71	79.7337
1437.29	82.9789
1438.86	84.3498
1440.43	85.7444
1442	88.1352
1443.57	88.9263
1445.14	89.0226
1446.71	89.0811
1448.28	89.2768
1449.85	89.5449
1451.42	90.4762
1452.99	89.424
1454.56	88.5763
1456.13	87.2661
1457.7	86.4976
1459.26	84.7565
1460.83	82.8338
1462.4	81.0691
1463.97	78.6518
1465.54	75.7864
1467.1	74.2522
1468.67	71.1637
1470.23	67.8917
1471.8	64.7563
1473.36	61.0582
1474.93	57.1421
1476.49	54.0697
1478.06	50.9891
1479.62	47.4333
1481.19	44.0566
1482.75	41.1574
1484.31	38.1183
1485.88	35.6316
1487.44	33.1979
1489	31.3738
1490.56	28.969
1492.13	27.504
1493.69	26.6985
1495.25	25.8257
1496.81	25.2926
1498.37	23.9598
1499.93	23.464
1501.49	22.6349
1503.05	22.6284
1504.61	22.5808
1506.17	23.2477
1507.73	23.9959
1509.28	24.8926
1510.84	25.7872
1512.4	25.5457
1513.96	25.5609
1515.52	26.3142
1517.07	25.7058
1518.63	27.302
1520.19	27.9944
1521.74	29.0962
1523.3	29.7715
1524.85	31.0989
1526.41	32.8534
1527.96	34.5019
1529.52	35.1183
1531.07	35.8682
1532.63	37.2735
1534.18	39.0379
1535.73	40.7648
1537.29	42.6973
1538.84	44.3734
1540.39	46.3053
1541.94	47.396
1543.5	48.8599
1545.05	50.764
1546.6	51.7964
1548.15	52.6493
1549.7	53.6151
1551.25	54.7281
1552.8	56.1911
1554.35	57.5911
1555.9	59.0485
1557.45	60.7872
1559	63.0441
1560.55	65.376
1562.1	66.7344
1563.65	67.7273
1565.19	69.5116
1566.74	70.7075
1568.29	72.2637
1569.83	74.8279
1571.38	76.516
1572.93	77.6185
1574.47	78.2289
1576.02	79.2128
1577.56	80.3441
1579.11	80.9458
1580.66	82.2759
1582.2	83.1164
1583.74	84.8756
1585.29	85.6938
1586.83	86.8248
1588.38	86.6344
1589.92	87.0412
1591.46	87.831
1593.01	88.6754
1594.55	89.6424
1596.09	89.7024
1597.63	89.0496
1599.17	89.325
1600.71	88.4989
1602.25	88.7358
1603.79	88.9451
1605.34	87.9097
1606.88	86.6274
1608.41	86.5059
1609.95	85.9917
1611.49	85.6902
1613.03	85.2467
1614.57	84.2656
1616.11	82.6941
1617.65	82.2694
1619.18	81.591
1620.72	81.8769
1622.26	81.4388
1623.79	80.8131
1625.33	80.8278
1626.87	81.5057
1628.4	82.151
1629.94	82.0575
1631.48	82.5628
1633.01	82.5788
1634.55	82.6494
1636.08	83.0267
1637.61	82.4977
1639.15	82.4173
1640.68	83.3838
1642.21	84.4003
1643.75	85.1253
1645.28	85.6351
1646.81	86.5617
1648.34	86.9772
1649.88	87.0215
1651.41	87.3334
1652.94	87.4099
1654.47	87.3653
1656	87.17
1657.53	88.1388
1659.06	88.2125
1660.59	88.4525
1662.12	87.8914
1663.65	87.2979
1665.18	86.2639
1666.71	85.8842
1668.24	84.87
1669.76	84.1016
1671.29	82.1765
1672.82	79.5476
1674.35	78.2586
1675.87	76.4108
1677.4	73.7278
1678.93	71.4618
1680.45	68.4367
1681.98	65.0825
1683.5	62.8203
1685.03	59.5913
1686.55	56.3265
1688.08	53.3018
1689.6	50.2268
1691.13	47.4763
1692.65	45.5276
1694.17	43.2629
1695.7	39.9632
1697.22	38.5492
1698.74	36.2249
1700.27	33.7432
1701.79	31.5332
1703.31	29.9697
1704.83	27.5544
1706.35	25.1694
1707.87	23.5592
1709.39	21.2144
1710.91	19.6652
1712.43	18.5055
1713.95	17.6313
1715.47	17.1468
1716.99	16.5279
1718.51	15.4577
1720.03	14.1781
1721.55	13.1047
1723.07	13.0988
1724.58	12.5148
1726.1	11.2254
1727.62	11.1819
1729.13	11.158
1730.65	10.7693
1732.17	10.9277
1733.68	11.5377
1735.2	11.2917
1736.72	11.0087
1738.23	10.2521
1739.74	10.2613
1741.26	9.96954
1742.77	9.59563
1744.29	9.45709
1745.8	8.9079
1747.32	8.05998
1748.83	8.11464
1750.34	8.13748
1751.85	7.81432
1753.37	7.24323
1754.88	6.21698
1756.39	5.50767
1757.9	5.10489
1759.41	4.4323
1760.92	3.4634
1762.44	3.14637
1763.95	3.2976
1765.46	2.75851
1766.96	2.78505
1768.47	2.81612
1769.98	2.46436
1771.49	2.47092
1773	2.72692
1774.51	1.84513
1776.02	1.58875
1777.53	1.54402
1779.03	1.79643
1780.54	1.19468
1782.05	0.972342
1783.55	0.870345
1785.06	0.197489
1786.57	1.01316
1788.07	1.11553
1789.58	0.956808
1791.08	0.741178
1792.59	0.984264
1794.09	1.01104
1795.6	1.10784
1797.1	1.64699
1798.61	1.83009
1800.11	1.84783
1801.61	2.04683
1803.12	2.30127
1804.62	2.82285
1806.12	2.44675
1807.62	3.08068
1809.12	3.26528
1810.63	2.9482
1812.13	2.95512
1813.63	3.24479
1815.13	3.72415
1816.63	3.29473
1818.13	3.32548
1819.63	3.05553
1821.13	3.06201
1822.63	3.53234
1824.13	3.65142
1825.63	3.38539
1827.13	3.3055
1828.62	2.65194
1830.12	2.25774
1831.62	2.34768
1833.12	2.06079
1834.61	2.11004
1836.11	2.42722
1837.61	2.54665
1839.1	3.10028
1840.6	2.95743
1842.09	3.39714
1843.59	3.37543
1845.09	3.5943
1846.58	3.68047
1848.08	3.99183
1849.57	4.05734
1851.06	4.54177
1852.56	4.84448
1854.05	5.1066
1855.54	4.95235
1857.04	4.79315
1858.53	4.79847
1860.02	5.04679
1861.51	5.30514
1863.01	4.55816
1864.5	4.87683
1865.99	4.89605
1867.48	5.36838
1868.97	5.29722
1870.46	5.33815
1871.95	5.18563
1873.44	5.4602
1874.93	5.35912
1876.42	5.41703
1877.91	5.30266
1879.4	5.67019
1880.89	5.33981
1882.37	5.61628
1882.46	5.42107
1883.95	5.37307
1885.45	5.99016
1886.94	6.09365
1888.43	5.14724
1889.93	5.03822
1891.42	5.04263
1892.91	4.9394
1894.41	5.79832
1895.9	5.84267
1897.39	5.91876
1898.88	6.23099
1900.37	6.20747
1901.86	5.90134
1903.36	6.23565
1904.85	6.80295
1906.34	6.97888
1907.83	7.27598
1909.32	6.99512
1910.81	7.15572
1912.29	6.74884
1913.78	6.88839
1915.27	7.42909
1916.76	7.36037
1918.25	7.38248
1919.74	7.0701
1921.23	6.91974
1922.71	6.15966
1924.2	6.22684
1925.69	5.8003
1927.17	5.54467
1928.66	4.67661
1930.15	4.67755
1931.63	4.45405
1933.12	4.34867
1934.6	3.24125
1936.09	3.30026
1937.57	3.14087
1939.06	2.60578
1940.54	2.51328
1942.02	1.71956
1943.51	1.1839
1944.99	1.23268
1946.47	1.6167
1947.96	1.61584
1949.44	1.65274
1950.92	1.82232
1952.4	1.72331
1953.88	2.31211
1955.37	2.31025
1956.85	2.77457
1958.33	2.99278
1959.81	2.84117
1961.29	2.49436
1962.77	2.01096
1964.25	2.45413
1965.73	2.50388
1967.21	2.54928
1968.69	3.02232
1970.16	2.78873
1971.64	3.46957
1973.12	3.40239
1974.6	3.59977
1976.08	4.08083
1977.55	4.36159
1979.03	4.48597
1980.51	4.28018
1981.98	4.66155
1983.46	4.2126
1984.94	4.46094
1986.41	4.36228
1987.89	4.61289
1989.36	4.26392
1990.84	3.63382
1992.31	3.50167
1993.79	3.46229
1995.26	3.99059
1996.73	4.18102
1998.21	4.84326
1999.68	4.80929
2001.15	4.97445
2002.63	5.31226
2004.1	6.17951
2005.57	6.34303
2007.04	6.51928
2008.51	6.45372
2009.99	7.36451
2011.46	7.17472
2012.93	7.44642
2014.4	8.01645
2015.87	8.59952
2017.34	8.74119
2018.81	9.40581
2020.28	9.4462
2021.75	9.49977
2023.21	9.45727
2024.68	9.95431
2026.15	10.3986
2027.62	10.7412
2029.09	10.3176
2030.56	10.3884
2032.02	9.86013
2033.49	9.38022
2034.96	9.62523
2036.42	9.6314
2037.89	9.97724
2039.36	9.67449
2040.82	9.36988
2042.29	9.20608
2043.75	9.09471
2045.22	9.23408
2046.68	8.92435
2048.14	9.12025
2049.61	8.93511
2051.07	8.70801
2052.54	8.53978
2054	8.09371
2055.46	7.73263
2056.93	7.33598
2058.39	7.99575
2059.85	7.9135
2061.31	7.85918
2062.77	7.37472
2064.23	7.95612
2065.7	8.65409
2067.16	9.43035
2068.62	10.2449
2070.08	10.7685
2071.54	11.2218
2073	11.6877
2074.46	11.6931
2075.92	12.3059
2077.38	12.5202
2078.83	12.6994
2080.29	12.9409
2081.75	13.1507
2083.21	13.57
2084.67	13.8979
2086.12	14.579
2087.58	15.2807
2089.04	15.3269
2090.49	15.2038
2091.95	16.3801
2093.41	16.4981
2094.86	16.4171
2096.32	16.5211
2097.77	17.5403
2099.23	18.2197
2100.68	17.9594
2102.14	18.0532
2103.59	18.2129
2105.05	18.8736
2106.5	19.159
2107.95	19.7686
2109.41	19.9155
2110.86	19.7511
2112.31	19.6327
2113.76	20.1312
2115.21	20.3088
2116.67	20.5995
2118.12	20.9911
2119.57	21.2206
2121.02	22.0769
2122.47	22.8619
2123.92	23.5728
2125.37	23.9322
2126.82	24.4727
2128.27	25.2209
2129.72	25.7422
2131.17	26.3439
2132.62	26.4196
