#Acq. time (s)=	45
#Accumulations=	2
#Range (cm-¹)=	200...3150
#Windows=	2
#Auto scanning=	Off
#Autofocus=	Off
#Macrospot=	Off
#AutoExposure=	Off
#Spike filter=	Multiple accum.
#Delay time (s)=	0
#Binning=	1
#Readout mode=	Signal
#DeNoise=	Off
#ICS correction=	On
#Dark correction=	Off
#Inst. Process=	Off
#Detector Gain=	Best Dynamic Range
#Detector ADC=	20 kHz       
#Detector temperature (°C)=	-69.85
#Instrument=	LabRAM HR Evol
#Detector=	Synapse
#Objective=	x100
#Grating=	600 gr/mm
#ND Filter=	100%
#Laser (nm)=	532 
#Hole=	100.021
#Range=	Auto
#Laser Pol.=	No
#Raman. Pol.=	No
#Laser Pol. (°)=	-0.0007625
#Raman Pol. (°)=	89.9995
#Collection=	Microscope
#StageXY=	Marzhauser
#StageZ=	Marzhauser
#X (µm)=	4750.3
#Y (µm)=	-7729.3
#Z (µm)=	584.45
#Full time(mm:ss)=	3:18
#Project=	
#Sample=	
#Site=	
#Title=	Thy_30_10_13_2x_45s_532 nm_x100_100%_600 gr_mm
#Remark=	
#Date=	30.06.2022 12:15
#Acquired=	30.06.2022 12:15:35
#Base:Fit=	10.08.2022 09:58:11
#Base:Sub=	10.08.2022 09:58:44
#Filter:Polynom=	16.08.2022 10:22:53
#AxisType[0]=Intens
#AxisUnit[0]=Cnt
#AxisType[1]=Spectr
#AxisUnit[1]=1/cm
200.533	1.29039
202.348	5.07768
204.162	8.41828
205.976	10.9401
207.792	13.1498
209.605	14.7231
211.418	16.4929
213.23	17.5279
215.044	18.704
216.856	19.4509
218.667	20.1718
220.478	20.4057
222.289	21.7713
224.102	23.7349
225.912	23.6695
227.721	24.7958
229.531	25.0848
231.34	25.76
233.148	26.4472
234.956	28.3324
236.766	28.9938
238.574	29.6904
240.381	30.6531
242.188	30.7896
243.994	31.5104
245.801	31.1249
247.606	29.8151
249.412	28.6259
251.217	27.2205
253.024	27.1292
254.828	26.7814
256.632	25.8134
258.436	26.1063
260.239	26.3525
262.042	26.9713
263.845	27.7274
265.647	27.5154
267.449	28.1923
269.25	28.5728
271.052	27.9028
272.852	27.9701
274.653	27.6931
276.453	27.8862
278.253	27.6141
280.052	27.619
281.852	27.1259
283.65	25.732
285.449	25.7396
287.247	26.4333
289.044	26.1089
290.842	26.2929
292.639	26.4006
294.436	25.853
296.232	25.1995
298.028	24.6231
299.821	25.1192
301.617	24.5281
303.412	23.378
305.206	22.1325
307	22.0296
308.794	22.5657
310.588	22.8701
312.381	23.5784
314.172	23.7556
315.964	22.4326
317.756	23.2012
319.548	22.6559
321.34	23.5075
323.131	24.0266
324.921	24.0246
326.71	23.5095
328.5	22.9302
330.29	22.4148
332.079	21.1183
333.868	20.512
335.654	19.061
337.443	18.3342
339.231	17.906
341.018	17.2628
342.804	16.1322
344.591	15.7139
346.377	15.207
348.163	15.8528
349.947	15.2444
351.733	14.8447
353.518	14.8582
355.303	14.5023
357.085	14.0197
358.869	13.5146
360.653	13.103
362.435	13.262
364.218	13.3234
366.001	12.7557
367.781	12.5979
369.563	12.8463
371.345	12.6646
373.124	13.1336
374.905	13.7296
376.686	13.7186
378.464	13.8057
380.244	14.0639
382.022	13.2462
383.801	13.0382
385.58	12.6939
387.357	12.0812
389.135	12.2662
390.911	11.9767
392.689	12.0271
394.466	12.0927
396.241	12.7521
398.018	12.8882
399.792	12.5594
401.568	12.6749
403.341	12.1169
405.117	11.8229
406.889	11.7037
408.664	11.7328
410.436	12.5434
412.21	12.3689
413.981	12.4822
415.755	13.0527
417.525	12.5183
419.298	13.0647
421.068	12.1741
422.84	11.7251
424.609	11.2368
426.38	11.1156
428.149	10.9369
429.919	9.7878
431.688	9.13465
433.455	9.25041
435.225	9.13509
436.992	8.63557
438.76	8.36216
440.527	8.99318
442.293	8.6932
444.06	8.50746
445.826	8.00614
447.593	8.4957
449.357	9.58797
451.122	9.22614
452.888	9.36857
454.651	9.56361
456.415	9.67285
458.18	10.2094
459.942	10.839
461.705	11.3055
463.469	11.2437
465.23	11.6915
466.991	12.7308
468.752	12.551
470.515	11.8467
472.275	12.2062
474.035	12.6085
475.797	12.8154
477.556	14.0562
479.315	14.0712
481.073	14.4217
482.834	14.6848
484.592	14.8518
486.349	15.6515
488.106	15.1066
489.863	15.2959
491.622	15.9065
493.378	16.853
495.134	17.1345
496.889	17.8503
498.645	18.6821
500.401	18.7156
502.156	19.1353
503.91	18.4416
505.664	18.2971
507.417	18.2645
509.171	16.9909
510.923	17.3811
512.678	16.7107
514.43	16.4737
516.182	16.3226
517.933	15.509
519.684	15.7906
521.435	16.1296
523.186	16.3564
524.936	16.4821
526.686	16.3802
528.435	16.6208
530.184	15.1931
531.933	14.8659
533.682	14.6918
535.43	14.8733
537.18	14.2055
538.927	13.3875
540.674	12.3306
542.421	11.6481
544.167	10.4596
545.913	9.7779
547.659	8.45183
549.403	7.64718
551.148	6.89429
552.893	7.24971
554.637	7.57757
556.381	7.193
558.125	7.09614
559.868	7.61213
561.611	7.6516
563.354	7.02262
565.097	6.58833
566.839	5.42612
568.581	5.48285
570.322	5.29712
572.063	4.76135
573.802	4.64004
575.542	4.93386
577.283	5.85698
579.022	5.54703
580.762	5.89618
582.501	6.20179
584.24	6.25083
585.976	6.81871
587.714	6.57217
589.452	6.76933
591.19	6.96911
592.927	7.71387
594.663	7.83721
596.398	7.39377
598.134	8.57275
599.87	8.27115
601.605	10.7283
603.338	11.7229
605.073	11.4069
606.808	12.2791
608.542	13.1639
610.274	13.5795
612.007	14.478
613.74	14.5912
615.473	15.8664
617.204	16.1648
618.936	17.123
620.668	17.3673
622.397	17.0531
624.128	17.4933
625.859	17.1228
627.588	16.8521
629.318	16.7801
631.048	15.9191
632.775	16.5402
634.505	17.171
636.233	17.9507
637.96	18.9382
639.688	20.8224
641.416	21.7076
643.142	21.3328
644.869	22.22
646.594	22.3867
648.32	22.5979
650.045	22.86
651.771	22.785
653.496	23.0214
655.219	24.2014
656.944	24.7409
658.667	24.4593
660.391	25.5877
662.113	25.7626
663.837	26.2003
665.558	25.8507
667.281	27.0596
669.002	26.1221
670.724	25.6759
672.444	26.1427
674.166	25.9263
675.885	26.1367
677.606	27.0956
679.325	28.3591
681.045	29.0338
682.763	29.6541
684.483	30.6462
686.2	31.2136
687.917	32.5926
689.636	32.3231
691.352	33.7321
693.07	34.6225
694.786	35.937
696.501	37.3613
698.219	37.6524
699.933	38.0883
701.65	39.1281
703.364	39.3752
705.078	38.9961
706.793	39.1202
708.506	38.5641
710.219	39.1883
711.934	39.3745
713.646	39.6297
715.358	39.1255
717.071	40.0647
718.782	40.8296
720.493	41.4095
722.204	42.6327
723.916	43.6075
725.626	43.4397
727.336	43.0036
729.045	42.9937
730.756	43.4959
732.464	43.0977
734.173	44.2852
735.881	43.5887
737.59	42.4443
739.297	43.1155
741.004	43.8291
742.711	44.2859
744.417	44.2366
746.125	44.8848
747.831	44.717
749.537	44.7346
751.242	45.5391
752.946	46.4486
754.651	47.2855
756.357	49.1894
758.061	50.043
759.764	51.2384
761.467	53.7029
763.17	55.5974
764.872	57.0998
766.575	57.6759
768.276	59.0829
769.978	59.8587
771.679	62.0068
773.382	63.9626
775.083	66.1931
776.783	68.3261
778.483	69.5553
780.182	72.1649
781.882	73.16
783.581	74.21
785.279	76.506
786.978	77.4008
788.676	78.8963
790.373	80.4488
792.071	81.9484
793.768	83.1641
795.464	84.4735
797.161	84.5466
798.857	85.5026
800.552	86.3995
802.248	87.2058
803.941	87.2139
805.636	87.1499
807.33	87.5143
809.024	87.5043
810.718	87.3537
812.412	87.6436
814.105	87.4977
815.798	87.6453
817.49	87.7624
819.183	87.4795
820.873	85.5969
822.564	84.4884
824.256	83.8469
825.947	83.2378
827.637	82.1257
829.328	80.5866
831.016	79.7917
832.705	79.6159
834.395	78.8687
836.084	78.62
837.772	76.9688
839.459	76.7276
841.147	75.0726
842.835	73.3122
844.522	72.4144
846.209	71.7578
847.894	70.9827
849.581	70.1208
851.267	69.06
852.953	68.8179
854.637	67.8962
856.322	68.1766
858.007	67.6314
859.689	67.1291
861.374	66.524
863.058	66.5726
864.739	65.6487
866.423	64.5472
868.106	64.9966
869.787	64.1022
871.469	63.6296
873.151	63.4894
874.831	62.2747
876.512	61.273
878.193	60.0355
879.872	58.8949
881.553	58.803
883.231	58.1796
884.911	57.602
886.591	56.642
888.268	55.4897
889.947	55.2576
891.623	54.8664
893.302	54.5455
894.978	54.2202
896.656	54.0375
898.331	53.9702
900.008	53.728
901.683	52.6748
903.359	51.7221
905.033	50.4846
906.709	49.0231
908.383	48.6276
910.058	50.4297
911.731	49.9304
913.405	49.7764
915.078	49.8446
916.752	49.0214
918.423	48.54
920.096	48.2301
921.768	47.2604
923.438	47.5472
925.111	46.2253
926.781	45.4246
928.452	44.2685
930.122	44.5496
931.791	44.7637
933.462	43.2853
935.13	42.9252
936.799	42.7342
938.468	42.2085
940.136	42.4889
941.803	42.3522
943.472	41.613
945.139	41.2447
946.805	40.7576
948.473	38.6695
950.139	37.9363
951.804	37.191
953.471	35.7792
955.136	34.7478
956.801	33.8643
958.465	33.1319
960.131	32.1322
961.794	30.6798
963.458	30.5233
965.12	30.9217
966.785	29.3065
968.447	29.9078
970.109	29.2481
971.771	28.6603
973.432	29.5804
975.095	30.1221
976.756	29.8972
978.417	29.1031
980.077	28.8959
981.737	29.4928
983.396	28.5552
985.057	28.5683
986.716	28.5343
988.375	27.9556
990.033	27.5615
991.691	28.703
993.349	28.632
995.006	28.0336
996.663	27.9446
998.32	27.2301
999.976	26.8464
1001.63	27.177
1003.29	26.0189
1004.95	25.6712
1006.6	26.2009
1008.26	24.8069
1009.91	24.6652
1011.56	24.8823
1013.22	24.8156
1014.87	24.4275
1016.53	23.7492
1018.18	24.145
1019.83	23.6471
1021.48	22.4375
1023.14	21.8729
1024.79	20.3381
1026.44	19.2435
1028.09	19.0905
1029.74	17.8622
1031.39	16.7611
1033.04	16.5425
1034.69	15.8034
1036.34	15.902
1037.99	14.6892
1039.64	14.894
1041.29	13.8962
1042.94	13.3387
1044.58	12.6179
1046.23	13.461
1047.88	13.1025
1049.52	12.3932
1051.17	13.8513
1052.82	13.8738
1054.46	12.9668
1056.11	13.2469
1057.75	12.0027
1059.4	9.89485
1061.04	9.8231
1062.69	11.6144
1064.33	11.1182
1065.98	10.0258
1067.62	9.96373
1069.26	9.96193
1070.9	9.19002
1072.55	10.1647
1074.19	10.4267
1075.83	9.56293
1077.47	10.0845
1079.11	9.87734
1080.76	9.20571
1082.4	9.25102
1084.04	9.12232
1085.68	9.41272
1087.32	9.79572
1088.95	9.69986
1090.59	9.17773
1092.23	8.98884
1093.87	7.81626
1095.51	6.86592
1097.15	7.748
1098.78	8.53713
1100.42	7.84815
1102.06	7.3327
1103.69	6.21738
1105.33	7.54569
1106.97	7.1092
1108.6	7.51778
1110.24	7.60518
1111.87	7.28504
1113.51	7.2741
1115.14	6.76229
1116.77	6.13236
1118.41	6.15119
1120.04	5.45788
1121.67	5.70746
1123.31	5.42071
1124.94	5.5903
1126.57	4.75513
1128.2	5.45782
1129.83	4.64802
1131.47	4.31232
1133.1	4.29634
1134.72	3.90625
1136.36	3.54755
1137.98	4.05114
1139.62	3.68036
1141.24	3.95792
1142.87	4.65196
1144.5	4.88528
1146.13	3.44283
1147.76	3.59295
1149.38	3.94659
1151.01	4.03907
1152.64	3.75243
1154.27	4.00162
1155.89	3.22402
1157.52	2.68007
1159.14	2.64859
1160.77	3.13309
1162.39	3.00129
1164.02	2.65006
1165.64	3.32498
1167.27	3.79064
1168.89	4.0968
1170.51	3.89714
1172.14	4.0751
1173.76	4.03664
1175.38	4.98522
1177	4.46014
1178.63	5.06813
1180.25	5.08099
1181.87	4.71598
1183.49	4.7034
1185.11	4.51823
1186.73	5.53815
1188.35	5.6169
1189.97	5.67205
1191.59	5.58853
1193.21	5.3716
1194.83	4.26183
1196.45	4.62838
1198.07	4.9906
1199.68	6.00535
1201.3	7.19931
1202.92	7.90524
1204.53	9.39069
1206.15	9.43399
1207.77	9.22434
1209.38	10.5506
1211	11.0716
1212.62	12.7633
1214.23	14.65
1215.84	16.1863
1217.46	16.739
1219.07	18.1371
1220.69	19.4205
1222.3	20.573
1223.91	21.4824
1225.53	23.0968
1227.14	23.8426
1228.75	25.311
1230.36	26.3441
1231.97	27.3157
1233.59	27.929
1235.2	28.412
1236.81	28.8453
1238.42	29.0055
1240.03	29.7207
1241.64	31.1159
1243.25	30.7011
1244.85	31.1661
1246.46	32.2472
1248.07	32.3724
1249.68	33.2745
1251.29	32.665
1252.9	32.7877
1254.5	33.2184
1256.11	33.4314
1257.72	31.6751
1259.32	32.2406
1260.93	31.7211
1262.54	31.5095
1264.14	30.9007
1265.75	30.7102
1267.35	30.1732
1268.96	30.6995
1270.56	30.5723
1272.16	31.4038
1273.77	32.1454
1275.37	32.6378
1276.97	34.3999
1278.57	34.7034
1280.18	35.2546
1281.78	36.2494
1283.38	36.5326
1284.98	37.3027
1286.58	36.9663
1288.18	37.7259
1289.78	39.2552
1291.38	40.0348
1292.99	41.1184
1294.58	41.2316
1296.18	43.0219
1297.78	43.8938
1299.38	44.6751
1300.98	44.9136
1302.58	45.2436
1304.17	45.5578
1305.77	46.4885
1307.37	46.0266
1308.97	47.2641
1310.56	46.7674
1312.16	46.7733
1313.76	46.6961
1315.35	47.2062
1316.95	46.9038
1318.54	47.2304
1320.14	47.0315
1321.73	46.6531
1323.32	45.8717
1324.92	46.0404
1326.51	44.9674
1328.1	45.1365
1329.7	44.6258
1331.29	43.5895
1332.88	43.2024
1334.47	42.6968
1336.07	41.1201
1337.66	40.4599
1339.25	40.7966
1340.84	40.2289
1342.43	40.738
1344.02	39.9771
1345.61	39.8389
1347.2	40.4342
1348.79	41.6209
1350.37	41.9657
1351.96	42.3521
1353.55	41.6237
1355.14	41.5963
1356.73	41.0465
1358.31	40.2012
1359.9	40.3438
1361.49	40.4715
1363.07	40.2451
1364.66	39.7756
1366.25	39.3284
1367.83	39.8191
1369.42	40.1153
1371	39.4312
1372.59	39.1547
1374.17	38.9295
1375.75	38.8252
1377.34	37.6534
1378.92	37.4752
1380.5	37.2734
1382.09	36.5756
1383.67	35.4216
1385.25	34.3747
1386.83	33.8872
1388.42	33.5087
1390	31.5675
1391.58	30.9908
1393.16	29.6887
1394.74	29.0824
1396.32	27.4525
1397.9	26.4735
1399.48	25.1975
1401.06	24.5174
1402.64	23.6234
1404.21	22.7447
1405.79	21.8331
1407.37	22.7801
1408.95	22.729
1410.53	22.5492
1412.1	22.0029
1413.68	22.1975
1415.26	23.1844
1416.83	23.7316
1418.41	24.1563
1419.98	25.4485
1421.56	26.5956
1423.13	27.1914
1424.71	29.6936
1426.28	31.2002
1427.86	32.6975
1429.43	33.4621
1431	34.5819
1432.58	36.0038
1434.15	36.3774
1435.72	37.6816
1437.29	38.505
1438.87	40.2869
1440.44	41.1832
1442.01	42.2649
1443.58	43.1494
1445.15	43.7723
1446.72	44.931
1448.29	44.9393
1449.86	44.8404
1451.43	44.7124
1453	44.8792
1454.57	44.1808
1456.14	43.4436
1457.71	42.4377
1459.27	40.2084
1460.84	38.7865
1462.41	37.4247
1463.98	35.719
1465.54	34.0787
1467.11	31.9537
1468.67	29.9155
1470.24	28.3385
1471.81	26.3936
1473.37	24.5605
1474.94	21.7017
1476.5	20.3606
1478.07	18.4298
1479.63	16.2166
1481.19	14.141
1482.76	12.6152
1484.32	10.552
1485.88	9.91205
1487.45	7.93739
1489.01	6.6213
1490.57	4.86913
1492.13	4.18232
1493.69	3.82672
1495.26	2.84464
1496.82	2.05701
1498.38	2.08859
1499.94	1.08091
1501.5	1.63763
1503.06	1.96661
1504.62	1.28959
1506.17	1.61377
1507.73	1.59084
1509.29	1.8673
1510.85	2.39614
1512.41	1.69103
1513.97	3.23879
1515.52	3.39201
1517.08	4.67682
1518.64	5.63433
1520.19	6.03678
1521.75	6.55177
1523.31	6.7436
1524.86	8.07929
1526.42	9.43497
1527.97	10.5036
1529.52	11.2568
1531.08	12.6256
1532.63	12.4339
1534.19	13.4771
1535.74	14.2762
1537.29	15.0588
1538.85	15.6663
1540.4	16.3895
1541.95	17.5777
1543.5	18.7457
1545.06	20.1967
1546.61	21.372
1548.16	22.7594
1549.71	23.6892
1551.26	24.5629
1552.81	25.4016
1554.36	27.4741
1555.91	28.1789
1557.46	29.4835
1559.01	30.0836
1560.56	30.7656
1562.11	31.8471
1563.65	34.4317
1565.2	35.5711
1566.75	37.3129
1568.29	38.3708
1569.84	40.5221
1571.39	41.7694
1572.94	42.9565
1574.48	44.4762
1576.03	46.666
1577.57	47.8851
1579.12	48.5789
1580.66	49.1228
1582.21	49.5799
1583.75	50.3861
1585.3	50.8726
1586.84	50.7453
1588.38	50.9545
1589.93	51.2338
1591.47	51.8912
1593.01	51.5934
1594.55	51.3855
1596.1	50.3109
1597.64	49.5377
1599.18	49.4535
1600.72	48.2849
1602.26	48.1756
1603.8	46.5928
1605.34	44.9866
1606.88	42.8851
1608.42	41.4625
1609.96	40.4005
1611.5	39.8829
1613.04	38.9528
1614.58	37.3197
1616.12	36.4771
1617.65	36.1317
1619.19	34.9868
1620.73	34.2487
1622.27	33.7376
1623.8	33.4566
1625.34	32.8493
1626.87	32.6305
1628.41	31.7183
1629.95	31.9191
1631.48	32.7895
1633.02	32.4455
1634.55	32.6582
1636.09	32.6377
1637.62	33.9067
1639.15	35.402
1640.69	36.0721
1642.22	35.9997
1643.76	37.0692
1645.29	38.1765
1646.82	38.597
1648.35	39.1181
1649.88	39.9458
1651.42	39.8875
1652.95	40.7934
1654.48	40.9813
1656.01	41.0177
1657.54	41.9572
1659.07	42.3727
1660.6	42.689
1662.13	42.6307
1663.66	42.876
1665.19	42.3896
1666.72	42.8225
1668.24	42.1121
1669.77	40.7547
1671.3	39.7153
1672.83	37.8535
1674.35	36.724
1675.88	34.6603
1677.41	32.9793
1678.93	31.8394
1680.46	30.0401
1681.99	29.4546
1683.51	27.4438
1685.04	26.4361
1686.56	25.5469
1688.09	22.9455
1689.61	21.4559
1691.13	19.295
1692.66	18.1412
1694.18	16.6308
1695.71	15.388
1697.23	14.279
1698.75	13.1466
1700.27	11.5983
1701.8	9.77877
1703.32	8.23198
1704.84	6.87422
1706.36	6.26432
1707.88	4.38022
1709.4	3.45844
1710.92	2.65536
1712.44	2.22355
1713.96	1.68444
1715.48	1.06244
1717	0.115472
1718.52	0.0803921
1720.04	-0.012276
1721.56	-0.506257
1723.07	-1.30503
1724.59	-0.926972
1726.11	-0.839041
1727.63	-0.375681
1729.14	0.654184
1730.66	0.247651
1732.18	0.343955
1733.69	0.574393
1735.21	0.678045
1736.72	0.52414
1738.24	0.325395
1739.75	0.582981
1741.27	0.542197
1742.78	0.850311
1744.3	0.818762
1745.81	0.522679
1747.32	0.412937
1748.84	0.430821
1750.35	0.597582
1751.86	1.07554
1753.37	1.32779
1754.89	1.16582
1756.4	1.38161
1757.91	1.39942
1759.42	0.797324
1760.93	0.626044
1762.44	0.863214
1763.95	0.656795
1765.46	1.38976
1766.97	0.733411
1768.48	0.290684
1769.99	0.485872
1771.5	0.0814896
1773.01	-0.233284
1774.52	-0.0613674
1776.03	-0.749264
1777.53	-0.650633
1779.04	-0.24982
1780.55	0.129416
1782.06	0.0452063
1783.56	0.328613
1785.07	1.42829
1786.57	1.80055
1788.08	2.40084
1789.59	2.63167
1791.09	2.94363
1792.6	2.97495
1794.1	3.38813
1795.6	3.48151
1797.11	3.6897
1798.61	4.16645
1800.12	5.12709
1801.62	5.32274
1803.12	5.72859
1804.63	5.99738
1806.13	5.68299
1807.63	5.55685
1809.13	5.54133
1810.63	5.61898
1812.14	5.75703
1813.64	6.10597
1815.14	6.41909
1816.64	6.33316
1818.14	6.57121
1819.64	6.37416
1821.14	6.06511
1822.64	6.17789
1824.14	6.45629
1825.63	6.42196
1827.13	7.11527
1828.63	6.21605
1830.13	6.05301
1831.63	5.5496
1833.12	5.34315
1834.62	5.4516
1836.12	5.22816
1837.62	5.54674
1839.11	4.86363
1840.61	4.62036
1842.1	4.73113
1843.6	4.7164
1845.09	4.53183
1846.59	4.11391
1848.08	4.15946
1849.58	4.24765
1851.07	4.03368
1852.57	3.66078
1854.06	3.69679
1855.55	3.52714
1857.04	3.63973
1858.54	3.84529
1860.03	4.04081
1861.52	3.69505
1863.01	3.61636
1864.5	3.2749
1866	3.84037
1867.49	3.6144
1868.98	4.0836
1870.47	4.24032
1871.96	4.76691
1873.45	5.13287
1874.94	5.55774
1876.43	5.82844
1877.92	6.32958
1879.41	6.64179
1880.89	6.68854
1882.38	7.04627
1882.48	7.45388
1883.97	8.23789
1885.47	9.06412
1886.96	9.56604
1888.46	9.71086
1889.95	10.4761
1891.44	10.8686
1892.94	11.0853
1894.43	12.1239
1895.92	13.2117
1897.41	13.5848
1898.9	14.4111
1900.4	14.3648
1901.89	14.0654
1903.38	14.6622
1904.87	14.8813
1906.36	15.7729
1907.85	15.8613
1909.34	15.6053
1910.83	15.9608
1912.32	16.3372
1913.81	16.5532
1915.29	16.3404
1916.78	15.3381
1918.27	14.7959
1919.76	14.5458
1921.25	14.5149
1922.74	13.7975
1924.22	12.5724
1925.71	12.0038
1927.2	12.0656
1928.68	12.2483
1930.17	11.7526
1931.65	11.8018
1933.14	10.9677
1934.63	10.2396
1936.11	10.262
1937.59	10.1656
1939.08	10.0995
1940.56	8.99494
1942.05	8.91569
1943.53	8.38689
1945.01	8.2008
1946.5	8.09948
1947.98	8.48019
1949.46	8.71368
1950.94	8.70217
1952.43	8.84963
1953.91	8.57759
1955.39	8.45273
1956.87	8.85707
1958.35	8.8338
1959.83	8.67871
1961.31	9.12114
1962.79	9.27927
1964.27	9.34746
1965.75	9.05482
1967.23	9.58198
1968.71	10.1834
1970.19	10.6273
1971.67	10.1719
1973.14	10.0083
1974.62	9.31212
1976.1	10.0391
1977.58	10.2189
1979.05	10.2334
1980.53	11.0749
1982.01	11.0333
1983.48	11.8841
1984.96	12.1271
1986.43	12.195
1987.91	11.7833
1989.38	11.863
1990.86	11.7165
1992.33	11.438
1993.81	11.1214
1995.28	11.3602
1996.76	11.6021
1998.23	11.7435
1999.7	12.4958
2001.18	12.5961
2002.65	12.5037
2004.12	11.5115
2005.59	11.4726
2007.06	10.3605
2008.54	10.4866
2010.01	10.3563
2011.48	9.96801
2012.95	9.22809
2014.42	9.0726
2015.89	9.00908
2017.36	8.82227
2018.83	8.81525
2020.3	8.24336
2021.77	7.87949
2023.24	7.90527
2024.71	7.45017
2026.17	7.91955
2027.64	7.67517
2029.11	7.88544
2030.58	8.47134
2032.04	8.50184
2033.51	8.78066
2034.98	9.23827
2036.45	8.65565
2037.91	8.97162
2039.38	8.88334
2040.84	9.89118
2042.31	10.0123
2043.77	9.984
2045.24	9.77346
2046.7	10.2507
2048.17	11.2427
2049.63	11.9232
2051.1	12.0173
2052.56	12.6097
2054.02	13.2891
2055.48	13.291
2056.95	13.7795
2058.41	13.475
2059.87	13.2877
2061.33	13.4973
2062.8	14.0049
2064.26	14.1813
2065.72	14.2673
2067.18	14.7933
2068.64	15.8593
2070.1	15.7727
2071.56	15.8633
2073.02	16.1416
2074.48	15.802
2075.94	15.6561
2077.4	15.5315
2078.86	15.5202
2080.31	14.9632
2081.77	15.412
2083.23	15.1221
2084.69	15.5119
2086.14	14.8468
2087.6	14.6394
2089.06	14.5673
2090.52	14.9794
2091.97	15.2873
2093.43	15.2003
2094.88	16.5491
2096.34	17.341
2097.79	17.3173
2099.25	17.762
2100.7	17.7502
2102.16	18.0855
2103.61	18.7882
2105.07	19.0103
2106.52	19.2734
2107.97	19.3927
2109.43	19.51
2110.88	20.2777
2112.33	20.5924
2113.78	22.0068
2115.24	22.3385
2116.69	23.5412
2118.14	24.4676
2119.59	25.0926
2121.04	26.0758
2122.49	26.7101
2123.94	27.378
2125.39	28.0405
2126.84	28.6508
2128.29	29.2612
2129.74	29.9956
