#Acq. time (s)=	45
#Accumulations=	2
#Range (cm-¹)=	200...3150
#Windows=	2
#Auto scanning=	Off
#Autofocus=	Off
#Macrospot=	Off
#AutoExposure=	Off
#Spike filter=	Multiple accum.
#Delay time (s)=	0
#Binning=	1
#Readout mode=	Signal
#DeNoise=	Off
#ICS correction=	On
#Dark correction=	Off
#Inst. Process=	Off
#Detector Gain=	Best Dynamic Range
#Detector ADC=	20 kHz       
#Detector temperature (°C)=	-69.85
#Instrument=	LabRAM HR Evol
#Detector=	Synapse
#Objective=	x100
#Grating=	600 gr/mm
#ND Filter=	100%
#Laser (nm)=	532 
#Hole=	100.021
#Range=	Auto
#Laser Pol.=	No
#Raman. Pol.=	No
#Laser Pol. (°)=	-0.0007625
#Raman Pol. (°)=	89.9995
#Collection=	Microscope
#StageXY=	Marzhauser
#StageZ=	Marzhauser
#X (µm)=	-5917.9
#Y (µm)=	2862.9
#Z (µm)=	-223.6
#Full time(mm:ss)=	3:18
#Project=	
#Sample=	
#Site=	
#Title=	Thy_20_09_39_2x_45s_532 nm_x100_100%_600 gr_mm
#Remark=	
#Date=	29.06.2022 13:24
#Acquired=	29.06.2022 13:24:35
#Base:Fit=	10.08.2022 09:52:02
#Base:Fit=	10.08.2022 09:52:12
#Base:Sub=	10.08.2022 09:54:21
#Filter:Polynom=	16.08.2022 10:24:04
#AxisType[0]=Intens
#AxisUnit[0]=Cnt
#AxisType[1]=Spectr
#AxisUnit[1]=1/cm
200.523	2.27245
202.339	4.39826
204.154	5.52915
205.967	6.53786
207.781	6.74615
209.596	6.8002
211.409	6.81683
213.222	7.01784
215.034	7.97259
216.848	8.0825
218.659	7.55252
220.47	7.48274
222.281	8.00774
224.091	8.18217
225.903	8.62348
227.713	10.0945
229.522	9.63166
231.331	9.9896
233.14	10.3354
234.948	11.0139
236.756	11.2846
238.566	10.8577
240.373	11.8827
242.18	11.3917
243.986	11.0436
245.792	11.7953
247.598	11.3247
249.403	11.8001
251.208	11.8051
253.013	11.0008
254.818	10.3352
256.624	10.6731
258.427	10.8903
260.231	11.9643
262.034	11.6458
263.836	12.5328
265.638	12.2413
267.44	12.1163
269.242	12.11
271.043	12.2659
272.844	13.5433
274.645	12.8713
276.445	13.1519
278.245	13.7353
280.044	13.2489
281.843	13.9743
283.642	14.0784
285.44	14.419
287.238	14.6083
289.036	14.0776
290.833	13.5893
292.63	13.3439
294.425	13.5918
296.221	12.6187
298.017	12.6332
299.813	12.199
301.608	13.1178
303.403	13.2174
305.198	13.356
306.992	12.8793
308.786	12.564
310.579	13.1018
312.371	13.7239
314.163	13.785
315.956	13.947
317.748	14.2285
319.54	13.8701
321.331	14.8934
323.122	15.216
324.911	14.2186
326.701	14.0078
328.491	13.2403
330.281	13.986
332.071	13.1356
333.857	13.5181
335.646	13.858
337.434	13.2113
339.222	13.0846
341.008	11.8893
342.795	10.4387
344.582	10.6361
346.369	10.4192
348.153	10.4177
349.939	10.0352
351.724	10.3765
353.51	10.9239
355.292	10.3703
357.077	11.4353
358.861	10.8286
360.643	11.0594
362.426	11.3611
364.21	10.5718
365.99	10.7861
367.773	10.9958
369.555	10.9814
371.335	11.7517
373.116	10.8927
374.897	9.63937
376.676	9.6823
378.456	9.73604
380.236	9.24344
382.014	9.36093
383.793	8.92581
385.57	8.2309
387.349	8.32518
389.127	7.70008
390.903	7.31618
392.681	6.82346
394.456	7.15622
396.233	6.59461
398.007	5.86844
399.784	6.35189
401.56	6.86185
403.333	6.2271
405.108	6.07584
406.881	5.77225
408.656	5.46522
410.428	4.97765
412.202	4.90658
413.973	3.8741
415.746	4.40146
417.517	4.21356
419.29	4.46444
421.06	4.14199
422.831	3.86486
424.601	3.85926
426.37	3.37416
428.141	2.41687
429.909	1.56295
431.679	1.62617
433.447	1.88186
435.216	1.59267
436.983	2.45869
438.75	2.88687
440.519	2.72471
442.285	2.48266
444.052	2.64664
445.818	3.06652
447.583	2.60942
449.349	3.43868
451.114	3.5501
452.878	3.97602
454.643	5.09662
456.407	6.04548
458.169	6.26435
459.934	6.53322
461.696	5.75947
463.458	6.53031
465.222	8.34778
466.983	8.54754
468.744	8.24615
470.507	8.30469
472.267	8.18721
474.027	8.46657
475.787	9.19678
477.548	9.00483
479.307	10.2632
481.065	11.2929
482.823	12.1948
484.583	12.0592
486.341	12.5362
488.098	13.5953
489.855	13.8207
491.612	13.6993
493.37	14.4814
495.126	14.9318
496.881	15.5308
498.636	15.8984
500.391	17.0636
502.148	16.9047
503.902	17.2071
505.656	17.7736
507.409	17.3945
509.162	17.6502
510.915	17.0975
512.668	16.4759
514.42	15.8832
516.174	14.8761
517.925	15.2339
519.676	15.8176
521.427	14.6552
523.178	15.2691
524.928	15.7938
526.678	14.7866
528.427	14.1197
530.176	15.0898
531.925	14.5247
533.673	13.4252
535.422	13.5541
537.169	13.0839
538.917	13.0812
540.664	13.2036
542.411	13.4823
544.157	12.3055
545.903	11.9202
547.649	10.9734
549.395	10.8345
551.14	11.0304
552.884	10.3891
554.629	9.01388
556.373	8.35917
558.117	8.23464
559.86	7.84151
561.603	8.16116
563.346	8.43145
565.089	7.76972
566.831	8.13163
568.573	7.35659
570.314	7.26197
572.053	6.30151
573.794	6.44458
575.534	6.37917
577.274	6.18475
579.014	5.97473
580.754	6.27276
582.493	5.03901
584.23	5.04096
585.968	5.10976
587.706	5.71707
589.444	5.49454
591.181	4.94008
592.919	4.53507
594.653	3.94898
596.39	3.91119
598.126	3.70507
599.862	3.58008
601.595	3.73823
603.33	3.42258
605.065	4.60187
606.8	4.53945
608.532	4.57732
610.266	5.02352
611.999	4.02991
613.732	3.47974
615.463	3.51838
617.196	3.96259
618.928	2.63041
620.66	2.93291
622.389	3.41683
624.12	3.97316
625.851	4.49501
627.58	4.78374
629.31	5.20843
631.04	5.47275
632.767	6.38654
634.497	5.44318
636.223	6.65341
637.952	6.59045
639.68	7.04105
641.406	8.03931
643.134	9.41855
644.861	9.99915
646.586	10.0385
648.312	11.9077
650.037	11.768
651.762	11.6557
653.486	11.8816
655.211	12.6738
656.936	13.969
658.659	14.5316
660.383	15.8318
662.105	16.2014
663.829	17.3581
665.55	16.8217
667.273	18.0832
668.994	17.7196
670.716	18.9823
672.436	19.8778
674.158	20.4386
675.877	20.6632
677.598	20.6978
679.317	20.9151
681.035	22.3586
682.755	22.8664
684.473	23.1641
686.192	23.9878
687.909	24.8328
689.628	26.6124
691.344	27.0694
693.06	27.3321
694.778	27.9438
696.493	27.8198
698.211	28.4467
699.925	29.1552
701.64	29.2985
703.356	29.3794
705.07	29.1607
706.783	29.8796
708.498	30.5269
710.211	31.9824
711.924	32.0295
713.638	33.7311
715.35	34.1218
717.061	35.2926
718.774	35.054
720.485	34.7246
722.196	35.5469
723.906	36.3817
725.618	37.1654
727.328	37.6987
729.037	37.8112
730.746	37.7608
732.456	38.2678
734.165	40.0442
735.873	39.1624
737.58	39.9925
739.289	41.0688
740.997	41.7812
742.703	42.9883
744.41	44.1254
746.116	45.165
747.823	45.7778
749.529	46.0895
751.234	46.1329
752.938	48.4611
754.643	48.597
756.347	49.9313
758.051	52.0774
759.756	52.4489
761.459	53.7144
763.162	55.3666
764.865	56.2472
766.567	58.3855
768.269	59.4399
769.97	61.5276
771.671	63.8383
773.372	64.7233
775.073	65.918
776.773	66.4206
778.473	67.9222
780.174	68.6634
781.874	69.2054
783.573	70.0458
785.271	71.0336
786.97	71.8228
788.668	73.0945
790.365	74.3341
792.063	75.3747
793.76	76.151
795.456	76.5482
797.153	77.3406
798.847	78.1347
800.543	78.2442
802.238	78.4335
803.933	77.5383
805.628	77.7505
807.322	78.8873
809.017	79.4853
810.71	79.3713
812.404	79.1288
814.097	78.9444
815.79	78.6594
817.483	78.6236
819.173	78.9233
820.865	78.289
822.556	78.0838
824.248	77.2351
825.939	76.6548
827.629	76.5224
829.318	76.05
831.008	75.7814
832.697	73.6977
834.387	72.4731
836.076	72.0821
837.765	72.0041
839.451	70.4242
841.139	70.3459
842.827	69.7507
844.514	68.2041
846.2	67.565
847.886	66.865
849.573	65.951
851.259	65.0598
852.943	64.522
854.629	63.0127
856.314	62.0321
857.997	61.3832
859.682	60.6996
861.366	59.7801
863.05	58.9165
864.732	58.3162
866.415	57.7043
868.098	57.4565
869.779	56.7886
871.461	54.8743
873.141	53.7477
874.823	53.0328
876.505	51.7334
878.184	51.0024
879.865	50.3212
881.545	50.0252
883.223	49.2705
884.903	48.547
886.581	47.5835
888.26	48.0676
889.937	48.4501
891.616	48.1376
893.294	47.7288
894.97	47.6278
896.648	47.2604
898.323	47.328
900	47.2621
901.675	46.9021
903.351	46.1628
905.026	44.6533
906.701	43.6008
908.375	42.8174
910.05	42.5808
911.723	42.2254
913.398	42.7121
915.07	42.7965
916.742	40.8847
918.415	40.5286
920.087	40.4297
921.76	40.3256
923.43	39.5059
925.103	39.9727
926.773	40.0745
928.443	39.6457
930.114	39.3456
931.783	39.3836
933.454	39.2367
935.123	39.1303
936.791	39.8294
938.461	39.2784
940.128	39.7017
941.796	38.9864
943.464	37.8362
945.131	36.9656
946.797	37.0712
948.465	37.3834
950.131	36.9803
951.797	36.9199
953.462	37.507
955.128	36.9485
956.793	37.7127
958.457	37.2661
960.121	36.6278
961.786	36.8382
963.45	36.0531
965.113	36.6417
966.775	37.1028
968.44	36.7536
970.102	37.7586
971.763	38.2595
973.425	37.2191
975.086	37.7429
976.748	37.7718
978.409	37.9795
980.069	37.5557
981.729	37.0904
983.388	36.3259
985.048	35.2404
986.708	34.1733
988.367	33.6947
990.025	33.0109
991.683	31.5198
993.341	30.9502
994.998	30.6093
996.655	30.1917
998.312	29.4106
999.969	28.1012
1001.62	27.666
1003.28	28.1812
1004.94	27.1208
1006.59	26.5042
1008.25	26.4764
1009.9	25.375
1011.56	24.7594
1013.21	23.898
1014.86	23.8082
1016.52	22.7304
1018.17	22.3458
1019.82	21.7442
1021.48	20.9664
1023.13	19.7227
1024.78	18.6343
1026.43	18.1764
1028.08	17.3197
1029.73	16.6113
1031.38	16.4235
1033.03	15.8856
1034.68	16.2545
1036.33	16.3486
1037.98	14.7477
1039.63	15.3049
1041.28	14.0662
1042.93	13.6965
1044.57	13.2032
1046.22	13.1852
1047.87	14.3952
1049.52	14.4545
1051.16	14.143
1052.81	14.6198
1054.45	13.7847
1056.1	13.9097
1057.75	14.4909
1059.39	13.6085
1061.04	12.908
1062.68	12.9503
1064.32	12.4885
1065.97	12.1314
1067.61	12.8348
1069.25	13.2531
1070.9	13.0701
1072.54	12.3067
1074.18	13.3117
1075.82	14.0084
1077.47	14.7482
1079.11	14.965
1080.75	15.3151
1082.39	14.7148
1084.03	14.9125
1085.67	14.9809
1087.31	15.0921
1088.95	15.9647
1090.59	16.3103
1092.22	16.9839
1093.86	18.0918
1095.5	18.4309
1097.14	19.7962
1098.78	19.7243
1100.41	20.2915
1102.05	19.9251
1103.69	19.2243
1105.32	19.0527
1106.96	19.1365
1108.59	18.6007
1110.23	17.897
1111.86	17.9053
1113.5	18.9685
1115.13	18.4057
1116.77	17.9356
1118.4	17.3709
1120.03	16.5252
1121.67	16.3677
1123.3	14.6772
1124.93	13.8577
1126.56	13.7627
1128.19	12.6802
1129.83	11.4162
1131.46	10.5427
1133.09	10.1817
1134.72	9.52118
1136.35	8.75698
1137.98	8.27719
1139.61	7.38299
1141.24	6.32185
1142.86	6.01115
1144.49	6.19037
1146.12	5.29117
1147.75	5.08554
1149.38	5.33173
1151	4.71069
1152.63	4.4202
1154.26	4.29978
1155.88	4.97081
1157.51	4.1028
1159.14	4.37633
1160.76	4.36784
1162.39	4.4827
1164.01	4.65881
1165.63	5.76351
1167.26	6.55884
1168.88	7.44002
1170.51	8.01621
1172.13	8.89692
1173.75	9.67905
1175.38	10.4565
1177	11.5928
1178.62	12.6072
1180.24	12.2458
1181.86	12.563
1183.48	13.1121
1185.1	13.5537
1186.72	14.2433
1188.34	14.5014
1189.96	14.6029
1191.58	14.7626
1193.2	14.9176
1194.82	15.2973
1196.44	15.2795
1198.06	15.8541
1199.68	17.1611
1201.29	16.8551
1202.91	17.8514
1204.53	17.5465
1206.14	19.102
1207.76	20.5983
1209.38	21.8677
1210.99	23.454
1212.61	25.6316
1214.22	26.6353
1215.84	26.836
1217.45	28.4581
1219.07	29.7163
1220.68	31.047
1222.29	32.0603
1223.91	34.4468
1225.52	35.4207
1227.13	37.1072
1228.74	38.3315
1230.36	40.1825
1231.97	41.32
1233.58	42.3661
1235.19	42.5732
1236.8	43.4763
1238.41	43.434
1240.02	44.588
1241.63	45.1744
1243.24	45.2129
1244.85	46.1317
1246.46	47.0967
1248.07	48.404
1249.67	48.5378
1251.28	48.9805
1252.89	49.6829
1254.5	50.2841
1256.1	51.2859
1257.71	51.8956
1259.32	52.4579
1260.92	51.963
1262.53	51.9092
1264.13	51.8846
1265.74	52.036
1267.34	52.5326
1268.95	52.6358
1270.55	52.2304
1272.15	52.0372
1273.76	52.4626
1275.36	53.4977
1276.97	53.8032
1278.57	54.7798
1280.17	55.6304
1281.77	56.0345
1283.37	58.155
1284.97	59.308
1286.58	60.8721
1288.18	60.6447
1289.78	61.7198
1291.38	61.8388
1292.98	63.0026
1294.58	63.8113
1296.18	65.2474
1297.78	66.6838
1299.37	67.5754
1300.97	68.7706
1302.57	69.517
1304.17	70.7357
1305.77	70.7831
1307.36	71.6168
1308.96	71.7778
1310.55	72.2735
1312.15	71.7124
1313.75	71.9349
1315.34	71.7053
1316.94	71.2292
1318.53	72.177
1320.13	72.9472
1321.72	72.8965
1323.32	72.9839
1324.91	73.8081
1326.5	73.7204
1328.1	73.5845
1329.69	72.5082
1331.28	72.4709
1332.87	73.1844
1334.47	72.647
1336.06	72.7375
1337.65	72.3375
1339.24	72.4031
1340.83	71.9131
1342.42	71.2045
1344.01	70.9997
1345.6	70.3326
1347.19	69.5119
1348.78	68.3003
1350.37	67.1503
1351.96	66.6206
1353.54	66.0544
1355.13	66.1525
1356.72	65.0657
1358.31	64.6381
1359.89	62.4043
1361.48	61.8581
1363.07	60.3914
1364.65	59.1827
1366.24	58.2853
1367.82	58.0471
1369.41	58.1517
1370.99	57.332
1372.58	56.792
1374.16	55.8451
1375.75	55.261
1377.33	54.6711
1378.91	54.3849
1380.5	52.9706
1382.08	51.7122
1383.66	50.7564
1385.25	49.6717
1386.83	48.399
1388.41	47.764
1389.99	46.6968
1391.57	45.4262
1393.15	44.5791
1394.73	43.1995
1396.31	43.1115
1397.89	43.0105
1399.47	42.429
1401.05	41.7577
1402.63	41.5649
1404.21	41.1898
1405.78	41.338
1407.36	40.9286
1408.94	41.7865
1410.52	42.8344
1412.1	43.7381
1413.67	44.4399
1415.25	45.8333
1416.82	46.6002
1418.4	47.3875
1419.98	47.6285
1421.55	48.5239
1423.13	50.0644
1424.7	51.6949
1426.28	54.0261
1427.85	55.0691
1429.42	57.5037
1431	59.194
1432.57	60.4749
1434.14	61.9402
1435.71	62.9256
1437.29	63.7121
1438.86	64.9531
1440.43	67.2998
1442	68.2366
1443.57	69.6913
1445.14	69.8782
1446.71	70.3256
1448.28	69.9375
1449.85	69.8729
1451.42	70.3136
1452.99	70.2168
1454.56	69.47
1456.13	68.5677
1457.7	67.059
1459.26	65.1098
1460.83	63.6642
1462.4	62.4168
1463.97	60.34
1465.54	59.1016
1467.1	57.2426
1468.67	53.8689
1470.23	51.581
1471.8	49.4623
1473.36	47.2467
1474.93	45.4494
1476.49	42.4911
1478.06	41.5194
1479.62	38.7941
1481.19	37.0811
1482.75	34.5672
1484.31	33.5273
1485.88	31.2304
1487.44	30.8253
1489	28.986
1490.56	27.7555
1492.13	26.8124
1493.69	25.1525
1495.25	24.4263
1496.81	23.6972
1498.37	24.3855
1499.93	24.5394
1501.49	24.695
1503.05	24.8545
1504.61	24.8058
1506.17	24.5186
1507.73	25.2568
1509.28	24.083
1510.84	24.1726
1512.4	24.4831
1513.96	24.5985
1515.52	25.0591
1517.07	26.3013
1518.63	26.7932
1520.19	27.762
1521.74	28.9545
1523.3	29.4424
1524.85	31.0809
1526.41	31.8197
1527.96	33.1155
1529.52	33.828
1531.07	33.2691
1532.63	33.3121
1534.18	34.8267
1535.73	36.0374
1537.29	36.8316
1538.84	37.2827
1540.39	38.5421
1541.94	38.9439
1543.5	40.1351
1545.05	40.9649
1546.6	41.7219
1548.15	43.5395
1549.7	45.3977
1551.25	47.1107
1552.8	49.5249
1554.35	51.2406
1555.9	53.2623
1557.45	53.4969
1559	54.5294
1560.55	55.443
1562.1	57.92
1563.65	58.5199
1565.19	60.1244
1566.74	61.0206
1568.29	62.1679
1569.83	63.8243
1571.38	64.8687
1572.93	67.7505
1574.47	68.9621
1576.02	70.3237
1577.56	71.7106
1579.11	73.1091
1580.66	74.1314
1582.2	74.8669
1583.74	75.3481
1585.29	75.4399
1586.83	75.2945
1588.38	75.9247
1589.92	76.0755
1591.46	76.5064
1593.01	76.1727
1594.55	75.2103
1596.09	75.4494
1597.63	75.3499
1599.17	74.3857
1600.71	73.3962
1602.25	73.1128
1603.79	72.0566
1605.34	70.2369
1606.88	69.1333
1608.41	68.5419
1609.95	68.0866
1611.49	67.0823
1613.03	65.4635
1614.57	63.6154
1616.11	62.1765
1617.65	61.9115
1619.18	61.1107
1620.72	60.6547
1622.26	60.371
1623.79	59.5136
1625.33	59.2038
1626.87	59.0534
1628.4	58.7271
1629.94	57.8769
1631.48	56.8449
1633.01	56.8426
1634.55	56.0718
1636.08	55.7161
1637.61	55.7663
1639.15	55.9851
1640.68	55.4229
1642.21	56.0759
1643.75	56.1083
1645.28	56.1876
1646.81	57.1795
1648.34	57.318
1649.88	58.1136
1651.41	57.5286
1652.94	57.2768
1654.47	57.6155
1656	55.5952
1657.53	54.7767
1659.06	53.7412
1660.59	52.2357
1662.12	51.7291
1663.65	50.7331
1665.18	49.8
1666.71	48.9496
1668.24	48.0502
1669.76	46.5597
1671.29	45.8414
1672.82	45.8975
1674.35	44.5992
1675.87	43.1771
1677.4	41.811
1678.93	40.1666
1680.45	38.0511
1681.98	36.4119
1683.5	35.5498
1685.03	33.3293
1686.55	31.82
1688.08	30.1364
1689.6	28.3603
1691.13	26.5337
1692.65	24.9351
1694.17	24.0382
1695.7	22.5945
1697.22	21.1103
1698.74	20.093
1700.27	19.1658
1701.79	18.1075
1703.31	16.9981
1704.83	15.7133
1706.35	14.5031
1707.87	13.8498
1709.39	12.9136
1710.91	11.7011
1712.43	10.7397
1713.95	10.2205
1715.47	9.72104
1716.99	8.9338
1718.51	8.61735
1720.03	7.71611
1721.55	7.38
1723.07	6.60427
1724.58	6.02492
1726.1	5.62462
1727.62	4.82813
1729.13	4.08835
1730.65	3.99133
1732.17	3.23729
1733.68	3.7132
1735.2	3.5114
1736.72	3.39793
1738.23	4.04313
1739.74	3.6316
1741.26	3.81827
1742.77	3.58981
1744.29	3.21498
1745.8	2.89164
1747.32	3.08936
1748.83	3.39819
1750.34	3.52975
1751.85	3.43508
1753.37	3.5878
1754.88	3.62371
1756.39	3.93261
1757.9	4.37305
1759.41	4.27062
1760.92	4.52639
1762.44	5.18382
1763.95	4.49032
1765.46	4.14977
1766.96	4.53464
1768.47	5.04095
1769.98	5.31936
1771.49	4.93246
1773	5.04084
1774.51	5.45189
1776.02	5.60791
1777.53	5.37149
1779.03	5.33967
1780.54	5.33359
1782.05	5.53058
1783.55	5.27524
1785.06	4.88345
1786.57	4.93077
1788.07	4.67529
1789.58	4.38587
1791.08	4.42674
1792.59	4.47549
1794.09	4.49791
1795.6	4.11735
1797.1	4.16652
1798.61	3.86782
1800.11	4.22597
1801.61	4.00111
1803.12	3.53079
1804.62	3.24366
1806.12	2.85977
1807.62	2.36662
1809.12	2.22442
1810.63	1.68857
1812.13	1.96365
1813.63	2.26794
1815.13	1.79454
1816.63	1.55199
1818.13	1.32385
1819.63	1.51668
1821.13	1.7252
1822.63	2.01186
1824.13	2.20927
1825.63	2.48682
1827.13	2.31906
1828.62	2.16844
1830.12	2.08525
1831.62	2.08604
1833.12	1.70226
1834.61	1.72407
1836.11	2.20893
1837.61	2.20303
1839.1	2.50126
1840.6	2.9293
1842.09	3.28014
1843.59	3.75839
1845.09	4.02303
1846.58	4.16071
1848.08	4.5543
1849.57	4.9669
1851.06	4.9076
1852.56	4.59992
1854.05	4.6377
1855.54	4.62048
1857.04	4.52052
1858.53	4.24668
1860.02	4.14942
1861.51	3.91755
1863.01	4.03153
1864.5	3.92447
1865.99	3.88807
1867.48	3.78738
1868.97	3.40496
1870.46	3.09935
1871.95	3.10636
1873.44	2.77083
1874.93	2.83529
1876.42	2.52197
1877.91	2.55707
1879.4	2.75706
1880.89	2.12041
1882.37	2.47318
1882.46	2.40503
1883.95	2.50105
1885.45	2.88062
1886.94	2.258
1888.43	1.76196
1889.93	1.74579
1891.42	1.93121
1892.91	1.75368
1894.41	0.954792
1895.9	0.88468
1897.39	0.634698
1898.88	0.628855
1900.37	0.794107
1901.86	1.12044
1903.36	1.67535
1904.85	2.43471
1906.34	2.75813
1907.83	3.44579
1909.32	3.89145
1910.81	3.84949
1912.29	3.66059
1913.78	3.70275
1915.27	3.98963
1916.76	4.05358
1918.25	4.214
1919.74	4.14465
1921.23	4.2579
1922.71	4.16317
1924.2	4.1739
1925.69	4.36847
1927.17	4.5179
1928.66	4.53029
1930.15	4.51211
1931.63	4.06983
1933.12	4.10668
1934.6	4.30262
1936.09	4.73496
1937.57	4.44934
1939.06	4.57335
1940.54	4.91442
1942.02	4.93665
1943.51	5.25318
1944.99	5.40084
1946.47	5.18629
1947.96	5.299
1949.44	5.43501
1950.92	5.63814
1952.4	5.1139
1953.88	5.26655
1955.37	5.96374
1956.85	6.23554
1958.33	6.56053
1959.81	6.17307
1961.29	6.09921
1962.77	6.44702
1964.25	6.60411
1965.73	6.64563
1967.21	6.73546
1968.69	7.37225
1970.16	7.9973
1971.64	8.37127
1973.12	9.37537
1974.6	10.2703
1976.08	10.659
1977.55	11.0889
1979.03	10.9047
1980.51	10.826
1981.98	10.5486
1983.46	10.5392
1984.94	10.2687
1986.41	10.1395
1987.89	10.2204
1989.36	10.3233
1990.84	9.94876
1992.31	10.022
1993.79	9.88617
1995.26	9.79677
1996.73	9.33943
1998.21	9.35423
1999.68	9.07611
2001.15	8.64176
2002.63	8.1672
2004.1	7.75252
2005.57	6.83102
2007.04	6.81947
2008.51	7.04732
2009.99	7.14734
2011.46	7.36216
2012.93	7.53025
2014.4	7.20511
2015.87	7.23565
2017.34	7.28171
2018.81	7.27382
2020.28	7.14632
2021.75	6.58322
2023.21	6.41962
2024.68	6.17707
2026.15	6.07483
2027.62	6.93888
2029.09	6.92588
2030.56	7.10829
2032.02	7.49273
2033.49	7.68341
2034.96	8.33104
2036.42	8.61084
2037.89	8.99941
2039.36	9.43003
2040.82	9.89612
2042.29	10.2003
2043.75	9.85905
2045.22	10.3563
2046.68	10.6785
2048.14	10.7164
2049.61	10.661
2051.07	10.8785
2052.54	10.7529
2054	10.9301
2055.46	10.2925
2056.93	10.2699
2058.39	9.76254
2059.85	9.83723
2061.31	9.95318
2062.77	10.4241
2064.23	10.2916
2065.7	10.0336
2067.16	9.63461
2068.62	9.22723
2070.08	9.26549
2071.54	9.15375
2073	9.13809
2074.46	9.45209
2075.92	9.59916
2077.38	9.96722
2078.83	10.009
2080.29	11.0314
2081.75	11.5637
2083.21	11.6608
2084.67	11.514
2086.12	11.491
2087.58	11.702
2089.04	12.049
2090.49	11.5169
2091.95	11.2946
2093.41	11.167
2094.86	11.8698
2096.32	12.959
2097.77	13.6836
2099.23	14.4215
2100.68	15.2486
2102.14	15.4239
2103.59	16.6015
2105.05	17.2193
2106.5	17.1893
2107.95	17.4831
2109.41	17.4375
2110.86	16.6953
2112.31	16.8215
2113.76	16.735
2115.21	17.0021
2116.67	17.1867
2118.12	17.4042
2119.57	17.894
2121.02	18.5666
2122.47	19.2028
2123.92	19.641
2125.37	19.8107
2126.82	19.9757
2128.27	20.4664
2129.72	21.6071
2131.17	22.4147
2132.62	23.5157
2134.07	23.8634
