#Acq. time (s)=	45
#Accumulations=	2
#Range (cm-¹)=	200...3150
#Windows=	2
#Auto scanning=	Off
#Autofocus=	Off
#Macrospot=	Off
#AutoExposure=	Off
#Spike filter=	Multiple accum.
#Delay time (s)=	0
#Binning=	1
#Readout mode=	Signal
#DeNoise=	Off
#ICS correction=	On
#Dark correction=	Off
#Inst. Process=	Off
#Detector Gain=	Best Dynamic Range
#Detector ADC=	20 kHz       
#Detector temperature (°C)=	-69.85
#Instrument=	LabRAM HR Evol
#Detector=	Synapse
#Objective=	x100
#Grating=	600 gr/mm
#ND Filter=	100%
#Laser (nm)=	532 
#Hole=	100.021
#Range=	Auto
#Laser Pol.=	No
#Raman. Pol.=	No
#Laser Pol. (°)=	-0.0007625
#Raman Pol. (°)=	89.9995
#Collection=	Microscope
#StageXY=	Marzhauser
#StageZ=	Marzhauser
#X (µm)=	2160.3
#Y (µm)=	1252.2
#Z (µm)=	443.4
#Full time(mm:ss)=	3:18
#Project=	
#Sample=	
#Site=	
#Title=	Thy_10_08_07_2x_45s_532 nm_x100_100%_600 gr_mm
#Remark=	
#Date=	05.07.2022 14:40
#Acquired=	05.07.2022 14:40:38
#Base:Fit=	10.08.2022 09:45:33
#Base:Fit=	10.08.2022 09:46:03
#Base:Fit=	10.08.2022 09:46:25
#Base:Sub=	10.08.2022 09:46:49
#Filter:Polynom=	16.08.2022 10:24:56
#AxisType[0]=Intens
#AxisUnit[0]=Cnt
#AxisType[1]=Spectr
#AxisUnit[1]=1/cm
200.43	14.169
202.244	12.6204
204.059	10.3884
205.873	8.91795
207.688	7.4724
209.501	6.57029
211.314	5.98047
213.127	5.4244
214.941	4.36434
216.753	3.99096
218.564	4.35689
220.375	3.93726
222.186	4.43627
223.999	3.84933
225.809	3.04343
227.618	3.12284
229.428	2.2192
231.236	2.64756
233.045	2.24368
234.855	1.81174
236.663	2.35266
238.471	2.23823
240.278	2.16804
242.085	1.82014
243.891	2.09541
245.698	1.82939
247.503	2.83028
249.309	3.53267
251.116	3.92597
252.921	4.20018
254.725	4.55152
256.529	4.8973
258.333	5.11859
260.136	5.68513
261.939	5.45004
263.742	5.67841
265.544	5.12115
267.346	5.02476
269.148	5.46165
270.949	5.67428
272.75	6.45858
274.55	6.75274
276.351	7.06085
278.15	6.23993
279.95	6.65986
281.749	6.16382
283.548	6.50909
285.346	6.38569
287.144	6.90239
288.942	7.09657
290.739	7.29694
292.536	7.8839
294.333	9.62267
296.129	10.0693
297.925	10.5771
299.721	10.7324
301.514	10.8368
303.309	10.9295
305.104	11.3206
306.898	12.4409
308.692	12.7451
310.486	12.4171
312.279	12.8281
314.072	12.6271
315.862	13.3205
317.654	13.5271
319.446	13.8588
321.238	14.4361
323.029	14.8044
324.819	15.285
326.608	16.1049
328.398	15.7586
330.188	15.7396
331.977	16.1166
333.766	15.9554
335.553	15.9922
337.341	17.0318
339.129	16.2749
340.917	16.0537
342.704	16.2302
344.489	16.7575
346.275	16.3406
348.062	15.9223
349.845	15.4438
351.631	15.4618
353.416	15.1466
355.201	14.5885
356.984	14.7333
358.768	14.876
360.552	14.6865
362.333	14.6157
364.116	14.2873
365.899	14.2262
367.68	14.4353
369.462	14.2212
371.243	13.9884
373.023	13.8471
374.804	13.7403
376.585	13.9636
378.363	13.8806
380.143	13.6614
381.923	14.3264
383.7	14.8807
385.479	14.021
387.256	14.1536
389.034	13.8689
390.812	13.3672
392.588	13.9309
394.365	13.8291
396.14	13.5114
397.916	13.33
399.691	13.434
401.467	12.4024
403.24	12.2337
405.015	11.498
406.788	10.733
408.563	10.9265
410.335	10.5927
412.109	10.9107
413.88	10.0867
415.654	9.82131
417.424	8.64284
419.197	8.12034
420.967	7.94553
422.739	7.76881
424.508	8.21809
426.279	7.87369
428.048	6.87359
429.819	7.06079
431.587	6.70045
433.356	6.3141
435.124	5.56534
436.891	5.79068
438.66	6.00098
440.426	7.13182
442.194	6.33581
443.96	6.81708
445.725	6.76834
447.492	6.36866
449.257	6.98485
451.021	7.04023
452.787	7.46653
454.551	7.91701
456.314	7.81598
458.079	8.70116
459.842	9.02703
461.604	9.23695
463.368	9.85237
465.13	10.5101
466.891	11.4768
468.654	11.6648
470.415	12.2642
472.175	12.8423
473.935	12.8657
475.696	12.9479
477.456	12.9868
479.215	14.0475
480.973	14.8968
482.733	14.9771
484.491	15.0863
486.249	15.597
488.006	16.3959
489.765	15.8703
491.522	16.9011
493.278	17.5736
495.034	18.45
496.789	18.8629
498.544	19.5519
500.301	19.6968
502.056	19.1447
503.81	19.3536
505.564	19.3219
507.317	19.3889
509.071	19.6289
510.825	19.9904
512.578	20.0338
514.33	19.8792
516.082	19.2254
517.833	19.1088
519.585	18.6097
521.335	18.8051
523.086	18.5107
524.836	18.2662
526.586	18.0195
528.335	17.2919
530.085	15.8172
531.835	15.5322
533.584	15.388
535.332	15.5594
537.08	15.9045
538.827	15.1527
540.574	15.3686
542.321	15.0362
544.068	14.9562
545.814	14.973
547.56	13.9975
549.305	14.378
551.05	14.1652
552.795	14.3468
554.54	13.9844
556.282	13.816
558.025	13.8835
559.769	14.0079
561.512	13.6186
563.255	13.7371
564.997	14.2967
566.739	14.3744
568.481	13.9092
570.223	13.4504
571.964	12.7739
573.705	12.7037
575.443	12.2884
577.183	10.9932
578.923	10.4935
580.663	10.4566
582.402	9.53885
584.141	8.68838
585.879	8.37577
587.615	7.38142
589.353	7.07868
591.09	7.42829
592.828	7.39441
594.564	6.80059
596.299	6.84317
598.035	6.83836
599.771	6.67301
601.506	5.83066
603.242	4.94646
604.974	5.41524
606.709	5.45093
608.443	5.56995
610.177	5.51453
611.908	5.35737
613.642	5.51717
615.374	5.29617
617.105	5.73853
618.837	5.74707
620.569	6.5852
622.3	6.63326
624.03	6.40516
625.761	7.07967
627.491	7.78239
629.219	9.0615
630.949	10.8199
632.677	12.2172
634.406	12.6846
636.135	12.9438
637.861	12.9313
639.59	14.015
641.318	14.718
643.043	15.8446
644.77	16.3035
646.495	16.6484
648.222	17.3776
649.948	18.8343
651.672	19.6187
653.398	19.6437
655.121	20.0179
656.846	19.7499
658.569	20.7695
660.293	21.3733
662.015	21.8037
663.738	22.0833
665.46	22.9424
667.183	24.5108
668.903	24.9273
670.626	25.5914
672.346	26.9566
674.067	27.1405
675.787	28.0742
677.508	28.8334
679.226	28.6631
680.947	28.509
682.665	29.1891
684.385	29.7411
686.102	29.6931
687.821	30.3048
689.538	30.4305
691.254	31.3006
692.972	31.7718
694.688	32.7185
696.406	33.1003
698.121	33.1239
699.835	33.8088
701.552	34.2057
703.266	34.3195
704.98	35.3302
706.695	36.2992
708.409	36.7649
710.121	37.5759
711.836	38.8335
713.548	39.7504
715.26	40.5941
716.973	40.7908
718.685	41.5305
720.396	42.2687
722.108	43.6054
723.818	44.9048
725.528	46.3871
727.238	46.2393
728.949	47.1428
730.658	48.1685
732.367	48.7386
734.075	49.698
735.785	50.5784
737.493	51.4846
739.2	51.8039
740.907	52.7667
742.614	53.5973
744.322	54.5257
746.028	55.5496
747.734	56.1447
749.439	57.9802
751.144	59.2602
752.849	60.6557
754.555	60.9831
756.26	61.9056
757.963	63.0301
759.667	63.0017
761.37	64.7404
763.073	64.8189
764.775	64.9526
766.477	65.6984
768.179	66.8439
769.883	66.7745
771.584	68.474
773.285	69.337
774.986	69.9095
776.686	71.4443
778.386	72.2967
780.085	73.4653
781.785	73.9807
783.484	75.3719
785.182	76.1015
786.881	77.1476
788.579	77.8511
790.276	78.7393
791.974	78.5794
793.671	78.8879
795.367	79.8707
797.064	80.109
798.76	81.2737
800.456	82.2614
802.151	83.7379
803.846	84.5512
805.541	84.4313
807.234	84.4952
808.928	84.0581
810.622	84.0328
812.315	83.817
814.008	84.1194
815.701	84.298
817.394	84.0484
819.086	84.391
820.778	84.4097
822.468	84.2426
824.159	83.8536
825.85	83.4362
827.541	82.6223
829.231	82.0874
830.921	81.8372
832.609	81.5538
834.298	82.0074
835.987	80.958
837.676	80.1539
839.364	78.4334
841.051	77.4015
842.738	76.2537
844.426	74.5225
846.113	73.5999
847.798	71.4375
849.484	70.0215
851.171	68.8376
852.857	67.7003
854.54	65.7857
856.226	65.6907
857.911	63.5024
859.593	63.2097
861.278	62.2916
862.961	61.2467
864.645	60.4622
866.327	59.8904
868.01	59.0677
869.692	57.7575
871.373	57.1035
873.055	56.091
874.735	55.331
876.416	54.9399
878.097	55.309
879.776	55.4621
881.457	54.366
883.135	54.97
884.815	54.28
886.495	54.1701
888.172	54.0263
889.851	53.9067
891.528	53.6361
893.206	53.0094
894.882	53.0953
896.56	52.7294
898.237	52.7171
899.912	52.6023
901.589	52.3819
903.263	52.0971
904.94	52.1879
906.614	51.8389
908.289	51.7417
909.962	51.3372
911.635	51.3218
913.31	52.0613
914.982	51.5091
916.656	51.9625
918.328	51.9496
920.001	50.9948
921.672	50.1728
923.345	49.5365
925.015	49.6883
926.685	49.4298
928.357	48.5573
930.026	48.1953
931.698	47.4074
933.366	46.8623
935.035	46.3966
936.705	45.6566
938.373	44.9331
940.041	44.7743
941.71	44.5494
943.377	44.2959
945.044	43.8822
946.712	44.1297
948.378	44.071
950.044	44.6085
951.709	43.27
953.376	43.2385
955.041	43.5816
956.706	42.8247
958.372	41.7389
960.036	40.9958
961.699	40.423
963.362	39.542
965.027	38.9932
966.69	39.3169
968.352	39.498
970.014	40.0363
971.676	39.7787
973.339	39.9606
975	39.863
976.661	39.2004
978.322	39.4002
979.982	39.4895
981.642	38.993
983.303	38.1253
984.962	37.8449
986.621	36.6049
988.28	36.6034
989.938	35.665
991.596	35.1516
993.254	34.4414
994.911	33.7462
996.57	33.2705
998.227	32.0142
999.884	31.643
1001.54	31.0708
1003.2	29.4981
1004.85	28.4535
1006.51	28.4692
1008.16	28.2189
1009.82	27.5753
1011.47	27.307
1013.12	26.9229
1014.78	26.5891
1016.43	25.8634
1018.08	25.2729
1019.74	24.8405
1021.39	24.1963
1023.04	23.7629
1024.69	23.8376
1026.34	23.1492
1028	22.9006
1029.65	22.6858
1031.3	21.7783
1032.95	20.9425
1034.6	20.2189
1036.25	20.4759
1037.9	19.6348
1039.54	18.4374
1041.19	18.0908
1042.84	18.1438
1044.49	19.1059
1046.14	19.1604
1047.78	19.4307
1049.43	20.0217
1051.08	19.8863
1052.72	18.9447
1054.37	18.7071
1056.02	18.71
1057.66	16.7937
1059.31	15.1481
1060.95	15.1952
1062.6	14.4059
1064.24	12.8872
1065.88	12.7598
1067.53	11.8509
1069.17	11.3719
1070.81	11.5965
1072.45	11.0715
1074.1	10.7443
1075.74	10.0186
1077.38	10.0704
1079.02	9.64457
1080.66	8.9013
1082.3	9.29942
1083.94	9.21831
1085.58	9.04347
1087.22	10.226
1088.86	10.5682
1090.5	11.1402
1092.14	11.9806
1093.78	12.4887
1095.42	12.1063
1097.05	12.8216
1098.69	12.5133
1100.33	12.6341
1101.96	12.7261
1103.6	13.5903
1105.24	13.8665
1106.87	14.2295
1108.51	14.1779
1110.14	14.4014
1111.78	14.4307
1113.41	14.6451
1115.05	14.0178
1116.68	14.2276
1118.31	13.4099
1119.95	13.17
1121.58	13.3608
1123.21	12.9564
1124.85	12.1991
1126.48	11.7635
1128.11	10.7663
1129.74	10.2835
1131.37	9.71076
1133	8.72131
1134.63	8.67213
1136.26	8.63962
1137.89	7.08386
1139.52	5.80983
1141.15	6.05075
1142.78	6.38021
1144.41	6.20224
1146.04	5.24023
1147.66	4.9349
1149.29	3.42966
1150.92	3.0043
1152.55	2.1715
1154.17	1.45873
1155.8	1.13755
1157.43	1.22032
1159.05	1.59775
1160.68	0.997497
1162.3	1.08052
1163.93	1.44926
1165.55	0.9186
1167.17	1.07082
1168.8	1.18995
1170.42	0.856936
1172.05	2.20358
1173.67	2.33914
1175.29	1.85648
1176.91	1.64817
1178.54	2.24871
1180.16	2.54356
1181.78	3.12422
1183.4	3.96502
1185.02	4.71302
1186.64	3.73872
1188.26	4.08991
1189.88	4.11286
1191.5	4.32033
1193.12	4.90195
1194.74	5.79442
1196.36	5.30074
1197.97	5.32041
1199.59	5.2783
1201.21	5.78682
1202.83	5.87269
1204.44	5.66417
1206.06	6.9784
1207.68	8.03432
1209.29	9.10431
1210.91	10.44
1212.52	11.8466
1214.14	13.0177
1215.75	14.5835
1217.37	15.4689
1218.98	15.3705
1220.59	16.8922
1222.21	17.8323
1223.82	18.5525
1225.43	19.172
1227.05	19.6013
1228.66	20.592
1230.27	21.2815
1231.88	22.487
1233.49	23.3341
1235.1	23.8434
1236.72	24.9291
1238.33	26.4631
1239.94	26.5043
1241.55	26.2052
1243.16	27.0697
1244.76	27.3477
1246.37	28.0758
1247.98	28.988
1249.59	29.0468
1251.2	29.6112
1252.8	29.8378
1254.41	29.6838
1256.02	29.5984
1257.62	30.6249
1259.23	31.5855
1260.84	31.9815
1262.44	31.8091
1264.05	31.9287
1265.66	30.9889
1267.26	30.4244
1268.86	30.466
1270.47	30.1079
1272.07	30.0275
1273.67	30.6184
1275.28	30.1179
1276.88	29.3556
1278.48	30.2163
1280.09	31.2463
1281.69	31.6149
1283.29	32.878
1284.89	33.9363
1286.49	35.2297
1288.09	35.2057
1289.69	36.7195
1291.29	37.4879
1292.89	37.3522
1294.49	38.0897
1296.09	38.5398
1297.69	38.2403
1299.29	37.8497
1300.89	38.2085
1302.49	38.5227
1304.08	38.6376
1305.68	39.3766
1307.28	39.9919
1308.88	39.6794
1310.47	40.2767
1312.07	40.5863
1313.66	40.8733
1315.26	40.2946
1316.85	40.5911
1318.45	41.524
1320.04	41.1672
1321.64	41.5154
1323.23	42.266
1324.83	42.1945
1326.42	42.7195
1328.01	42.1346
1329.61	41.2271
1331.2	41.3454
1332.79	41.1679
1334.38	41.2399
1335.97	40.9261
1337.56	40.8703
1339.16	40.1751
1340.75	38.9317
1342.34	38.7527
1343.93	38.0707
1345.52	37.7017
1347.11	37.2601
1348.7	36.3349
1350.29	36.165
1351.87	35.7432
1353.46	36.0838
1355.05	35.0474
1356.64	35.0368
1358.22	35.3633
1359.81	33.9716
1361.4	33.3665
1362.98	32.8967
1364.57	32.0305
1366.16	31.1399
1367.74	30.1753
1369.33	29.16
1370.91	28.1463
1372.5	27.441
1374.08	27.1837
1375.67	26.2175
1377.25	25.128
1378.83	24.1163
1380.41	23.4099
1382	23.1241
1383.58	23.1311
1385.16	22.4805
1386.74	21.6671
1388.33	20.7689
1389.91	20.4308
1391.49	19.091
1393.07	18.0799
1394.65	17.2152
1396.23	16.987
1397.81	17.0116
1399.39	15.9057
1400.97	15.7704
1402.55	15.6165
1404.13	15.6373
1405.7	15.6301
1407.28	15.7897
1408.86	16.1005
1410.44	17.0845
1412.01	17.2769
1413.59	17.9421
1415.17	18.3616
1416.74	19.6118
1418.32	20.3504
1419.89	21.8646
1421.47	23.6097
1423.04	24.8008
1424.62	25.8736
1426.19	27.0345
1427.77	29.3021
1429.34	32.1318
1430.91	34.3036
1432.49	36.3824
1434.06	37.79
1435.63	40.0044
1437.2	41.0367
1438.78	41.6173
1440.35	42.926
1441.92	43.7897
1443.49	44.6482
1445.06	45.0985
1446.63	45.9592
1448.2	46.2791
1449.77	47.0217
1451.34	46.5167
1452.91	46.4384
1454.48	45.6551
1456.05	44.8498
1457.62	43.8127
1459.18	43.0193
1460.75	43.134
1462.32	42.3742
1463.89	40.8823
1465.45	40.1071
1467.02	38.228
1468.59	36.1095
1470.15	34.4199
1471.72	31.9296
1473.28	30.1345
1474.85	27.9724
1476.41	26.7969
1477.98	24.9636
1479.54	24.0359
1481.1	22.12
1482.67	20.5014
1484.23	18.68
1485.79	16.6059
1487.36	14.7904
1488.92	13.4939
1490.48	11.5652
1492.04	10.405
1493.61	9.99322
1495.17	8.99764
1496.73	7.84595
1498.29	6.85553
1499.85	5.98067
1501.41	5.83338
1502.97	5.68085
1504.53	5.54356
1506.09	5.80996
1507.65	5.18914
1509.2	3.82502
1510.76	3.03083
1512.32	2.79684
1513.88	2.49943
1515.43	1.73732
1516.99	1.6923
1518.55	1.43423
1520.1	2.08783
1521.66	2.51234
1523.22	3.45909
1524.77	3.88275
1526.33	3.82509
1527.88	4.52
1529.44	5.5635
1530.99	7.12987
1532.54	8.31232
1534.1	9.34692
1535.65	10.3451
1537.21	12.5462
1538.76	14.1428
1540.31	14.8658
1541.86	15.7542
1543.42	16.5851
1544.97	17.3617
1546.52	19.0485
1548.07	20.329
1549.62	21.2972
1551.17	23.1478
1552.72	24.167
1554.27	26.2169
1555.82	27.1295
1557.37	28.6183
1558.92	29.5243
1560.47	30.6122
1562.02	31.2018
1563.56	32.0356
1565.11	32.8125
1566.66	32.8528
1568.21	33.4858
1569.75	33.6657
1571.3	34.5149
1572.85	34.1776
1574.39	34.7306
1575.94	35.4542
1577.49	36.918
1579.03	37.4463
1580.57	38.1621
1582.12	37.9868
1583.66	38.6171
1585.21	38.5893
1586.75	39.2089
1588.3	39.9216
1589.84	40.6576
1591.38	40.846
1592.92	41.0065
1594.47	41.3978
1596.01	41.5385
1597.55	42.3696
1599.09	42.0834
1600.63	41.5937
1602.17	41.4984
1603.71	41.2657
1605.25	41.6157
1606.79	41.7018
1608.33	41.6542
1609.87	41.0777
1611.41	40.4827
1612.95	40.8342
1614.49	41.3676
1616.03	40.4216
1617.57	40.6355
1619.1	40.8542
1620.64	40.5315
1622.18	40.3238
1623.72	40.1978
1625.25	39.8482
1626.79	40.1181
1628.32	40.2028
1629.86	40.7099
1631.39	41.8457
1632.93	41.8337
1634.46	41.5324
1636	41.8386
1637.53	41.4592
1639.07	41.4089
1640.6	41.7149
1642.13	41.376
1643.67	42.3435
1645.2	43.4539
1646.73	44.2855
1648.26	45.3292
1649.8	45.6413
1651.33	46.0971
1652.86	46.6341
1654.39	46.986
1655.92	46.827
1657.45	47.3406
1658.98	47.5965
1660.51	48.2147
1662.04	47.4591
1663.57	47.3716
1665.1	47.0592
1666.63	46.7673
1668.16	45.8303
1669.68	45.2326
1671.21	44.6516
1672.74	43.6504
1674.27	42.9993
1675.79	41.5365
1677.32	39.7475
1678.85	38.8237
1680.37	37.1049
1681.9	36.0269
1683.42	34.2733
1684.95	32.4516
1686.47	30.6382
1688	29.1633
1689.52	27.4446
1691.05	25.1958
1692.57	23.6457
1694.09	22.0182
1695.62	20.0508
1697.14	18.0633
1698.66	16.9759
1700.18	15.8893
1701.71	15.6887
1703.23	14.9144
1704.75	13.9694
1706.27	13.1684
1707.79	12.0801
1709.31	10.8953
1710.83	9.4297
1712.35	9.43242
1713.87	7.91397
1715.39	7.38085
1716.91	6.61737
1718.43	5.73504
1719.95	6.00841
1721.47	5.41077
1722.99	4.86991
1724.5	4.47455
1726.02	4.63178
1727.54	4.92135
1729.06	5.15509
1730.57	5.24545
1732.09	5.15641
1733.61	5.36479
1735.12	5.64414
1736.64	5.0109
1738.15	4.56853
1739.67	5.37978
1741.18	5.6971
1742.7	5.49448
1744.21	5.64144
1745.72	5.86818
1747.24	5.45364
1748.75	5.17768
1750.26	5.19762
1751.77	4.5223
1753.29	4.2764
1754.8	4.31262
1756.31	4.04747
1757.82	3.96869
1759.33	3.70488
1760.84	3.60548
1762.36	3.73459
1763.87	3.3747
1765.38	3.21203
1766.89	3.71508
1768.4	4.1172
1769.91	3.78616
1771.41	3.80251
1772.92	3.8421
1774.43	3.68589
1775.94	3.76706
1777.45	3.87802
1778.95	3.08637
1780.46	2.59796
1781.97	2.40586
1783.48	2.42154
1784.98	2.46798
1786.49	2.30892
1787.99	2.40034
1789.5	1.84589
1791.01	1.94488
1792.51	1.92304
1794.01	1.88673
1795.52	2.1081
1797.02	2.05619
1798.53	2.56986
1800.03	3.11778
1801.53	2.94701
1803.04	2.47516
1804.54	1.96108
1806.04	1.39512
1807.54	1.01665
1809.05	0.944106
1810.55	0.943266
1812.05	0.81345
1813.55	1.45804
1815.05	1.61654
1816.55	1.75066
1818.05	1.74171
1819.55	1.80649
1821.05	1.71937
1822.55	1.42053
1824.05	1.77978
1825.55	1.51469
1827.05	1.15122
1828.55	1.27367
1830.04	1.33406
1831.54	1.16595
1833.04	1.33896
1834.54	1.26204
1836.03	1.33489
1837.53	1.32987
1839.03	1.15541
1840.52	0.975
1842.02	1.43629
1843.51	0.883451
1845.01	0.507474
1846.5	0.0231892
1848	-0.0362516
1849.49	-0.0817947
1850.99	0.227659
1852.48	0.181643
1853.97	0.224434
1855.47	0.53124
1856.96	0.707345
1858.45	0.563254
1859.94	0.721553
1861.44	0.768822
1862.93	0.667608
1864.42	0.446882
1865.91	0.413535
1867.4	0.45512
1868.89	0.454525
1870.38	1.05618
1871.87	1.2636
1873.36	1.31777
1874.85	1.4558
1876.34	1.32075
1877.83	1.2451
1879.32	1.42346
1880.81	1.44858
1882.3	1.79993
1882.57	1.91603
1884.07	2.77004
1885.56	2.95435
1887.06	3.28787
1888.55	3.26102
1890.04	3.11853
1891.54	3.34363
1893.03	2.92597
1894.52	3.01007
1896.02	2.91734
1897.51	3.37967
1899	3.38329
1900.49	3.44794
1901.98	3.8582
1903.47	3.72823
1904.96	3.21379
1906.45	3.91537
1907.94	3.96538
1909.43	3.72328
1910.92	3.67739
1912.41	2.8167
1913.9	2.4757
1915.39	2.69589
1916.88	2.25762
1918.37	2.05905
1919.85	2.22112
1921.34	2.26996
1922.83	2.18267
1924.32	2.16452
1925.8	1.85665
1927.29	2.1941
1928.78	1.93875
1930.26	1.68066
1931.75	1.46268
1933.23	1.91997
1934.72	1.50342
1936.2	1.6963
1937.69	1.59307
1939.17	1.93296
1940.66	2.04777
1942.14	2.40512
1943.63	2.82299
1945.11	2.95147
1946.59	3.14137
1948.07	3.47244
1949.56	3.27906
1951.04	3.85204
1952.52	3.97585
1954	3.99758
1955.48	4.43936
1956.96	4.0822
1958.45	3.67923
1959.93	3.08276
1961.41	3.32887
1962.89	2.91005
1964.37	2.86191
1965.85	2.86798
1967.32	2.71135
1968.8	3.65172
1970.28	4.13597
1971.76	4.21948
1973.24	4.1602
1974.72	4.44652
1976.19	4.63907
1977.67	4.40799
1979.15	3.85772
1980.63	4.37266
1982.1	4.02234
1983.58	3.80684
1985.05	3.19566
1986.53	2.46902
1988	2.9779
1989.48	3.23814
1990.95	3.09127
1992.43	3.61904
1993.9	3.81703
1995.38	3.84161
1996.85	3.78372
1998.32	3.94546
1999.8	4.46483
2001.27	4.65056
2002.74	3.82096
2004.22	3.81592
2005.69	4.40884
2007.16	4.82716
2008.63	4.60583
2010.1	5.16433
2011.57	5.28976
2013.04	5.43784
2014.51	5.79677
2015.98	6.15112
2017.45	7.06325
2018.92	7.70017
2020.39	7.65773
2021.86	7.68615
2023.33	8.23954
2024.8	8.89475
2026.27	8.98143
2027.74	8.83349
2029.2	8.89242
2030.67	8.74189
2032.14	9.23919
2033.61	9.83224
2035.07	10.2925
2036.54	10.3646
2038.01	10.4872
2039.47	10.6475
2040.94	11.4186
2042.4	12.0203
2043.87	11.5485
2045.33	11.2149
2046.8	11.4375
2048.26	11.3545
2049.72	11.0981
2051.19	10.3346
2052.65	10.0598
2054.12	10.8352
2055.58	10.8225
2057.04	10.3474
2058.5	10.4176
2059.97	11.5623
2061.43	12.0721
2062.89	12.1849
2064.35	12.7506
2065.81	13.5438
2067.27	13.6679
2068.73	14.0139
2070.19	13.4134
2071.65	13.2547
2073.11	13.2017
2074.57	13.0304
2076.03	13.2318
2077.49	13.9596
2078.95	13.7502
2080.41	13.283
2081.87	13.2627
2083.32	13.2949
2084.78	13.3978
2086.24	12.935
2087.7	13.7134
2089.15	13.797
2090.61	13.9766
2092.07	13.3775
2093.52	12.9202
2094.98	13.1566
2096.43	13.6558
2097.89	13.401
2099.34	12.9218
2100.8	12.9807
2102.25	12.8388
2103.71	12.5596
2105.16	11.9349
2106.61	11.4336
2108.07	11.5935
2109.52	11.1645
2110.97	10.6536
2112.43	11.2508
2113.88	11.6012
2115.33	11.6681
2116.78	11.5834
2118.23	11.7048
2119.68	12.2874
2121.13	12.6514
2122.59	12.3734
2124.04	12.023
2125.49	12.8159
2126.94	13.4213
2128.39	13.6868
