#Acq. time (s)=	45
#Accumulations=	2
#Range (cm-¹)=	200...3150
#Windows=	2
#Auto scanning=	Off
#Autofocus=	Off
#Macrospot=	Off
#AutoExposure=	Off
#Spike filter=	Multiple accum.
#Delay time (s)=	0
#Binning=	1
#Readout mode=	Signal
#DeNoise=	Off
#ICS correction=	On
#Dark correction=	Off
#Inst. Process=	Off
#Detector Gain=	Best Dynamic Range
#Detector ADC=	20 kHz       
#Detector temperature (°C)=	-69.85
#Instrument=	LabRAM HR Evol
#Detector=	Synapse
#Objective=	x100
#Grating=	600 gr/mm
#ND Filter=	100%
#Laser (nm)=	532 
#Hole=	100.021
#Range=	Auto
#Laser Pol.=	No
#Raman. Pol.=	No
#Laser Pol. (°)=	-0.0007625
#Raman Pol. (°)=	89.9995
#Collection=	Microscope
#StageXY=	Marzhauser
#StageZ=	Marzhauser
#X (µm)=	-5092.6
#Y (µm)=	1508.7
#Z (µm)=	63.1
#Full time(mm:ss)=	3:18
#Project=	
#Sample=	
#Site=	
#Title=	Thy_50_12_06_2x_45s_532 nm_x100_100%_600 gr_mm
#Remark=	
#Date=	07.07.2022 09:39
#Acquired=	07.07.2022 09:39:30
#Base:Fit=	10.08.2022 10:03:08
#Base:Fit=	10.08.2022 10:03:15
#Base:Fit=	10.08.2022 10:03:19
#Base:Fit=	10.08.2022 10:04:29
#Base:Sub=	10.08.2022 10:04:45
#Filter:Polynom=	16.08.2022 10:20:24
#AxisType[0]=Intens
#AxisUnit[0]=Cnt
#AxisType[1]=Spectr
#AxisUnit[1]=1/cm
200.43	16.7642
202.246	17.5402
204.061	19.2505
205.875	19.0074
207.688	18.7247
209.501	17.3663
211.316	16.2976
213.129	15.2723
214.941	14.6528
216.753	13.9797
218.566	13.4239
220.377	13.1699
222.188	12.2669
223.999	11.2304
225.809	10.9757
227.618	10.6286
229.43	10.7516
231.239	9.73409
233.047	8.4667
234.855	8.67965
236.663	7.8924
238.471	7.49522
240.278	6.54137
242.087	7.05674
243.894	6.19798
245.7	6.52615
247.506	5.51604
249.311	4.678
251.116	3.86404
252.921	2.73671
254.725	1.82142
256.529	1.95617
258.333	2.38315
260.136	1.9129
261.939	2.74581
263.744	3.25085
265.546	3.66504
267.348	4.10118
269.15	3.6908
270.951	4.19961
272.752	4.44487
274.552	4.9805
276.353	4.52556
278.152	4.29669
279.952	4.14169
281.751	5.20508
283.55	5.12855
285.348	4.34194
287.146	4.31388
288.942	3.77548
290.739	5.05692
292.536	4.72221
294.333	3.88888
296.129	4.45029
297.925	3.79651
299.721	4.19796
301.516	6.43688
303.311	6.14572
305.106	5.68108
306.9	6.19354
308.694	6.05718
310.486	6.77091
312.279	6.26158
314.072	6.34818
315.864	6.80433
317.656	6.80496
319.448	5.90429
321.24	5.62035
323.029	6.60997
324.819	7.24676
326.61	6.71184
328.4	6.84361
330.19	6.83789
331.977	7.27188
333.766	6.77627
335.555	7.75178
337.343	7.08332
339.131	6.78219
340.917	6.95871
342.704	6.94928
344.491	7.13358
346.277	7.60971
348.062	7.09562
349.848	7.0682
351.633	6.83424
353.416	6.0862
355.201	5.43136
356.986	5.15385
358.77	5.57876
360.552	6.23061
362.335	6.55861
364.118	5.88694
365.899	5.63068
367.682	6.26266
369.464	4.91151
371.243	5.1511
373.025	5.5599
374.806	5.85404
376.585	5.69302
378.365	6.15071
380.143	5.28518
381.923	5.58141
383.702	5.26766
385.479	6.01641
387.258	5.4141
389.034	5.63717
390.812	5.65995
392.59	5.19578
394.365	4.77476
396.142	5.92367
397.916	5.3335
399.693	5.72751
401.467	5.03828
403.242	4.22978
405.015	4.38273
406.79	4.4101
408.565	4.12768
410.337	4.80739
412.111	4.79024
413.882	3.3736
415.656	2.94437
417.426	3.2817
419.197	3.41064
420.969	3.24461
422.739	3.35743
424.51	3.33292
426.279	2.58849
428.05	2.12968
429.819	1.77676
431.589	1.69656
433.356	1.16044
435.124	1.44709
436.893	2.24768
438.66	3.18257
440.428	3.02821
442.194	2.98363
443.96	3.10219
445.727	3.66284
447.492	4.28067
449.259	4.10409
451.023	4.30485
452.787	4.57225
454.553	7.00521
456.316	7.94157
458.079	7.27262
459.844	9.86931
461.606	11.4418
463.368	11.9408
465.132	13.3793
466.893	15.2758
468.654	16.051
470.415	17.783
472.177	18.9011
473.937	19.7581
475.696	19.658
477.456	20.8838
479.217	21.0454
480.975	22.5854
482.733	23.3215
484.491	24.4911
486.251	24.8749
488.008	25.6281
489.765	25.7392
491.522	26.8642
493.278	28.5891
495.036	29.309
496.791	30.2968
498.546	30.3068
500.301	31.8817
502.056	32.269
503.81	33.5365
505.566	35.0622
507.319	34.9695
509.073	35.3073
510.825	36.3143
512.578	36.6806
514.33	36.2421
516.082	36.2567
517.833	35.851
519.587	36.5314
521.337	36.4687
523.088	35.9214
524.838	35.7442
526.588	34.3028
528.337	33.0085
530.087	32.8451
531.835	32.4685
533.584	32.2831
535.332	32.4758
537.08	32.1131
538.827	31.511
540.574	31.8877
542.321	32.2985
544.068	31.3855
545.814	31.1407
547.56	30.5223
549.305	29.7706
551.05	28.3938
552.795	28.158
554.54	27.3117
556.284	24.9666
558.027	24.1093
559.771	22.8783
561.514	20.6873
563.257	19.3242
564.999	19.0061
566.742	18.3085
568.481	17.5303
570.223	16.9294
571.964	16.0258
573.705	14.7074
575.445	14.0796
577.185	14.0797
578.925	15.2334
580.665	15.252
582.402	14.5981
584.141	14.6242
585.879	14.5939
587.617	15.5539
589.355	14.5591
591.092	13.8244
592.828	13.0698
594.564	11.9889
596.301	11.5354
598.037	12.2492
599.773	12.4217
601.506	12.7545
603.242	13.2792
604.976	13.3898
606.711	14.3161
608.443	14.349
610.177	13.9995
611.91	14.8188
613.644	14.1283
615.374	15.2788
617.107	16.9508
618.839	17.5796
620.569	18.5551
622.3	18.5025
624.032	17.777
625.761	19.0951
627.491	21.2596
629.221	22.2362
630.949	23.2121
632.679	24.0999
634.408	24.0978
636.135	25.1012
637.863	25.7148
639.592	26.7425
641.318	26.9165
643.045	26.2697
644.77	27.0504
646.497	27.2259
648.224	27.1528
649.948	28.0067
651.674	29.3774
653.398	29.6559
655.123	29.3252
656.846	30.2461
658.57	30.1739
660.293	30.4275
662.017	32.1251
663.738	33.1557
665.462	33.8095
667.185	33.7792
668.905	32.1987
670.628	33.2672
672.348	33.3128
674.067	32.9709
675.789	32.8523
677.508	32.8575
679.228	34.0245
680.947	35.6646
682.667	37.4785
684.385	38.9562
686.104	40.3936
687.821	40.2265
689.538	40.8758
691.256	41.5414
692.972	42.2163
694.69	42.001
696.406	42.0872
698.121	42.6067
699.837	43.7009
701.552	45.2099
703.268	45.6372
704.982	46.2295
706.695	46.6178
708.41	47.6526
710.123	49.2339
711.836	51.5072
713.55	52.0249
715.262	52.6878
716.973	53.6112
718.685	54.6514
720.398	55.1189
722.108	55.2806
723.818	55.4127
725.53	56.0915
727.24	55.5877
728.949	57.5309
730.658	58.5942
732.369	60.0832
734.077	61.2049
735.785	63.3053
737.493	64.1064
739.2	64.6481
740.909	65.6255
742.616	67.5045
744.322	67.9532
746.028	70.0615
747.734	70.9752
749.441	72.1666
751.146	72.6429
752.851	72.9031
754.555	73.9806
756.26	76.0168
757.963	76.8467
759.667	79.0278
761.372	80.1766
763.075	81.1033
764.777	82.762
766.479	83.3511
768.181	84.855
769.883	85.1504
771.584	85.3205
773.285	85.1566
774.986	85.9236
776.686	85.7866
778.386	86.6546
780.085	86.9058
781.785	87.8843
783.484	88.2146
785.182	88.0811
786.881	88.0501
788.579	87.7977
790.276	88.1274
791.974	88.5974
793.671	89.14
795.367	89.0633
797.064	88.2243
798.76	87.8591
800.456	87.9711
802.151	87.7774
803.846	88.058
805.541	87.9813
807.236	86.6834
808.93	87.1818
810.624	88.3092
812.317	87.9809
814.01	89.0759
815.703	88.0802
817.394	88.6569
819.086	88.1714
820.778	87.5569
822.47	86.8018
824.161	87.5228
825.852	87.5858
827.543	87.8234
829.231	87.2472
830.921	87.0359
832.611	85.9581
834.3	85.7994
835.989	84.6074
837.676	83.9831
839.364	83.0121
841.053	81.2015
842.74	80.5083
844.426	80.0625
846.113	77.938
847.8	77.2447
849.486	76.1552
851.171	73.9646
852.857	72.7119
854.542	70.2957
856.227	69.1673
857.911	69.7703
859.595	69.2698
861.279	69.3521
862.961	68.8287
864.645	67.1019
866.329	66.3138
868.01	64.7192
869.692	64.3423
871.375	65.528
873.055	64.6725
874.737	63.8327
876.418	63.3747
878.097	62.797
879.778	62.4195
881.457	62.0735
883.137	62.0296
884.817	62.6967
886.495	62.4547
888.174	61.6857
889.851	60.3059
891.53	59.4026
893.206	59.5098
894.884	58.8187
896.562	57.5856
898.237	57.7891
899.914	57.2677
901.589	57.0874
903.265	56.4528
904.94	56.1616
906.615	56.3587
908.289	56.4481
909.964	56.5275
911.637	56.3154
913.31	54.635
914.984	52.7899
916.656	52.1654
918.33	51.1488
920.001	49.9641
921.674	48.4226
923.345	47.262
925.015	46.9306
926.687	45.2955
928.357	44.4854
930.028	43.0343
931.698	41.9008
933.366	39.9639
935.037	38.7033
936.705	39.527
938.373	40.0285
940.043	40.3382
941.71	40.1571
943.379	39.324
945.046	37.9477
946.712	37.2637
948.378	37.1906
950.046	38.9071
951.711	39.9179
953.376	40.2278
955.043	40.4459
956.708	38.9004
958.372	38.1932
960.036	38.8699
961.701	39.7239
963.364	40.479
965.027	40.5082
966.69	40.488
968.354	41.7205
970.016	41.0384
971.678	41.4811
973.339	42.2546
975	43.2103
976.661	43.4042
978.324	43.3616
979.984	43.628
981.644	43.5083
983.303	43.3044
984.962	43.6556
986.621	44.0865
988.282	44.0514
989.94	44.2901
991.598	44.1525
993.256	44.8534
994.913	44.6807
996.57	43.4873
998.227	43.5255
999.884	44.399
1001.54	43.7241
1003.2	43.1972
1004.85	43.4572
1006.51	44.3812
1008.16	43.5277
1009.82	43.0917
1011.47	44.627
1013.12	45.6282
1014.78	45.9401
1016.43	46.6816
1018.08	48.0887
1019.74	50.0034
1021.39	50.4306
1023.04	50.3807
1024.69	51.6167
1026.34	52.7229
1028	53.7082
1029.65	55.8302
1031.3	56.3835
1032.95	57.9262
1034.6	57.356
1036.25	56.72
1037.9	55.779
1039.55	55.5173
1041.19	55.3039
1042.84	56.2253
1044.49	57.1489
1046.14	56.3929
1047.79	55.3767
1049.43	55.5223
1051.08	55.4256
1052.73	54.4393
1054.37	53.9526
1056.02	51.9642
1057.66	50.8761
1059.31	49.0171
1060.95	47.9343
1062.6	46.725
1064.24	45.8393
1065.88	44.7534
1067.53	43.2058
1069.17	41.0308
1070.81	39.0208
1072.46	37.3129
1074.1	35.6482
1075.74	34.4105
1077.38	32.5037
1079.02	30.0792
1080.66	29.2145
1082.3	28.4586
1083.94	26.3675
1085.58	25.7437
1087.22	25.9898
1088.86	24.9921
1090.5	24.3796
1092.14	25.1665
1093.78	25.3115
1095.42	24.9205
1097.05	24.5197
1098.69	24.4885
1100.33	24.2692
1101.97	24.7823
1103.6	23.6117
1105.24	22.8517
1106.87	23.0505
1108.51	22.2371
1110.15	21.6839
1111.78	21.4222
1113.41	20.3524
1115.05	19.4735
1116.68	18.2907
1118.31	16.577
1119.95	15.1663
1121.58	15.0353
1123.21	14.2748
1124.85	14.4607
1126.48	13.4387
1128.11	11.3483
1129.74	11.5861
1131.37	11.3274
1133	10.4341
1134.63	9.88233
1136.26	8.92914
1137.89	7.7164
1139.52	7.69365
1141.15	6.98475
1142.78	6.8638
1144.41	5.38254
1146.04	4.7252
1147.66	3.08864
1149.29	1.88132
1150.92	1.23789
1152.55	0.714071
1154.17	-0.102283
1155.8	-0.859961
1157.43	-1.20918
1159.05	-1.64383
1160.68	-2.00841
1162.3	-2.00513
1163.93	-2.00195
1165.55	-2.48958
1167.17	-1.84854
1168.8	-0.0124008
1170.42	1.30858
1172.05	2.36903
1173.67	2.44901
1175.29	2.08637
1176.91	1.91676
1178.54	2.17617
1180.16	1.26673
1181.78	2.03875
1183.4	2.25938
1185.02	2.41131
1186.64	3.23458
1188.26	3.94908
1189.88	4.27265
1191.5	4.07597
1193.12	4.81068
1194.74	5.24295
1196.36	5.21775
1197.97	6.63401
1199.59	6.81189
1201.21	7.39547
1202.83	8.29844
1204.44	9.78878
1206.06	11.0427
1207.68	10.9596
1209.29	11.7232
1210.91	12.8542
1212.52	13.6166
1214.14	15.3207
1215.75	16.5118
1217.37	18.1609
1218.98	19.9485
1220.6	21.204
1222.21	23.1103
1223.82	24.2914
1225.44	25.8283
1227.05	27.5705
1228.66	28.9031
1230.27	30.322
1231.88	32.1918
1233.49	34.1728
1235.1	35.9821
1236.72	37.4798
1238.33	40.643
1239.94	42.6313
1241.55	44.7839
1243.16	47.3245
1244.76	49.1805
1246.37	51.42
1247.98	54.0008
1249.59	57.3968
1251.2	59.5543
1252.8	61.0855
1254.41	63.1656
1256.02	65.0062
1257.63	67.6061
1259.23	70.6156
1260.84	74.5405
1262.44	78.1522
1264.05	79.9658
1265.66	82.6469
1267.26	84.8856
1268.87	86.9944
1270.47	89.5017
1272.07	92.031
1273.68	94.7349
1275.28	97.1104
1276.88	98.1496
1278.48	100.913
1280.09	102.237
1281.69	103.295
1283.29	104.899
1284.89	106.022
1286.49	107.605
1288.09	107.236
1289.69	107.797
1291.3	107.517
1292.9	108.215
1294.49	108.776
1296.09	108.391
1297.69	108.641
1299.29	108.026
1300.89	107.322
1302.49	107.138
1304.09	105.922
1305.68	105.687
1307.28	104.707
1308.88	103.729
1310.47	103.662
1312.07	103.752
1313.66	102.422
1315.26	100.917
1316.86	100.161
1318.45	98.7932
1320.05	96.7798
1321.64	95.7807
1323.23	94.4272
1324.83	91.9852
1326.42	90.4408
1328.01	89.2845
1329.61	87.8366
1331.2	86.9136
1332.79	85.1382
1334.38	83.4531
1335.98	81.6645
1337.57	79.3753
1339.16	77.959
1340.75	76.3769
1342.34	73.9046
1343.93	71.8333
1345.52	70.6565
1347.11	68.7539
1348.7	66.7506
1350.29	64.8876
1351.87	63.2733
1353.46	61.2664
1355.05	59.0554
1356.64	56.8029
1358.23	56.6876
1359.81	54.0541
1361.4	52.0303
1362.99	50.5294
1364.57	49.0546
1366.16	47.9264
1367.74	46.1382
1369.33	45.8408
1370.91	44.0474
1372.5	44.3948
1374.08	43.6688
1375.67	43.4275
1377.25	43.4965
1378.83	43.5032
1380.42	43.0071
1382	43.0573
1383.58	43.6559
1385.16	44.3471
1386.75	44.9695
1388.33	45.3706
1389.91	45.7189
1391.49	45.9773
1393.07	45.2196
1394.65	45.8391
1396.23	45.2509
1397.81	44.3599
1399.39	45.0325
1400.97	45.1153
1402.55	44.9971
1404.13	44.9118
1405.7	46.1698
1407.28	47.0858
1408.86	48.4805
1410.44	50.4846
1412.01	50.8621
1413.59	53.1421
1415.17	55.0038
1416.74	56.5022
1418.32	59.2713
1419.89	62.4604
1421.47	65.3131
1423.05	68.5066
1424.62	71.4533
1426.19	74.9085
1427.77	78.2741
1429.34	81.8795
1430.92	85.7362
1432.49	89.2511
1434.06	90.0732
1435.63	90.979
1437.2	92.5291
1438.78	93.0408
1440.35	95.544
1441.92	100.792
1443.49	105.282
1445.06	109.358
1446.63	113.699
1448.2	116.723
1449.77	119.651
1451.34	123.558
1452.91	125.495
1454.48	127.062
1456.05	127.669
1457.62	127.181
1459.18	125.654
1460.75	124.425
1462.32	123.911
1463.89	121.412
1465.45	118.637
1467.02	114.715
1468.59	110.536
1470.15	106.897
1471.72	102.563
1473.28	98.7124
1474.85	93.6494
1476.41	89.328
1477.98	85.0415
1479.54	80.8096
1481.11	75.802
1482.67	70.6299
1484.23	65.9094
1485.8	62.0353
1487.36	57.7059
1488.92	53.4184
1490.48	49.1448
1492.05	45.5999
1493.61	41.2434
1495.17	37.3094
1496.73	35.2844
1498.29	33.0354
1499.85	29.654
1501.41	26.9483
1502.97	23.8126
1504.53	21.3473
1506.09	17.7915
1507.65	15.8136
1509.2	12.6547
1510.76	10.767
1512.32	7.71319
1513.88	7.75485
1515.44	10.4711
1516.99	13.5317
1518.55	17.3608
1520.1	21.8792
1521.66	23.5366
1523.22	25.8825
1524.77	28.6943
1526.33	30.2723
1527.88	32.2731
1529.44	33.8006
1530.99	35.1673
1532.55	35.4309
1534.1	37.9857
1535.65	38.9829
1537.21	41.0238
1538.76	43.8697
1540.31	47.1766
1541.86	48.5753
1543.42	51.0431
1544.97	53.5342
1546.52	56.3081
1548.07	59.0883
1549.62	62.0672
1551.17	64.1417
1552.72	65.9566
1554.27	67.4407
1555.82	69.1722
1557.37	70.9976
1558.92	72.3218
1560.47	73.8289
1562.02	75.5247
1563.57	77.666
1565.11	78.6769
1566.66	81.0874
1568.21	82.6751
1569.75	84.3136
1571.3	85.489
1572.85	86.8724
1574.39	88.0579
1575.94	88.4744
1577.49	89.4247
1579.03	90.8063
1580.58	91.9413
1582.12	93.0213
1583.67	94.1003
1585.21	95.7314
1586.75	95.1274
1588.3	96.2636
1589.84	96.0462
1591.38	97.3202
1592.93	98.1863
1594.47	98.4779
1596.01	97.9261
1597.55	98.0073
1599.09	96.7403
1600.63	96.3828
1602.18	95.255
1603.72	94.0838
1605.26	94.1212
1606.8	93.0226
1608.34	92.4879
1609.87	91.2141
1611.41	92.725
1612.95	93.21
1614.49	94.182
1616.03	95.0778
1617.57	96.1108
1619.11	97.183
1620.64	98.61
1622.18	98.7205
1623.72	100.479
1625.25	102.313
1626.79	103.957
1628.32	105.14
1629.86	107.32
1631.4	108.67
1632.93	110.376
1634.47	111.511
1636	113.788
1637.53	115.92
1639.07	117.84
1640.6	119.985
1642.14	121.967
1643.67	123.395
1645.2	124.683
1646.73	125.925
1648.27	127.064
1649.8	128.77
1651.33	130.397
1652.86	131.967
1654.39	132.912
1655.92	132.559
1657.45	132.423
1658.98	132.587
1660.51	131.854
1662.04	130.311
1663.57	127.953
1665.1	127.622
1666.63	125.603
1668.16	123.547
1669.69	119.488
1671.21	115.838
1672.74	112.517
1674.27	108.891
1675.79	104.896
1677.32	101.647
1678.85	97.9441
1680.37	94.2416
1681.9	89.7488
1683.42	85.1311
1684.95	81.093
1686.47	77.3445
1688	73.9616
1689.52	70.2297
1691.05	66.01
1692.57	62.8078
1694.1	59.5962
1695.62	56.6879
1697.14	53.0569
1698.66	49.5708
1700.19	47.7724
1701.71	44.4847
1703.23	41.364
1704.75	38.5594
1706.27	36.5169
1707.79	32.3597
1709.32	29.3881
1710.83	27.3745
1712.35	26.0647
1713.88	23.4755
1715.39	22.0181
1716.91	21.0729
1718.43	20.158
1719.95	18.536
1721.47	17.35
1722.99	16.3518
1724.5	15.3246
1726.02	14.9937
1727.54	14.3377
1729.06	13.4718
1730.57	12.4618
1732.09	11.4227
1733.61	11.8097
1735.12	10.895
1736.64	9.84623
1738.15	9.18999
1739.67	9.20663
1741.18	8.56873
1742.7	7.12317
1744.21	6.5294
1745.72	5.84134
1747.24	5.79696
1748.75	5.95398
1750.26	5.35534
1751.78	5.36649
1753.29	5.21663
1754.8	5.04659
1756.31	3.81644
1757.82	3.53025
1759.34	3.35006
1760.85	3.37853
1762.36	3.27815
1763.87	2.94549
1765.38	3.38152
1766.89	3.25972
1768.4	3.79936
1769.91	3.78747
1771.41	3.54206
1772.92	3.28557
1774.43	3.40457
1775.94	3.36385
1777.45	2.93548
1778.96	2.66595
1780.46	2.26422
1781.97	2.32173
1783.48	1.95075
1784.98	2.52665
1786.49	2.8906
1788	3.14085
1789.5	3.29493
1791.01	3.92023
1792.51	3.8392
1794.01	3.43591
1795.52	3.14937
1797.02	3.33603
1798.53	3.54753
1800.03	3.41548
1801.54	3.84139
1803.04	4.00482
1804.54	3.54151
1806.04	2.6591
1807.54	2.7269
1809.05	2.38353
1810.55	2.15945
1812.05	2.3844
1813.55	2.17083
1815.05	2.21721
1816.55	1.93676
1818.05	2.40646
1819.55	2.88031
1821.05	3.08765
1822.55	3.37763
1824.05	3.55948
1825.55	3.38355
1827.05	3.85737
1828.55	3.86514
1830.04	3.86564
1831.54	3.35219
1833.04	3.46485
1834.54	3.54762
1836.03	3.65806
1837.53	3.307
1839.03	3.29478
1840.52	3.49691
1842.02	3.59915
1843.51	4.07683
1845.01	3.79156
1846.5	3.46353
1848	3.14946
1849.49	2.96352
1850.99	2.95599
1852.48	2.30978
1853.97	2.182
1855.47	2.48371
1856.96	3.13637
1858.45	3.34093
1859.94	3.28843
1861.44	3.39561
1862.93	3.74972
1864.42	3.74959
1865.91	3.67341
1867.4	3.89551
1868.89	3.65048
1870.38	3.07331
1871.87	2.49159
1873.36	2.66412
1874.85	2.56554
1876.34	2.62002
1877.83	2.55898
1879.32	2.36623
1880.81	2.10352
1882.3	2.48151
1882.56	2.29808
1884.06	2.42478
1885.55	2.21565
1887.04	2.17746
1888.54	2.22827
1890.03	2.46846
1891.52	2.24394
1893.02	1.67281
1894.51	1.16641
1896	0.205584
1897.49	-0.273792
1898.99	-0.84315
1900.48	-0.568946
1901.97	-0.574018
1903.46	-0.0395722
1904.95	-0.616159
1906.44	-0.0320511
1907.93	0.332603
1909.42	-0.371214
1910.91	-0.0726445
1912.4	0.1191
1913.89	0.552005
1915.38	0.874996
1916.86	0.547362
1918.35	0.681174
1919.84	0.660531
1921.33	0.773579
1922.82	0.741311
1924.3	1.18327
1925.79	1.58636
1927.28	2.41699
1928.76	2.79166
1930.25	3.30385
1931.74	3.43354
1933.22	3.03215
1934.71	3.70529
1936.19	3.53659
1937.67	3.63643
1939.16	4.4779
1940.64	5.02866
1942.13	5.68569
1943.61	6.2728
1945.09	7.29039
1946.58	7.79728
1948.06	7.7323
1949.54	7.59976
1951.03	7.45212
1952.51	7.5315
1953.99	7.4292
1955.47	7.98955
1956.95	7.67428
1958.43	7.93089
1959.91	7.76992
1961.39	7.52508
1962.87	7.47374
1964.35	7.09392
1965.83	6.68372
1967.31	6.9865
1968.79	7.26477
1970.27	7.3147
1971.75	8.03612
1973.22	7.95178
1974.7	8.35047
1976.18	8.65102
1977.66	8.08255
1979.13	7.14994
1980.61	7.38176
1982.09	6.82678
1983.56	6.38045
1985.04	5.88136
1986.52	5.75745
1987.99	5.18742
1989.47	4.87791
1990.94	4.38307
1992.41	4.61208
1993.89	4.5983
1995.36	5.4465
1996.84	5.53751
1998.31	5.87987
1999.78	5.53568
2001.26	5.27369
2002.73	5.03781
2004.2	5.0217
2005.67	5.11315
2007.15	4.73753
2008.62	5.75737
2010.09	6.36532
2011.56	7.33035
2013.03	8.02181
2014.5	8.30742
2015.97	8.40769
2017.44	8.33113
2018.91	8.6599
2020.38	8.27022
2021.85	9.19441
2023.32	9.76492
2024.79	9.68115
2026.25	10.179
2027.72	10.5089
2029.19	11.4031
2030.66	11.1388
2032.13	11.4461
2033.59	11.4512
2035.06	11.5222
2036.53	11.8227
2037.99	12.6107
2039.46	13.7299
2040.92	14.7662
2042.39	14.1787
2043.85	14.1927
2045.32	14.4063
2046.78	13.916
2048.25	14.0517
2049.71	13.9229
2051.18	13.5896
2052.64	14.0005
2054.1	14.5931
2055.56	14.675
2057.03	15.1418
2058.49	15.6213
2059.95	17.1174
2061.42	17.4423
2062.88	18.383
2064.34	18.9794
2065.8	19.6086
2067.26	20.482
2068.72	20.8031
2070.18	21.0735
2071.64	22.0137
2073.1	23.5736
2074.56	24.6179
2076.02	25.5993
2077.48	25.9468
2078.94	27.4805
2080.39	29.1398
2081.85	31.6584
2083.31	32.5226
2084.77	33.1501
2086.22	34.384
2087.68	35.4327
2089.14	36.7738
2090.6	37.8229
2092.05	39.7007
2093.51	40.8995
2094.96	42.4218
2096.42	43.7868
2097.87	45.247
2099.33	47.2669
2100.78	49.0913
2102.24	51.1056
2103.69	52.0343
2105.15	54.0889
2106.6	55.5781
2108.05	57.483
2109.51	60.2775
2110.96	62.9178
2112.41	65.3123
2113.86	67.0223
2115.32	69.1571
2116.77	71.7482
2118.22	74.1056
2119.67	76.8555
2121.12	79.7041
2122.57	82.9093
2124.02	86.031
