#Acq. time (s)=	45
#Accumulations=	2
#Range (cm-¹)=	200...3150
#Windows=	2
#Auto scanning=	Off
#Autofocus=	Off
#Macrospot=	Off
#AutoExposure=	Off
#Spike filter=	Multiple accum.
#Delay time (s)=	0
#Binning=	1
#Readout mode=	Signal
#DeNoise=	Off
#ICS correction=	On
#Dark correction=	Off
#Inst. Process=	Off
#Detector Gain=	Best Dynamic Range
#Detector ADC=	20 kHz       
#Detector temperature (°C)=	-69.85
#Instrument=	LabRAM HR Evol
#Detector=	Synapse
#Objective=	x100
#Grating=	600 gr/mm
#ND Filter=	100%
#Laser (nm)=	532 
#Hole=	100.021
#Range=	Auto
#Laser Pol.=	No
#Raman. Pol.=	No
#Laser Pol. (°)=	-0.0007625
#Raman Pol. (°)=	89.9995
#Collection=	Microscope
#StageXY=	Marzhauser
#StageZ=	Marzhauser
#X (µm)=	-5916.5
#Y (µm)=	2858.6
#Z (µm)=	-224.15
#Full time(mm:ss)=	3:19
#Project=	
#Sample=	
#Site=	
#Title=	Thy_20_09_41_2x_45s_532 nm_x100_100%_600 gr_mm
#Remark=	
#Date=	29.06.2022 13:33
#Acquired=	29.06.2022 13:33:09
#Base:Fit=	10.08.2022 09:52:02
#Base:Fit=	10.08.2022 09:52:12
#Base:Sub=	10.08.2022 09:54:21
#Filter:Polynom=	16.08.2022 10:24:04
#AxisType[0]=Intens
#AxisUnit[0]=Cnt
#AxisType[1]=Spectr
#AxisUnit[1]=1/cm
200.523	22.0132
202.339	19.0099
204.154	17.7828
205.967	15.6518
207.781	14.488
209.596	13.3674
211.409	12.4487
213.222	12.4351
215.034	11.8077
216.848	10.882
218.659	11.3738
220.47	11.4442
222.281	10.9802
224.091	10.0402
225.903	9.28951
227.713	9.15216
229.522	9.16685
231.331	9.7845
233.14	9.66328
234.948	9.31943
236.756	8.66069
238.566	7.5379
240.373	7.612
242.18	7.11022
243.986	6.02945
245.792	5.59527
247.598	5.26779
249.403	5.21874
251.208	4.61875
253.013	4.06173
254.818	4.60027
256.624	4.78153
258.427	5.40385
260.231	4.85328
262.034	5.03677
263.836	5.13716
265.638	5.12369
267.44	5.57059
269.242	4.90092
271.043	5.30288
272.844	5.20871
274.645	3.94245
276.445	2.82178
278.245	2.47352
280.044	2.14495
281.843	2.43863
283.642	2.85254
285.44	4.38632
287.238	4.87296
289.036	4.66202
290.833	4.35619
292.63	4.90583
294.425	5.21743
296.221	6.47472
298.017	6.25273
299.813	7.55449
301.608	9.07669
303.403	9.29103
305.198	8.96773
306.992	9.46073
308.786	10.6455
310.579	10.65
312.371	10.8324
314.163	10.5961
315.956	10.9712
317.748	12.1521
319.54	12.0707
321.331	11.768
323.122	10.7974
324.911	10.1944
326.701	9.5288
328.491	9.40246
330.281	9.27453
332.071	8.76346
333.857	8.2372
335.646	8.40014
337.434	8.03791
339.222	7.42514
341.008	6.36556
342.795	6.97369
344.582	6.72605
346.369	6.70323
348.153	5.75322
349.939	5.22926
351.724	4.74608
353.51	4.48937
355.292	3.48205
357.077	3.7407
358.861	3.00399
360.643	2.55725
362.426	1.10635
364.21	0.345216
365.99	0.158382
367.773	0.904483
369.555	2.18802
371.335	2.0963
373.116	1.91919
374.897	1.80399
376.676	1.71249
378.456	1.31405
380.236	1.66692
382.014	2.15075
383.793	2.72473
385.57	2.93113
387.349	3.20189
389.127	3.58927
390.903	3.73715
392.681	2.94166
394.456	2.7564
396.233	3.56009
398.007	4.79562
399.784	4.52489
401.56	4.5826
403.333	4.935
405.108	5.84346
406.881	6.31358
408.656	5.66666
410.428	5.93397
412.202	6.34136
413.973	6.73213
415.746	7.20162
417.517	7.12072
419.29	7.02408
421.06	6.97539
422.831	6.68301
424.601	6.5704
426.37	6.33554
428.141	6.54014
429.909	6.54808
431.679	7.27865
433.447	6.64892
435.216	6.61067
436.983	5.92652
438.75	5.73609
440.519	5.86565
442.285	5.12941
444.052	5.49547
445.818	6.1165
447.583	6.31601
449.349	6.39894
451.114	6.16516
452.878	6.5606
454.643	6.33747
456.407	7.68286
458.169	8.29574
459.934	7.67763
461.696	7.7822
463.458	8.6222
465.222	8.5334
466.983	8.44013
468.744	9.61082
470.507	9.88298
472.267	10.6695
474.027	11.5303
475.787	12.3449
477.548	11.9906
479.307	13.0005
481.065	13.3651
482.823	14.7573
484.583	16.0559
486.341	16.4421
488.098	15.7609
489.855	16.5435
491.612	16.8562
493.37	17.4835
495.126	18.7867
496.881	19.8816
498.636	20.8695
500.391	20.8416
502.148	20.6902
503.902	20.7085
505.656	20.2171
507.409	20.4836
509.162	20.4151
510.915	19.6942
512.668	19.4301
514.42	18.5754
516.174	18.0077
517.925	16.7458
519.676	15.9727
521.427	14.4457
523.178	13.7936
524.928	13.4835
526.678	13.3475
528.427	13.2999
530.176	13.4039
531.925	14.4197
533.673	14.0933
535.422	13.2994
537.169	12.3953
538.917	12.0242
540.664	11.3915
542.411	11.2922
544.157	11.9435
545.903	12.0778
547.649	12.2661
549.395	11.41
551.14	12.3015
552.884	11.654
554.629	12.3436
556.373	12.0443
558.117	11.5618
559.86	10.5931
561.603	10.4429
563.346	9.92406
565.089	9.67513
566.831	9.38537
568.573	8.98635
570.314	8.67489
572.053	7.56839
573.794	7.8214
575.534	7.93313
577.274	8.20153
579.014	8.69743
580.754	9.32884
582.493	9.05381
584.23	8.50933
585.968	7.35996
587.706	6.74227
589.444	5.4739
591.181	5.36481
592.919	4.10127
594.653	2.88291
596.39	2.27464
598.126	0.440885
599.862	0.714847
601.595	0.519527
603.33	0.899827
605.065	0.974448
606.8	1.30221
608.532	2.96928
610.266	4.95121
611.999	5.70021
613.732	6.50142
615.463	8.48564
617.196	10.1969
618.928	10.0023
620.66	10.8513
622.389	11.2129
624.12	12.0008
625.851	12.8436
627.58	13.1722
629.31	14.7125
631.04	15.6171
632.767	16.6058
634.497	16.9568
636.223	17.5176
637.952	19.0764
639.68	18.5442
641.406	18.5569
643.134	19.0724
644.861	19.5062
646.586	20.096
648.312	21.6259
650.037	22.5354
651.762	23.4576
653.486	23.409
655.211	24.2652
656.936	24.6329
658.659	25.2155
660.383	25.2594
662.105	25.2936
663.829	25.6182
665.55	25.7774
667.273	25.9024
668.994	25.922
670.716	26.3232
672.436	25.5555
674.158	25.5202
675.877	24.5052
677.598	24.9834
679.317	24.7691
681.035	24.9081
682.755	25.5069
684.473	26.0748
686.192	27.6569
687.909	28.7821
689.628	29.5089
691.344	29.3706
693.06	30.18
694.778	31.0818
696.493	30.2195
698.211	30.1257
699.925	30.2827
701.64	30.1877
703.356	30.5347
705.07	30.2275
706.783	30.156
708.498	29.8552
710.211	30.2374
711.924	29.6583
713.638	30.1217
715.35	31.0804
717.061	31.6568
718.774	32.9001
720.485	33.0424
722.196	33.5716
723.906	34.1256
725.618	34.9306
727.328	36.0893
729.037	38.0913
730.746	38.3637
732.456	39.1134
734.165	40.7871
735.873	40.9959
737.58	41.3519
739.289	41.3919
740.997	42.5509
742.703	43.8363
744.41	45.404
746.116	46.7817
747.823	49.0648
749.529	49.4767
751.234	50.5835
752.938	52.4962
754.643	53.5691
756.347	54.8108
758.051	56.1025
759.756	57.4328
761.459	58.9405
763.162	60.8318
764.865	62.7625
766.567	63.7438
768.269	65.6208
769.97	67.6825
771.671	67.398
773.372	67.5895
775.073	68.3399
776.773	68.1889
778.473	69.3179
780.174	69.8735
781.874	70.224
783.573	71.7152
785.271	71.615
786.97	72.5646
788.668	73.3399
790.365	74.5488
792.063	74.3866
793.76	75.9541
795.456	77.049
797.153	76.9735
798.847	79.0128
800.543	79.3145
802.238	80.1293
803.933	80.6326
805.628	81.4828
807.322	82.116
809.017	82.959
810.71	83.0217
812.404	83.087
814.097	83.0319
815.79	82.7514
817.483	83.3751
819.173	83.5622
820.865	83.13
822.556	83.6637
824.248	84.8747
825.939	84.7231
827.629	84.1201
829.318	83.6424
831.008	82.3636
832.697	80.8512
834.387	78.7947
836.076	78.469
837.765	76.7051
839.451	75.8234
841.139	74.4649
842.827	73.2548
844.514	71.7121
846.2	69.9066
847.886	67.7784
849.573	65.955
851.259	64.5323
852.943	62.2507
854.629	60.1186
856.314	58.1836
857.997	57.3717
859.682	55.3391
861.366	53.0921
863.05	52.0208
864.732	50.7405
866.415	49.3217
868.098	48.4403
869.779	47.1725
871.461	47.5398
873.141	46.6118
874.823	45.9378
876.505	45.2032
878.184	45.7032
879.865	44.7657
881.545	43.941
883.223	44.309
884.903	44.3399
886.581	44.4976
888.26	46.0638
889.937	47.6994
891.616	46.8088
893.294	46.7382
894.97	46.4431
896.648	47.2771
898.323	47.7936
900	48.8816
901.675	49.4688
903.351	49.2172
905.026	49.3647
906.701	49.2722
908.375	49.4182
910.05	48.8626
911.723	48.6709
913.398	48.8889
915.07	48.1174
916.742	47.4419
918.415	47.546
920.087	47.3724
921.76	47.2233
923.43	47.6167
925.103	46.7547
926.773	46.3532
928.443	45.0318
930.114	44.6537
931.783	44.4216
933.454	44.8625
935.123	44.3611
936.791	43.2002
938.461	43.1379
940.128	42.5034
941.796	41.1686
943.464	39.3137
945.131	39.7287
946.797	39.2168
948.465	37.5051
950.131	37.0929
951.797	36.6869
953.462	35.8689
955.128	35.8995
956.793	34.5474
958.457	33.5974
960.121	32.3734
961.786	30.2741
963.45	29.777
965.113	29.9255
966.775	30.345
968.44	30.3115
970.102	31.2056
971.763	32.8568
973.425	31.9887
975.086	30.1832
976.748	30.8316
978.409	32.0889
980.069	33.5539
981.729	33.7151
983.388	34.0223
985.048	34.344
986.708	34.8229
988.367	34.7509
990.025	33.9158
991.683	34.318
993.341	34.8507
994.998	34.5852
996.655	34.5927
998.312	34.1707
999.969	34.5902
1001.62	33.9332
1003.28	33.4276
1004.94	32.5871
1006.59	32.69
1008.25	32.1718
1009.9	31.6175
1011.56	30.8529
1013.21	31.1044
1014.86	30.529
1016.52	30.3879
1018.17	29.7082
1019.82	29.49
1021.48	28.8424
1023.13	28.7609
1024.78	28.2438
1026.43	27.7163
1028.08	27.0528
1029.73	25.3899
1031.38	25.0033
1033.03	25.1203
1034.68	23.777
1036.33	21.8896
1037.98	21.783
1039.63	20.3135
1041.28	19.3983
1042.93	19.2751
1044.57	20.8609
1046.22	22.8442
1047.87	23.0134
1049.52	23.4312
1051.16	22.9344
1052.81	23.075
1054.45	22.5041
1056.1	21.7596
1057.75	20.9074
1059.39	21.3654
1061.04	21.0318
1062.68	20.4216
1064.32	19.6722
1065.97	19.1945
1067.61	17.6462
1069.25	15.7608
1070.9	14.548
1072.54	13.8522
1074.18	14.8461
1075.82	14.0968
1077.47	13.0626
1079.11	12.9449
1080.75	11.578
1082.39	10.5054
1084.03	8.93082
1085.67	9.855
1087.31	9.5194
1088.95	10.3896
1090.59	9.84079
1092.22	9.3583
1093.86	9.45438
1095.5	9.90718
1097.14	10.4427
1098.78	10.7808
1100.41	11.5017
1102.05	11.7383
1103.69	11.9704
1105.32	12.1988
1106.96	11.8
1108.59	12.0117
1110.23	10.666
1111.86	10.3982
1113.5	10.6338
1115.13	10.478
1116.77	10.029
1118.4	9.79318
1120.03	10.7877
1121.67	10.6928
1123.3	10.9023
1124.93	11.1841
1126.56	10.3063
1128.19	10.3761
1129.83	10.3216
1131.46	9.6849
1133.09	9.91648
1134.72	10.1495
1136.35	10.082
1137.98	10.0579
1139.61	9.98213
1141.24	10.4066
1142.86	10.9208
1144.49	10.9692
1146.12	10.7562
1147.75	9.8139
1149.38	8.88374
1151	9.14276
1152.63	9.84449
1154.26	9.28627
1155.88	9.85369
1157.51	9.94358
1159.14	9.84534
1160.76	9.61038
1162.39	8.27853
1164.01	8.17901
1165.63	9.16877
1167.26	10.5545
1168.88	10.9121
1170.51	10.5709
1172.13	10.6303
1173.75	11.016
1175.38	10.9811
1177	11.7721
1178.62	12.2421
1180.24	12.7519
1181.86	13.6091
1183.48	12.7025
1185.1	13.5161
1186.72	14.0591
1188.34	14.3433
1189.96	14.222
1191.58	14.2325
1193.2	15.4564
1194.82	16.4469
1196.44	16.8443
1198.06	17.2899
1199.68	18.4789
1201.29	19.325
1202.91	20.1901
1204.53	21.443
1206.14	22.8681
1207.76	24.4093
1209.38	27.5452
1210.99	29.7545
1212.61	30.6941
1214.22	33.3767
1215.84	35.9498
1217.45	38.0301
1219.07	39.9271
1220.68	42.0976
1222.29	43.6027
1223.91	45.3292
1225.52	46.6683
1227.13	47.5766
1228.74	49.2215
1230.36	50.9383
1231.97	52.7304
1233.58	54.7091
1235.19	56.4069
1236.8	57.931
1238.41	58.9038
1240.02	60.0136
1241.63	61.9629
1243.24	62.9846
1244.85	65.2527
1246.46	67.6128
1248.07	68.5141
1249.67	70.1974
1251.28	70.7037
1252.89	72.4508
1254.5	73.2841
1256.1	72.7779
1257.71	74.2035
1259.32	74.4864
1260.92	75.3308
1262.53	75.7229
1264.13	76.9347
1265.74	78.6358
1267.34	78.8487
1268.95	78.9828
1270.55	79.7523
1272.15	80.6442
1273.76	80.8077
1275.36	81.916
1276.97	83.5855
1278.57	84.624
1280.17	86.1707
1281.77	87.4648
1283.37	88.4815
1284.97	89.683
1286.58	90.4932
1288.18	92.4644
1289.78	94.103
1291.38	96.0436
1292.98	96.2028
1294.58	97.8247
1296.18	99.4893
1297.78	100.047
1299.37	100.108
1300.97	101.073
1302.57	101.981
1304.17	103.789
1305.77	105.872
1307.36	107.14
1308.96	108.477
1310.55	109.714
1312.15	111.257
1313.75	113.346
1315.34	114.683
1316.94	116.148
1318.53	118.278
1320.13	119.54
1321.72	120.717
1323.32	122.208
1324.91	123.272
1326.5	124.091
1328.1	124.853
1329.69	125.253
1331.28	123.78
1332.87	123.925
1334.47	123.258
1336.06	122.134
1337.65	122.072
1339.24	121.159
1340.83	120.389
1342.42	120.629
1344.01	119.778
1345.6	117.992
1347.19	116.728
1348.78	114.144
1350.37	113.19
1351.96	111.694
1353.54	110.613
1355.13	110.244
1356.72	107.611
1358.31	103.896
1359.89	102.54
1361.48	99.4295
1363.07	96.1816
1364.65	93.9849
1366.24	92.0718
1367.82	89.5868
1369.41	86.5703
1370.99	83.7765
1372.58	79.819
1374.16	77.0175
1375.75	73.6435
1377.33	70.6177
1378.91	68.336
1380.5	67.5516
1382.08	66.9215
1383.66	65.7906
1385.25	65.116
1386.83	64.0331
1388.41	62.2929
1389.99	61.6613
1391.57	60.5146
1393.15	59.1795
1394.73	59.102
1396.31	58.9618
1397.89	58.3454
1399.47	57.1984
1401.05	57.3005
1402.63	57.3809
1404.21	56.8898
1405.78	57.1279
1407.36	56.6897
1408.94	56.215
1410.52	57.332
1412.1	58.5574
1413.67	59.5942
1415.25	60.6928
1416.82	62.652
1418.4	64.5822
1419.98	67.2692
1421.55	70.2347
1423.13	72.3827
1424.7	75.5726
1426.28	77.5809
1427.85	80.4378
1429.42	84.4156
1431	87.1536
1432.57	90.3701
1434.14	93.3315
1435.71	95.1786
1437.29	98.0606
1438.86	100.557
1440.43	102.227
1442	103.419
1443.57	103.634
1445.14	104.557
1446.71	104.58
1448.28	104.397
1449.85	103.498
1451.42	103.028
1452.99	103.159
1454.56	103.6
1456.13	103.596
1457.7	102.801
1459.26	101.152
1460.83	99.1718
1462.4	96.7924
1463.97	94.5678
1465.54	91.6893
1467.1	87.3404
1468.67	84.8955
1470.23	80.5177
1471.8	76.8852
1473.36	74.7557
1474.93	70.1953
1476.49	65.5766
1478.06	61.9443
1479.62	59.6175
1481.19	56.4766
1482.75	52.5876
1484.31	48.9614
1485.88	46.2961
1487.44	44.0288
1489	41.8318
1490.56	39.2304
1492.13	38.0843
1493.69	36.7152
1495.25	35.9809
1496.81	34.5791
1498.37	33.8856
1499.93	34.0745
1501.49	34.3374
1503.05	33.8276
1504.61	32.6697
1506.17	33.1469
1507.73	33.4153
1509.28	34.1703
1510.84	34.6086
1512.4	34.0001
1513.96	33.6731
1515.52	33.4412
1517.07	33.6109
1518.63	34.4867
1520.19	34.2764
1521.74	35.2543
1523.3	37.457
1524.85	37.9074
1526.41	38.1894
1527.96	39.2972
1529.52	40.2668
1531.07	41.7409
1532.63	42.1286
1534.18	42.5439
1535.73	43.7031
1537.29	44.6315
1538.84	46.6785
1540.39	48.2159
1541.94	49.4446
1543.5	50.6217
1545.05	51.5398
1546.6	53.9658
1548.15	54.8417
1549.7	56.9148
1551.25	58.417
1552.8	59.114
1554.35	61.7555
1555.9	64.0477
1557.45	65.7233
1559	66.4761
1560.55	68.7418
1562.1	70.4397
1563.65	72.5153
1565.19	74.6432
1566.74	76.1465
1568.29	78.4721
1569.83	80.6096
1571.38	82.094
1572.93	84.0788
1574.47	85.5602
1576.02	87.9084
1577.56	90.0416
1579.11	91.7346
1580.66	92.9627
1582.2	93.907
1583.74	95.7683
1585.29	97.3327
1586.83	98.0045
1588.38	98.3344
1589.92	99.2013
1591.46	101.125
1593.01	102.076
1594.55	103.236
1596.09	103.012
1597.63	103.666
1599.17	104.31
1600.71	104.016
1602.25	103.483
1603.79	102.853
1605.34	102.584
1606.88	102.433
1608.41	102.074
1609.95	100.088
1611.49	98.3261
1613.03	97.2069
1614.57	95.3406
1616.11	94.5268
1617.65	92.4373
1619.18	91.1258
1620.72	90.1923
1622.26	89.6959
1623.79	88.2232
1625.33	87.2357
1626.87	86.1345
1628.4	84.4403
1629.94	83.7529
1631.48	83.8568
1633.01	83.7911
1634.55	84.2264
1636.08	84.3288
1637.61	84.8905
1639.15	84.4
1640.68	85.0523
1642.21	85.3446
1643.75	85.1025
1645.28	85.9797
1646.81	86.7326
1648.34	87.1009
1649.88	87.5869
1651.41	88.3626
1652.94	88.6038
1654.47	88.7028
1656	89.6683
1657.53	89.8946
1659.06	89.9491
1660.59	90.3923
1662.12	90.6938
1663.65	89.9295
1665.18	89.8676
1666.71	89.3212
1668.24	88.4298
1669.76	86.9864
1671.29	85.694
1672.82	83.6627
1674.35	82.4464
1675.87	80.0473
1677.4	77.7959
1678.93	75.5239
1680.45	72.2296
1681.98	69.4103
1683.5	65.5031
1685.03	61.3905
1686.55	58.086
1688.08	54.8837
1689.6	52.3597
1691.13	48.795
1692.65	46.2675
1694.17	42.6427
1695.7	40.0907
1697.22	36.4924
1698.74	33.1685
1700.27	29.8935
1701.79	27.6078
1703.31	24.3705
1704.83	21.8765
1706.35	20.4517
1707.87	19.3521
1709.39	18.6487
1710.91	16.9483
1712.43	14.631
1713.95	13.674
1715.47	12.3784
1716.99	10.9925
1718.51	10.0202
1720.03	9.42294
1721.55	9.27961
1723.07	8.0979
1724.58	7.76058
1726.1	8.11317
1727.62	8.69044
1729.13	7.95967
1730.65	7.14291
1732.17	7.81242
1733.68	7.70608
1735.2	7.98793
1736.72	7.9099
1738.23	8.16071
1739.74	8.44938
1741.26	8.61885
1742.77	8.5928
1744.29	8.99798
1745.8	9.04753
1747.32	9.14375
1748.83	9.10828
1750.34	9.73918
1751.85	9.64629
1753.37	9.61708
1754.88	9.50926
1756.39	9.24203
1757.9	9.13013
1759.41	8.49728
1760.92	8.45193
1762.44	8.2116
1763.95	7.65345
1765.46	7.14984
1766.96	6.66978
1768.47	6.06462
1769.98	5.73974
1771.49	5.24625
1773	4.36603
1774.51	4.03954
1776.02	4.1039
1777.53	3.8955
1779.03	3.63438
1780.54	3.32422
1782.05	3.29076
1783.55	3.14636
1785.06	3.02414
1786.57	2.3947
1788.07	2.30364
1789.58	2.28905
1791.08	2.03199
1792.59	1.68129
1794.09	1.86411
1795.6	1.89686
1797.1	1.224
1798.61	0.282069
1800.11	0.288079
1801.61	-0.40448
1803.12	-1.1172
1804.62	-1.97289
1806.12	-1.54995
1807.62	-0.374731
1809.12	-0.560359
1810.63	0.0509516
1812.13	0.394843
1813.63	1.22595
1815.13	1.3681
1816.63	0.940802
1818.13	1.73016
1819.63	1.39725
1821.13	1.71599
1822.63	2.13716
1824.13	1.84382
1825.63	1.97854
1827.13	2.06585
1828.62	2.08112
1830.12	2.3451
1831.62	2.5629
1833.12	1.95376
1834.61	2.09186
1836.11	2.77267
1837.61	3.43273
1839.1	4.05957
1840.6	4.15817
1842.09	4.0447
1843.59	4.13402
1845.09	4.15854
1846.58	3.67537
1848.08	3.74745
1849.57	3.23028
1851.06	3.03589
1852.56	2.88323
1854.05	2.94299
1855.54	3.30831
1857.04	3.67906
1858.53	4.13001
1860.02	4.02921
1861.51	4.13827
1863.01	4.03659
1864.5	3.4835
1865.99	3.84474
1867.48	3.20184
1868.97	3.2148
1870.46	3.11865
1871.95	2.75309
1873.44	3.34615
1874.93	4.09842
1876.42	4.05775
1877.91	4.91006
1879.4	5.46778
1880.89	5.56758
1882.37	5.30406
1882.46	5.70044
1883.95	6.31228
1885.45	6.53541
1886.94	7.02529
1888.43	7.8756
1889.93	8.03899
1891.42	8.2946
1892.91	7.77042
1894.41	7.60633
1895.9	7.58597
1897.39	7.2989
1898.88	7.81035
1900.37	7.25731
1901.86	6.96851
1903.36	7.61995
1904.85	7.41473
1906.34	7.14513
1907.83	7.27032
1909.32	7.49831
1910.81	6.62811
1912.29	6.16716
1913.78	5.35438
1915.27	5.15738
1916.76	4.84148
1918.25	3.50012
1919.74	3.37426
1921.23	3.62066
1922.71	3.36431
1924.2	3.61165
1925.69	3.68839
1927.17	4.10113
1928.66	3.82642
1930.15	3.80105
1931.63	3.51327
1933.12	3.21683
1934.6	3.30142
1936.09	2.9676
1937.57	2.86357
1939.06	2.91653
1940.54	2.70486
1942.02	3.13704
1943.51	3.62381
1944.99	3.44773
1946.47	4.24302
1947.96	4.14949
1949.44	3.95034
1950.92	4.05011
1952.4	4.05612
1953.88	3.91055
1955.37	3.6968
1956.85	4.67376
1958.33	5.13127
1959.81	5.70293
1961.29	5.51985
1962.77	5.50501
1964.25	5.1816
1965.73	4.77383
1967.21	4.3548
1968.69	4.38211
1970.16	4.9659
1971.64	4.99908
1973.12	5.15953
1974.6	5.37422
1976.08	5.81318
1977.55	5.64761
1979.03	5.51837
1980.51	5.63042
1981.98	5.96209
1983.46	6.41163
1984.94	5.99714
1986.41	6.65186
1987.89	6.81928
1989.36	7.55958
1990.84	7.23757
1992.31	7.42978
1993.79	7.89346
1995.26	7.54769
1996.73	6.92244
1998.21	6.74966
1999.68	6.61578
2001.15	7.14217
2002.63	6.04948
2004.1	6.65129
2005.57	6.52767
2007.04	6.50814
2008.51	6.3856
2009.99	6.13295
2011.46	6.00755
2012.93	5.88786
2014.4	5.46234
2015.87	5.60351
2017.34	5.37762
2018.81	5.18355
2020.28	5.80673
2021.75	5.26631
2023.21	5.63062
2024.68	6.23859
2026.15	6.72417
2027.62	6.7713
2029.09	6.78931
2030.56	7.87
2032.02	7.49726
2033.49	7.5333
2034.96	7.15348
2036.42	7.5681
2037.89	7.90521
2039.36	7.71756
2040.82	8.11233
2042.29	8.93349
2043.75	10.0462
2045.22	10.9441
2046.68	12.1239
2048.14	12.7116
2049.61	12.8149
2051.07	13.495
2052.54	14.4871
2054	14.9856
2055.46	15.6887
2056.93	16.1743
2058.39	17.0482
2059.85	17.1904
2061.31	17.3645
2062.77	17.1505
2064.23	17.3097
2065.7	17.1864
2067.16	17.0381
2068.62	17.9574
2070.08	18.2827
2071.54	18.85
2073	19.0269
2074.46	19.3406
2075.92	19.5348
2077.38	20.4212
2078.83	19.9444
2080.29	19.4403
2081.75	19.5757
2083.21	18.9391
2084.67	18.5392
2086.12	18.9743
2087.58	19.0689
2089.04	19.2997
2090.49	18.7469
2091.95	18.8865
2093.41	18.7916
2094.86	18.6902
2096.32	18.9197
2097.77	18.6796
2099.23	18.6845
2100.68	18.7944
2102.14	18.3985
2103.59	18.2756
2105.05	17.987
2106.5	18.1116
2107.95	18.3171
2109.41	19.0831
2110.86	20.1245
2112.31	20.793
2113.76	21.5789
2115.21	22.6819
2116.67	23.6306
2118.12	23.5787
2119.57	24.4844
2121.02	24.8071
2122.47	25.7591
2123.92	27.0508
2125.37	27.9084
2126.82	28.6728
2128.27	30.3774
2129.72	31.9909
2131.17	32.7512
2132.62	33.4023
2134.07	35.4331
