#Acq. time (s)=	45
#Accumulations=	2
#Range (cm-¹)=	200...3150
#Windows=	2
#Auto scanning=	Off
#Autofocus=	Off
#Macrospot=	Off
#AutoExposure=	Off
#Spike filter=	Multiple accum.
#Delay time (s)=	0
#Binning=	1
#Readout mode=	Signal
#DeNoise=	Off
#ICS correction=	On
#Dark correction=	Off
#Inst. Process=	Off
#Detector Gain=	Best Dynamic Range
#Detector ADC=	20 kHz       
#Detector temperature (°C)=	-69.85
#Instrument=	LabRAM HR Evol
#Detector=	Synapse
#Objective=	x100
#Grating=	600 gr/mm
#ND Filter=	100%
#Laser (nm)=	532 
#Hole=	100.021
#Range=	Auto
#Laser Pol.=	No
#Raman. Pol.=	No
#Laser Pol. (°)=	-0.0007625
#Raman Pol. (°)=	89.9995
#Collection=	Microscope
#StageXY=	Marzhauser
#StageZ=	Marzhauser
#X (µm)=	1965.5
#Y (µm)=	-54.3
#Z (µm)=	425.7
#Full time(mm:ss)=	3:19
#Project=	
#Sample=	
#Site=	
#Title=	Thy_40_11_15_2x_45s_532 nm_x100_100%_600 gr_mm
#Remark=	
#Date=	05.07.2022 10:57
#Acquired=	05.07.2022 10:57:42
#Base:Fit=	10.08.2022 10:01:35
#Base:Sub=	10.08.2022 10:01:52
#Filter:Polynom=	16.08.2022 10:21:53
#AxisType[0]=Intens
#AxisUnit[0]=Cnt
#AxisType[1]=Spectr
#AxisUnit[1]=1/cm
200.43	27.7917
202.244	26.3762
204.059	24.248
205.873	21.7837
207.688	19.4973
209.501	17.7312
211.314	16.1894
213.127	14.8513
214.941	13.985
216.753	11.9874
218.564	10.9805
220.375	9.99084
222.186	9.00843
223.999	9.42275
225.809	7.63195
227.618	6.47257
229.428	4.62719
231.236	3.75514
233.045	2.9034
234.855	2.98959
236.663	1.83711
238.471	1.57193
240.278	1.39343
242.085	1.86994
243.891	1.63296
245.698	1.85908
247.503	2.55633
249.309	3.21813
251.116	3.64065
252.921	4.11018
254.725	4.32583
256.529	4.83228
258.333	4.63339
260.136	4.59856
261.939	4.41739
263.742	4.74264
265.544	4.18298
267.346	3.47647
269.148	4.4814
270.949	4.75952
272.75	4.704
274.55	3.9764
276.351	4.30894
278.15	4.34896
279.95	3.9647
281.749	5.64589
283.548	6.51438
285.346	5.75755
287.144	6.21016
288.942	7.21029
290.739	6.41195
292.536	6.17511
294.333	6.35783
296.129	6.38155
297.925	7.17321
299.721	6.70144
301.514	6.87065
303.309	8.21311
305.104	8.33423
306.898	7.49445
308.692	7.54062
310.486	7.44278
312.279	7.66821
314.072	8.44713
315.862	6.88964
317.654	7.24943
319.446	6.72606
321.238	7.17133
323.029	7.45944
324.819	8.14387
326.608	8.04275
328.398	8.63048
330.188	8.82376
331.977	9.67228
333.766	8.95582
335.553	8.72907
337.341	9.18317
339.129	8.38463
340.917	8.78276
342.704	8.46505
344.489	8.18382
346.275	7.81332
348.062	8.03873
349.845	7.79339
351.631	7.59966
353.416	6.91261
355.201	5.74808
356.984	6.82732
358.768	6.58368
360.552	6.92088
362.333	6.84159
364.116	5.42145
365.899	5.50525
367.68	5.27128
369.462	6.34459
371.243	6.87096
373.023	6.51914
374.804	6.30735
376.585	6.45008
378.363	6.25569
380.143	6.08942
381.923	6.22178
383.7	6.22594
385.479	6.07902
387.256	7.10456
389.034	6.7165
390.812	7.20348
392.588	7.35968
394.365	6.7847
396.14	6.4169
397.916	7.14183
399.691	8.11976
401.467	8.2146
403.24	7.61667
405.015	6.62398
406.788	6.28163
408.563	6.60589
410.335	7.94477
412.109	8.08745
413.88	8.72817
415.654	8.57506
417.424	7.95049
419.197	8.08029
420.967	7.76174
422.739	6.7383
424.508	7.26156
426.279	7.83758
428.048	7.92873
429.819	8.3629
431.587	6.93609
433.356	6.27162
435.124	5.3856
436.891	5.4507
438.66	4.75564
440.426	4.91259
442.194	4.6688
443.96	4.27992
445.725	5.06538
447.492	4.32584
449.257	4.82758
451.021	3.52207
452.787	2.91686
454.551	2.8851
456.314	2.79869
458.079	2.93925
459.842	2.88835
461.604	2.53646
463.368	3.32205
465.13	2.57202
466.891	2.66809
468.654	3.06083
470.415	2.97974
472.175	2.90132
473.935	2.99671
475.696	3.22331
477.456	3.03638
479.215	3.46262
480.973	4.96137
482.733	5.33629
484.491	5.9278
486.249	7.32941
488.006	7.61057
489.765	8.50505
491.522	9.44091
493.278	10.9805
495.034	12.1361
496.789	14.3588
498.544	14.8186
500.301	15.0133
502.056	15.6214
503.81	15.7182
505.564	16.2241
507.317	17.5241
509.071	17.0419
510.825	16.8928
512.578	17.8812
514.33	17.856
516.082	17.9289
517.833	17.0065
519.585	17.0042
521.335	17.1165
523.086	17.0574
524.836	16.9931
526.586	16.5515
528.335	16.8735
530.085	16.1468
531.835	15.8735
533.584	15.1933
535.332	15.0631
537.08	13.9133
538.827	12.0743
540.574	12.0348
542.321	10.9969
544.068	10.3739
545.814	9.44602
547.56	9.40305
549.305	8.39737
551.05	8.22399
552.795	7.53404
554.54	8.05235
556.282	8.01766
558.025	6.90395
559.769	6.41034
561.512	5.85675
563.255	5.01762
564.997	5.01346
566.739	5.12533
568.481	5.66878
570.223	5.14739
571.964	5.2845
573.705	5.45569
575.443	5.25493
577.183	5.36251
578.923	5.02877
580.663	5.47108
582.402	5.50099
584.141	6.31914
585.879	6.21428
587.615	6.54974
589.353	6.52149
591.09	7.19492
592.828	6.91162
594.564	7.50019
596.299	6.55243
598.035	7.18684
599.771	7.90496
601.506	7.84808
603.242	7.38796
604.974	7.70561
606.709	8.3515
608.443	8.77846
610.177	9.57506
611.908	10.6136
613.642	10.8054
615.374	11.9618
617.105	12.146
618.837	12.49
620.569	13.2098
622.3	13.3109
624.03	13.2427
625.761	13.4016
627.491	14.3613
629.219	14.6306
630.949	15.3134
632.677	15.3624
634.406	16.1153
636.135	16.6803
637.861	17.6908
639.59	18.4066
641.318	18.6836
643.043	18.7193
644.77	18.5098
646.495	18.3622
648.222	17.8336
649.948	17.7492
651.672	18.8005
653.398	19.6437
655.121	19.7276
656.846	19.9547
658.569	20.372
660.293	21.3091
662.015	21.9113
663.738	23.1081
665.46	24.3419
667.183	24.7354
668.903	24.5998
670.626	25.1218
672.346	24.6226
674.067	24.5003
675.787	24.6749
677.508	24.8054
679.226	25.7086
680.947	26.7236
682.665	25.7226
684.385	26.6632
686.102	27.1503
687.821	27.5306
689.538	28.0859
691.254	29.9266
692.972	30.5794
694.688	31.8143
696.406	32.0068
698.121	31.6294
699.835	31.9818
701.552	33.2944
703.266	34.3339
704.98	34.1585
706.695	35.2503
708.409	34.8602
710.121	36.2
711.836	37.0159
713.548	38.1735
715.26	38.212
716.973	37.889
718.685	38.4946
720.396	39.0944
722.108	40.32
723.818	40.6126
725.528	42.1591
727.238	42.9321
728.949	42.9954
730.658	43.7284
732.367	44.241
734.075	45.3129
735.785	46.0305
737.493	46.5229
739.2	47.1434
740.907	47.6453
742.614	49.1859
744.322	50.4056
746.028	52.6615
747.734	53.9996
749.439	55.1359
751.144	55.3198
752.849	55.5966
754.555	56.2269
756.26	58.2436
757.963	59.6464
759.667	60.8462
761.37	61.9602
763.073	63.3988
764.775	63.938
766.477	64.7117
768.179	65.6424
769.883	67.0517
771.584	67.4521
773.285	67.9846
774.986	68.7737
776.686	69.7366
778.386	69.8493
780.085	70.9976
781.785	72.0155
783.484	73.4087
785.182	75.2304
786.881	76.7797
788.579	77.6117
790.276	78.0691
791.974	80.3027
793.671	81.4263
795.367	82.6213
797.064	83.3678
798.76	83.2512
800.456	83.1453
802.151	84.2108
803.846	85.6975
805.541	85.3398
807.234	86.3909
808.928	86.7732
810.622	87.1467
812.315	85.7941
814.008	85.3886
815.701	84.4792
817.394	82.931
819.086	82.0632
820.778	82.3596
822.468	82.169
824.159	83.0255
825.85	82.9948
827.541	83.3492
829.231	83.5499
830.921	83.5688
832.609	81.9749
834.298	80.7937
835.987	80.5569
837.676	80.2511
839.364	79.5633
841.051	79.9621
842.738	77.7565
844.426	75.9925
846.113	75.726
847.798	74.0804
849.484	72.6074
851.171	72.32
852.857	70.2631
854.54	69.1237
856.226	67.6461
857.911	66.3909
859.593	64.4496
861.278	63.0953
862.961	62.1027
864.645	61.6926
866.327	60.7425
868.01	60.3043
869.692	59.791
871.373	59.4909
873.055	58.2821
874.735	57.2928
876.416	56.4723
878.097	55.8395
879.776	54.6877
881.457	54.0827
883.135	53.5852
884.815	53.2459
886.495	53.6957
888.172	53.1339
889.851	51.7711
891.528	51.8373
893.206	50.7716
894.882	49.8057
896.56	49.4416
898.237	48.9826
899.912	48.7517
901.589	49.2489
903.263	50.221
904.94	51.6187
906.614	50.793
908.289	50.6262
909.962	50.1374
911.635	50.107
913.31	49.3594
914.982	47.5876
916.656	47.2207
918.328	47.4633
920.001	48.2549
921.672	47.7491
923.345	46.9686
925.015	46.7316
926.685	46.1496
928.357	46.2149
930.026	45.8428
931.698	44.3263
933.366	44.5431
935.035	44.692
936.705	45.0475
938.373	45.2997
940.041	44.0968
941.71	43.2365
943.377	41.9779
945.044	40.5523
946.712	40.5282
948.378	39.7948
950.044	39.2516
951.709	38.5192
953.376	37.8097
955.041	36.2638
956.706	34.2456
958.372	33.7009
960.036	33.6699
961.699	33.1479
963.362	32.8192
965.027	32.1761
966.69	32.0045
968.352	31.3536
970.014	31.4347
971.676	30.4371
973.339	29.4346
975	30.3698
976.661	29.6219
978.322	29.6727
979.982	29.6414
981.642	29.9225
983.303	29.8611
984.962	29.7051
986.621	29.0234
988.28	27.7032
989.938	26.4163
991.596	25.2377
993.254	24.9494
994.911	24.1356
996.57	23.8039
998.227	24.7398
999.884	25.5576
1001.54	25.4053
1003.2	25.2029
1004.85	24.8622
1006.51	24.3975
1008.16	25.0003
1009.82	25.0479
1011.47	24.5043
1013.12	24.8562
1014.78	25.7458
1016.43	26.8385
1018.08	27.5488
1019.74	27.2868
1021.39	27.0616
1023.04	26.462
1024.69	26.1778
1026.34	25.5834
1028	24.7313
1029.65	25.5109
1031.3	25.7847
1032.95	25.3315
1034.6	25.2073
1036.25	25.1308
1037.9	24.5727
1039.54	23.7774
1041.19	24.589
1042.84	23.9068
1044.49	24.1473
1046.14	24.4123
1047.78	24.2963
1049.43	23.9704
1051.08	23.9823
1052.72	24.7291
1054.37	24.1375
1056.02	23.3486
1057.66	22.4285
1059.31	21.1024
1060.95	21.8817
1062.6	21.552
1064.24	20.5596
1065.88	19.0779
1067.53	18.2317
1069.17	16.6373
1070.81	16.1528
1072.45	16.6575
1074.1	15.86
1075.74	15.4676
1077.38	15.221
1079.02	14.4959
1080.66	14.3038
1082.3	13.2604
1083.94	12.2591
1085.58	12.1818
1087.22	12.3695
1088.86	12.3776
1090.5	12.4396
1092.14	12.701
1093.78	13.3502
1095.42	14.432
1097.05	15.2572
1098.69	16.1128
1100.33	16.6291
1101.96	17.3203
1103.6	18.1377
1105.24	17.8302
1106.87	18.2179
1108.51	18.5489
1110.14	18.9446
1111.78	19.4868
1113.41	20.3406
1115.05	20.4439
1116.68	20.5883
1118.31	20.1776
1119.95	19.9758
1121.58	19.1777
1123.21	20.2411
1124.85	19.8366
1126.48	19.6575
1128.11	18.7694
1129.74	16.9736
1131.37	15.1386
1133	15.5853
1134.63	14.6747
1136.26	13.5434
1137.89	12.333
1139.52	11.3031
1141.15	11.4991
1142.78	10.2025
1144.41	8.8474
1146.04	7.28009
1147.66	6.74991
1149.29	6.39121
1150.92	6.32013
1152.55	5.70799
1154.17	5.15164
1155.8	3.84423
1157.43	2.50426
1159.05	1.8856
1160.68	0.646211
1162.3	1.21173
1163.93	0.27326
1165.55	-0.315291
1167.17	0.741444
1168.8	0.445255
1170.42	0.205902
1172.05	0.622558
1173.67	0.667785
1175.29	1.15843
1176.91	1.49135
1178.54	2.05758
1180.16	2.28271
1181.78	2.48566
1183.4	3.41042
1185.02	3.95179
1186.64	4.62429
1188.26	5.56378
1189.88	6.47303
1191.5	6.66401
1193.12	7.12411
1194.74	7.89356
1196.36	8.27631
1197.97	8.7374
1199.59	9.1637
1201.21	9.99775
1202.83	10.7792
1204.44	11.8677
1206.06	11.8277
1207.68	12.4089
1209.29	13.02
1210.91	13.1892
1212.52	15.0192
1214.14	16.7902
1215.75	16.2657
1217.37	17.1124
1218.98	17.133
1220.59	18.1878
1222.21	18.4693
1223.82	19.1414
1225.43	19.9066
1227.05	20.6353
1228.66	21.5168
1230.27	22.1879
1231.88	23.1434
1233.49	23.8681
1235.1	24.7878
1236.72	24.9142
1238.33	24.8974
1239.94	25.0601
1241.55	25.9073
1243.16	26.9985
1244.76	27.0764
1246.37	27.9637
1247.98	28.5862
1249.59	29.0389
1251.2	29.4673
1252.8	30.6793
1254.41	30.8929
1256.02	31.8225
1257.62	32.1043
1259.23	32.921
1260.84	33.0696
1262.44	33.9176
1264.05	35.1995
1265.66	36.2785
1267.26	36.7578
1268.86	36.5385
1270.47	37.3788
1272.07	36.5217
1273.67	37.3601
1275.28	37.5961
1276.88	38.1931
1278.48	38.4656
1280.09	38.4567
1281.69	39.329
1283.29	39.6553
1284.89	39.6811
1286.49	39.0453
1288.09	39.4032
1289.69	38.9237
1291.29	38.9767
1292.89	39.3363
1294.49	39.7326
1296.09	40.1103
1297.69	40.9853
1299.29	41.0207
1300.89	40.8869
1302.49	40.5543
1304.08	41.0218
1305.68	41.6997
1307.28	43.1207
1308.88	43.5855
1310.47	43.8585
1312.07	43.7112
1313.66	42.9138
1315.26	42.4634
1316.85	42.8364
1318.45	43.1751
1320.04	42.9192
1321.64	43.3402
1323.23	43.2329
1324.83	43.3302
1326.42	43.5605
1328.01	43.4874
1329.61	43.0652
1331.2	43.018
1332.79	43.0405
1334.38	42.5109
1335.97	41.7354
1337.56	41.0243
1339.16	41.2369
1340.75	41.4502
1342.34	41.294
1343.93	41.656
1345.52	41.0331
1347.11	39.5221
1348.7	38.7316
1350.29	38.8815
1351.87	38.0984
1353.46	38.1984
1355.05	37.5288
1356.64	37.5299
1358.22	36.5365
1359.81	36.1674
1361.4	35.9004
1362.98	35.3002
1364.57	34.8778
1366.16	34.6101
1367.74	34.2048
1369.33	33.7958
1370.91	33.6043
1372.5	33.418
1374.08	32.1853
1375.67	32.1177
1377.25	31.0907
1378.83	30.1133
1380.41	30.0737
1382	29.561
1383.58	30.1689
1385.16	30.4236
1386.74	29.6013
1388.33	28.9056
1389.91	28.5649
1391.49	27.8355
1393.07	28.1937
1394.65	28.5656
1396.23	27.4303
1397.81	27.2691
1399.39	26.9398
1400.97	26.4767
1402.55	26.9396
1404.13	26.8344
1405.7	26.6621
1407.28	26.3029
1408.86	26.417
1410.44	26.3215
1412.01	26.5076
1413.59	26.5156
1415.17	26.0335
1416.74	26.8964
1418.32	28.7738
1419.89	28.9989
1421.47	29.7666
1423.04	31.3477
1424.62	31.9782
1426.19	33.2584
1427.77	34.9339
1429.34	36.7785
1430.91	38.4199
1432.49	39.5676
1434.06	41.446
1435.63	43.0486
1437.2	44.2787
1438.78	45.477
1440.35	46.9279
1441.92	47.6555
1443.49	48.6043
1445.06	48.5823
1446.63	49.1619
1448.2	49.3288
1449.77	48.8935
1451.34	48.8869
1452.91	47.8475
1454.48	48.8801
1456.05	47.7504
1457.62	47.5542
1459.18	47.0333
1460.75	45.6459
1462.32	45.4176
1463.89	44.0141
1465.45	43.0304
1467.02	41.5112
1468.59	39.863
1470.15	37.7036
1471.72	36.0839
1473.28	34.5055
1474.85	32.9732
1476.41	32.2853
1477.98	29.8319
1479.54	26.8201
1481.1	25.2577
1482.67	23.0882
1484.23	21.9863
1485.79	20.2861
1487.36	18.7304
1488.92	17.2707
1490.48	16.5237
1492.04	15.8743
1493.61	14.8363
1495.17	14.6912
1496.73	14.0688
1498.29	13.2406
1499.85	13.5327
1501.41	13.2765
1502.97	13.2191
1504.53	13.5157
1506.09	13.9653
1507.65	13.7266
1509.2	14.3669
1510.76	15.0093
1512.32	16.0167
1513.88	16.4393
1515.43	16.351
1516.99	16.0871
1518.55	16.4922
1520.1	17.1232
1521.66	17.6076
1523.22	17.1869
1524.77	17.3273
1526.33	16.6643
1527.88	17.1928
1529.44	17.7814
1530.99	18.3742
1532.54	19.932
1534.1	20.4416
1535.65	20.8828
1537.21	22.1594
1538.76	23.1238
1540.31	24.2339
1541.86	24.9088
1543.42	24.4698
1544.97	25.2257
1546.52	25.9814
1548.07	26.5452
1549.62	27.4466
1551.17	29.3046
1552.72	29.736
1554.27	29.6815
1555.82	29.9278
1557.37	29.8406
1558.92	32.1468
1560.47	32.8706
1562.02	33.7538
1563.56	33.9233
1565.11	34.9657
1566.66	35.6705
1568.21	36.2753
1569.75	37.1348
1571.3	36.8856
1572.85	37.1069
1574.39	37.662
1575.94	38.4013
1577.49	38.8403
1579.03	39.4919
1580.57	39.9378
1582.12	40.2046
1583.66	40.1121
1585.21	40.4357
1586.75	41.1862
1588.3	41.2873
1589.84	41.5491
1591.38	40.4153
1592.92	40.3757
1594.47	39.2365
1596.01	38.5321
1597.55	38.3518
1599.09	36.6261
1600.63	36.2929
1602.17	36.8409
1603.71	36.5277
1605.25	36.6177
1606.79	36.2317
1608.33	36.4713
1609.87	36.7237
1611.41	36.0355
1612.95	36.3461
1614.49	37.202
1616.03	36.7568
1617.57	37.0597
1619.1	36.5523
1620.64	36.7772
1622.18	38.1231
1623.72	37.8785
1625.25	38.6636
1626.79	39.5515
1628.32	40.6734
1629.86	40.6022
1631.39	41.3024
1632.93	42.3374
1634.46	43.1684
1636	44.8996
1637.53	45.4426
1639.07	46.9087
1640.6	48.2791
1642.13	49.4397
1643.67	50.2645
1645.2	51.1705
1646.73	51.3266
1648.26	52.0011
1649.8	52.9257
1651.33	54.1996
1652.86	54.8287
1654.39	54.8525
1655.92	55.2608
1657.45	56.0852
1658.98	55.8567
1660.51	55.931
1662.04	56.0733
1663.57	55.7425
1665.1	54.9633
1666.63	53.5183
1668.16	51.7078
1669.68	51.3208
1671.21	49.4083
1672.74	48.9178
1674.27	47.7152
1675.79	46.8289
1677.32	46.6521
1678.85	44.7487
1680.37	42.775
1681.9	41.2486
1683.42	39.6127
1684.95	38.7511
1686.47	37.3284
1688	35.5686
1689.52	34.5981
1691.05	31.9679
1692.57	29.6555
1694.09	28.5509
1695.62	26.8617
1697.14	25.842
1698.66	24.7954
1700.18	23.196
1701.71	22.2564
1703.23	21.3308
1704.75	20.0782
1706.27	18.6398
1707.79	18.1846
1709.31	16.8064
1710.83	15.6173
1712.35	14.8478
1713.87	14.4996
1715.39	14.0449
1716.91	13.6657
1718.43	13.3535
1719.95	13.2564
1721.47	12.2732
1722.99	12.0228
1724.5	12.8433
1726.02	12.3057
1727.54	11.8327
1729.06	11.486
1730.57	11.1911
1732.09	11.1763
1733.61	11.3288
1735.12	10.6539
1736.64	11.0165
1738.15	10.6873
1739.67	10.9288
1741.18	10.3997
1742.7	10.7358
1744.21	11.2778
1745.72	11.1457
1747.24	10.3795
1748.75	10.5756
1750.26	10.5588
1751.77	10.7356
1753.29	10.6309
1754.8	10.5341
1756.31	10.3751
1757.82	10.0704
1759.33	10.2048
1760.84	10.2603
1762.36	9.4276
1763.87	9.04915
1765.38	8.58124
1766.89	8.26541
1768.4	8.52761
1769.91	9.21489
1771.41	8.27325
1772.92	7.85507
1774.43	7.60128
1775.94	6.70079
1777.45	6.67401
1778.95	6.47233
1780.46	6.56283
1781.97	6.97946
1783.48	6.96591
1784.98	6.63941
1786.49	6.6881
1787.99	7.12163
1789.5	7.64442
1791.01	7.31506
1792.51	7.4375
1794.01	7.14383
1795.52	6.51017
1797.02	6.21735
1798.53	5.70976
1800.03	5.17656
1801.53	4.37523
1803.04	4.39418
1804.54	4.49405
1806.04	4.3853
1807.54	4.59198
1809.05	4.63314
1810.55	4.92473
1812.05	5.01783
1813.55	5.35328
1815.05	5.2399
1816.55	4.98201
1818.05	5.23894
1819.55	4.92387
1821.05	4.61767
1822.55	4.70369
1824.05	5.02378
1825.55	4.97592
1827.05	5.01663
1828.55	5.1206
1830.04	4.72746
1831.54	4.30199
1833.04	4.62892
1834.54	4.798
1836.03	4.36812
1837.53	4.40192
1839.03	4.76152
1840.52	4.42387
1842.02	4.57217
1843.51	4.57552
1845.01	5.2034
1846.5	5.33026
1848	5.43732
1849.49	5.83511
1850.99	6.13798
1852.48	6.81515
1853.97	7.22912
1855.47	7.60087
1856.96	6.62983
1858.45	6.57506
1859.94	6.17319
1861.44	5.87163
1862.93	5.87365
1864.42	5.65459
1865.91	5.62328
1867.4	5.65704
1868.89	4.97492
1870.38	4.84801
1871.87	4.67925
1873.36	4.45784
1874.85	4.99035
1876.34	5.04744
1877.83	4.7297
1879.32	4.88102
1880.81	4.19521
1882.3	4.28506
1882.57	4.09075
1884.07	3.75676
1885.56	3.48923
1887.06	3.01254
1888.55	3.11179
1890.04	2.76616
1891.54	2.83305
1893.03	2.18847
1894.52	1.38575
1896.02	0.754873
1897.51	1.57528
1899	1.45796
1900.49	1.08454
1901.98	0.39254
1903.47	0.300912
1904.96	1.16112
1906.45	0.597143
1907.94	0.70005
1909.43	0.681434
1910.92	1.52658
1912.41	1.20899
1913.9	1.59482
1915.39	2.10354
1916.88	2.08213
1918.37	2.14467
1919.85	1.68337
1921.34	1.37754
1922.83	1.63641
1924.32	1.5019
1925.8	1.17484
1927.29	1.81423
1928.78	1.50857
1930.26	1.42001
1931.75	1.93522
1933.23	2.13942
1934.72	2.70357
1936.2	3.425
1937.69	3.41675
1939.17	3.81819
1940.66	3.77554
1942.14	3.99226
1943.63	4.21969
1945.11	4.12198
1946.59	4.61699
1948.07	4.17214
1949.56	3.80866
1951.04	4.0762
1952.52	4.14817
1954	3.77659
1955.48	4.48695
1956.96	4.24295
1958.45	3.82274
1959.93	3.88741
1961.41	3.74823
1962.89	3.78591
1964.37	2.73666
1965.85	2.83894
1967.32	2.3999
1968.8	2.57527
1970.28	3.00102
1971.76	3.45979
1973.24	2.33549
1974.72	1.92125
1976.19	2.29611
1977.67	2.21204
1979.15	1.92399
1980.63	1.34884
1982.1	2.21598
1983.58	2.28291
1985.05	2.1068
1986.53	1.25846
1988	1.03923
1989.48	0.251861
1990.95	-0.196888
1992.43	-0.51406
1993.9	-0.621928
1995.38	0.248627
1996.85	0.615972
1998.32	0.784824
1999.8	0.478112
2001.27	0.658232
2002.74	0.735555
2004.22	1.0428
2005.69	1.63809
2007.16	1.87097
2008.63	1.97918
2010.1	2.36548
2011.57	2.17872
2013.04	2.70403
2014.51	2.69226
2015.98	2.93297
2017.45	3.0319
2018.92	2.94259
2020.39	3.6508
2021.86	3.96149
2023.33	4.75314
2024.8	5.60481
2026.27	5.22525
2027.74	5.1816
2029.2	4.99303
2030.67	4.79119
2032.14	4.73879
2033.61	4.77014
2035.07	5.1295
2036.54	5.44817
2038.01	6.27258
2039.47	7.09535
2040.94	7.33307
2042.4	7.30189
2043.87	6.68989
2045.33	7.03987
2046.8	7.12176
2048.26	7.04745
2049.72	7.21651
2051.19	6.65533
2052.65	6.67335
2054.12	7.32875
2055.58	7.83375
2057.04	7.20681
2058.5	7.19504
2059.97	7.53632
2061.43	7.58
2062.89	7.88021
2064.35	8.09764
2065.81	8.38083
2067.27	8.84798
2068.73	9.19965
2070.19	9.02508
2071.65	9.27276
2073.11	9.13539
2074.57	9.8023
2076.03	10.2493
2077.49	9.89824
2078.95	10.0335
2080.41	9.86546
2081.87	9.7813
2083.32	9.86037
2084.78	9.98451
2086.24	9.9776
2087.7	10.1772
2089.15	10.0488
2090.61	10.7179
2092.07	10.8938
2093.52	11.7538
2094.98	12.122
2096.43	12.3469
2097.89	12.5313
2099.34	12.4396
2100.8	12.8888
2102.25	13.4519
2103.71	14.452
2105.16	14.8456
2106.61	15.8202
2108.07	17.2623
2109.52	18.2359
2110.97	19.1155
2112.43	18.9979
2113.88	19.4145
2115.33	19.8624
2116.78	21.3689
2118.23	22.8523
2119.68	23.5823
2121.13	24.5612
2122.59	25.8449
2124.04	26.8255
2125.49	28.1616
2126.94	29.6301
2128.39	30.8662
2129.83	31.485
2131.28	33.0219
2132.73	33.4192
